T[Â°C]	330nm [counts / mm]	S.D.	First derivative	S.D. of first derivative
19.99929	7999.026	35.43312	-119.6677	5.892947
20.05328	7992.453	35.40104	-119.4689	5.746077
20.10727	7985.883	35.38227	-119.2704	5.599376
20.16126	7979.317	35.37624	-119.0721	5.452882
20.21525	7972.755	35.38089	-118.8741	5.30662
20.26924	7966.2	35.39478	-118.6765	5.160635
20.32323	7959.651	35.41561	-118.4791	5.014958
20.37722	7953.11	35.44235	-118.2821	4.869649
20.43121	7946.578	35.47297	-118.0856	4.724748
20.4852	7940.057	35.5058	-117.8894	4.580304
20.53919	7933.545	35.54036	-117.6938	4.436377
20.59318	7927.045	35.57627	-117.4987	4.29303
20.64717	7920.553	35.61379	-117.3042	4.150314
20.70116	7914.07	35.65447	-117.1103	4.008297
20.75515	7907.591	35.70147	-116.917	3.867051
20.80914	7901.114	35.75965	-116.7244	3.726636
20.86313	7894.633	35.84056	-116.5325	3.587134
20.91712	7888.142	35.97297	-116.3414	3.448609
20.97111	7881.635	36.20612	-116.151	3.31115
21.0251	7875.242	36.41654	-115.9615	3.174835
21.07909	7868.857	36.57097	-115.7727	3.039751
21.13308	7862.49	36.6536	-115.5848	2.905987
21.18707	7856.151	36.65433	-115.3978	2.773649
21.24106	7849.853	36.56731	-115.2116	2.642837
21.29505	7843.595	36.39631	-115.0263	2.513666
21.34904	7837.377	36.1552	-114.8419	2.386263
21.40303	7831.194	35.86339	-114.6582	2.26077
21.45702	7825.04	35.54239	-114.4754	2.137333
21.51101	7818.914	35.2208	-114.2933	2.016134
21.565	7812.814	34.92427	-114.112	1.897373
21.61899	7806.742	34.66161	-113.9314	1.781288
21.67298	7800.692	34.42794	-113.7514	1.668169
21.72697	7794.66	34.21384	-113.572	1.558364
21.78096	7788.642	34.01194	-113.3931	1.452319
21.83495	7782.633	33.81485	-113.2147	1.350582
21.88894	7776.628	33.61583	-113.0367	1.253876
21.94293	7770.62	33.40839	-112.8589	1.16311
21.99692	7764.603	33.18566	-112.6814	1.079443
22.05091	7758.58	32.95664	-112.5039	1.004321
22.1049	7752.554	32.74019	-112.3263	0.9394996
22.1589	7746.529	32.55989	-112.1485	0.8870044
22.21288	7740.506	32.43548	-111.9701	0.8489819
22.26687	7734.492	32.38245	-111.7911	0.8274224
22.32087	7728.492	32.41488	-111.611	0.8237796
22.37486	7722.516	32.54115	-111.4297	0.8386672
22.42885	7716.57	32.76048	-111.247	0.8717312
22.48284	7710.658	33.05856	-111.063	0.9217875
22.53683	7704.78	33.41374	-110.8781	0.987084
22.59082	7698.932	33.80561	-110.6931	1.065432
22.64481	7693.104	34.21249	-110.5643	1.134659
22.6988	7687.286	34.61186	-110.4405	1.200966
22.75279	7681.46	34.98377	-110.3216	1.263212
22.80678	7675.611	35.31828	-110.2076	1.320434
22.86077	7669.727	35.60863	-110.0982	1.371865
22.91476	7663.805	35.84499	-109.9933	1.416891
22.96875	7657.849	36.02144	-109.8926	1.455065
23.02274	7651.874	36.14516	-109.7959	1.486091
23.07673	7645.898	36.22999	-109.7029	1.509845
23.13072	7639.945	36.29	-109.6134	1.526322
23.18471	7634.039	36.32705	-109.5274	1.535664
23.2387	7628.197	36.33706	-109.4445	1.538144
23.29269	7622.42	36.31633	-109.3646	1.534187
23.34668	7616.701	36.2638	-109.2877	1.524348
23.40067	7611.026	36.1749	-109.2135	1.509322
23.45466	7605.376	36.03969	-109.1418	1.489964
23.50865	7599.734	35.85472	-109.0724	1.467305
23.56264	7594.083	35.62421	-109.0051	1.442609
23.61663	7588.405	35.35343	-108.9397	1.417376
23.67062	7582.687	35.05214	-108.8758	1.39334
23.72461	7576.917	34.73769	-108.8134	1.372404
23.7786	7571.092	34.42744	-108.7521	1.356537
23.83259	7565.217	34.12968	-108.6919	1.347604
23.88658	7559.3	33.84253	-108.6324	1.347204
23.94057	7553.357	33.5587	-108.5738	1.356476
23.99456	7547.402	33.27184	-108.516	1.375907
24.04855	7541.443	32.97589	-108.459	1.405317
24.10254	7535.486	32.67134	-108.4031	1.44386
24.15653	7529.536	32.36577	-108.3482	1.490143
24.21052	7523.593	32.07381	-108.2945	1.542368
24.26451	7517.657	31.81621	-108.2422	1.598538
24.3185	7511.723	31.61305	-108.1911	1.656622
24.37249	7505.785	31.47824	-108.1414	1.714677
24.42648	7499.833	31.41846	-108.093	1.770901
24.48047	7493.862	31.43626	-108.0455	1.823696
24.53446	7487.868	31.52315	-107.9987	1.871704
24.58845	7481.848	31.6636	-107.9524	1.913828
24.64244	7475.813	31.8304	-107.906	1.949226
24.69643	7469.777	31.98825	-107.8592	1.977241
24.75042	7463.757	32.1097	-107.8115	1.997392
24.80441	7457.766	32.18494	-107.7625	2.009362
24.8584	7451.809	32.20895	-107.7119	2.012978
24.9124	7445.886	32.17019	-107.6591	2.008215
24.96638	7440.003	32.0634	-107.6039	1.99519
25.02037	7434.163	31.89259	-107.5459	1.97415
25.07437	7428.372	31.67306	-107.4848	1.945482
25.12836	7422.629	31.42108	-107.4203	1.909686
25.18235	7416.934	31.14773	-107.3524	1.867338
25.23634	7411.275	30.86749	-107.2809	1.819035
25.29033	7405.644	30.59717	-107.2058	1.765349
25.34432	7400.03	30.34776	-107.127	1.706835
25.39831	7394.42	30.11924	-107.0446	1.643998
25.4523	7388.798	29.90373	-106.9585	1.577345
25.50629	7383.161	29.68645	-106.869	1.507387
25.56028	7377.506	29.45274	-106.7762	1.434676
25.61427	7371.832	29.19717	-106.6802	1.35983
25.66826	7366.13	28.92732	-106.5814	1.283516
25.72225	7360.393	28.66559	-106.48	1.206488
25.77624	7354.618	28.43589	-106.3763	1.129517
25.83023	7348.81	28.25735	-106.2706	1.053488
25.88422	7342.981	28.14931	-106.1634	0.9793617
25.93821	7337.154	28.13463	-106.0551	0.9082352
25.9922	7331.348	28.22984	-105.9462	0.8413053
26.04619	7325.573	28.43712	-105.8371	0.7798876
26.10018	7319.832	28.74121	-105.7283	0.7254628
26.15417	7314.117	29.12019	-105.6204	0.6795449
26.20816	7308.419	29.54643	-105.5138	0.6435712
26.26215	7302.729	29.99279	-105.4089	0.6186711
26.31614	7297.037	30.43632	-105.3061	0.6054243
26.37013	7291.333	30.85483	-105.2054	0.6036979
26.42412	7285.614	31.23194	-105.1073	0.6125928
26.47811	7279.872	31.55863	-105.0116	0.6306495
26.5321	7274.103	31.83547	-104.9184	0.6560965
26.58609	7268.313	32.06583	-104.8275	0.687134
26.64008	7262.518	32.24801	-104.7389	0.7220803
26.69407	7256.736	32.37875	-104.6523	0.759445
26.74806	7250.987	32.46204	-104.5676	0.7979486
26.80205	7245.287	32.50723	-104.4845	0.8365085
26.85604	7239.639	32.51944	-104.4029	0.8742276
26.91003	7234.047	32.50119	-104.3226	0.9103889
26.96402	7228.507	32.44629	-104.2435	0.9443748
27.01801	7223.016	32.3455	-104.1653	0.9757292
27.072	7217.566	32.19389	-104.0878	1.004099
27.12599	7212.146	31.9831	-104.0108	1.029293
27.17998	7206.736	31.70945	-103.9343	1.051238
27.23397	7201.313	31.38312	-103.8579	1.070009
27.28796	7195.864	31.02461	-103.7814	1.08576
27.34195	7190.377	30.66252	-103.7046	1.098735
27.39594	7184.845	30.32426	-103.6273	1.109199
27.44993	7179.269	30.03245	-103.5493	1.117396
27.50392	7173.664	29.801	-103.4705	1.12352
27.55791	7168.049	29.63692	-103.3909	1.127695
27.6119	7162.442	29.53537	-103.3106	1.130009
27.6659	7156.856	29.48684	-103.2298	1.130464
27.71988	7151.299	29.4741	-103.1486	1.129006
27.77387	7145.767	29.47487	-103.0672	1.125509
27.82787	7140.253	29.47293	-102.986	1.119816
27.88186	7134.75	29.46154	-102.9052	1.111748
27.93585	7129.249	29.44285	-102.825	1.101122
27.98984	7123.745	29.42471	-102.7456	1.087769
28.04383	7118.229	29.40687	-102.6672	1.071522
28.09782	7112.692	29.38579	-102.59	1.05228
28.15181	7107.125	29.35258	-102.5141	1.030012
28.2058	7101.531	29.29109	-102.4395	1.004818
28.25979	7095.917	29.19028	-102.3663	0.9769191
28.31378	7090.294	29.04476	-102.2946	0.9466532
28.36777	7084.667	28.85917	-102.2243	0.9144759
28.42176	7079.04	28.64197	-102.1555	0.8809658
28.47575	7073.41	28.40081	-102.0882	0.8467977
28.52974	7067.787	28.13913	-102.0226	0.8127006
28.58373	7062.177	27.86416	-101.9585	0.7794167
28.63772	7056.586	27.5872	-101.896	0.7475971
28.69171	7051.019	27.3185	-101.835	0.7178089
28.7457	7045.473	27.06922	-101.7754	0.6904963
28.79969	7039.946	26.85203	-101.7172	0.6659461
28.85368	7034.441	26.68046	-101.6603	0.6443363
28.90767	7028.957	26.562	-101.6046	0.6256403
28.96166	7023.492	26.49687	-101.5498	0.6097064
29.01565	7018.044	26.48416	-101.4959	0.5962427
29.06964	7012.617	26.52175	-101.4428	0.5848736
29.12363	7007.219	26.60933	-101.3902	0.5751545
29.17762	7001.85	26.74574	-101.3381	0.5665889
29.23161	6996.497	26.92681	-101.2864	0.5586959
29.2856	6991.146	27.14689	-101.2351	0.5510197
29.33959	6985.787	27.39105	-101.1839	0.5431882
29.39358	6980.411	27.6469	-101.133	0.5349157
29.44757	6975.014	27.90946	-101.0823	0.52603
29.50156	6969.597	28.18397	-101.0318	0.5165076
29.55555	6964.16	28.47259	-100.9817	0.5064992
29.60954	6958.708	28.77815	-100.9321	0.4963472
29.66353	6953.248	29.09775	-100.8831	0.4865772
29.71752	6947.789	29.41966	-100.8348	0.4778639
29.77151	6942.337	29.72595	-100.7874	0.4710208
29.8255	6936.896	29.99733	-100.7408	0.466876
29.87949	6931.468	30.22205	-100.6953	0.4661984
29.93348	6926.058	30.39518	-100.6508	0.469483
29.98747	6920.664	30.51387	-100.6074	0.4768903
30.04146	6915.276	30.58314	-100.565	0.4881781
30.09545	6909.878	30.61137	-100.5235	0.5027527
30.14944	6904.453	30.60574	-100.4827	0.5197725
30.20343	6898.994	30.57287	-100.4424	0.5382589
30.25742	6893.51	30.51661	-100.4025	0.5572225
30.31141	6888.012	30.43428	-100.3625	0.575762
30.3654	6882.51	30.31751	-100.3225	0.5931384
30.4194	6877.012	30.15362	-100.2822	0.6088408
30.47338	6871.533	29.93229	-100.2416	0.6226301
30.52737	6866.09	29.65256	-100.2005	0.6345491
30.58137	6860.697	29.32755	-100.1591	0.6449445
30.63535	6855.359	28.97322	-100.1172	0.6544104
30.68935	6850.077	28.59842	-100.0749	0.6637437
30.74334	6844.837	28.20977	-100.0323	0.6738925
30.79733	6839.624	27.81844	-99.98934	0.6858315
30.85132	6834.417	27.44061	-99.94611	0.7004431
30.90531	6829.198	27.09301	-99.90261	0.718381
30.9593	6823.942	26.79228	-99.85885	0.7399886
31.01329	6818.634	26.54686	-99.81481	0.7652292
31.06728	6813.27	26.35952	-99.77047	0.7937139
31.12127	6807.855	26.22912	-99.7258	0.8247406
31.17526	6802.401	26.15732	-99.68077	0.8573641
31.22925	6796.914	26.13924	-99.63538	0.8904713
31.28324	6791.406	26.16042	-99.58965	0.9228819
31.33723	6785.895	26.20661	-99.54364	0.9533849
31.39122	6780.395	26.26968	-99.49744	0.9808149
31.44521	6774.92	26.35137	-99.4512	1.004078
31.4992	6769.474	26.45069	-99.40506	1.022213
31.55319	6764.053	26.56313	-99.35915	1.034352
31.60718	6758.648	26.68374	-99.31359	1.039821
31.66117	6753.248	26.81335	-99.26842	1.038106
31.71516	6747.844	26.9584	-99.22366	1.028853
31.76915	6742.424	27.12143	-99.17924	1.011889
31.82314	6736.984	27.30599	-99.13504	0.9871839
31.87713	6731.521	27.50997	-99.0909	0.9548959
31.93112	6726.041	27.72134	-99.04667	0.9153529
31.98511	6720.558	27.92373	-99.00211	0.8690708
32.0391	6715.083	28.09528	-98.95699	0.8167343
32.09309	6709.627	28.2108	-98.91103	0.7591999
32.14708	6704.198	28.25535	-98.86397	0.6974392
32.20107	6698.808	28.22572	-98.81553	0.6325223
32.25506	6693.463	28.13539	-98.76546	0.565627
32.30905	6688.167	28.00095	-98.71358	0.4979779
32.36304	6682.916	27.83636	-98.65972	0.4308972
32.41703	6677.694	27.64577	-98.60376	0.3658002
32.47102	6672.487	27.42733	-98.54562	0.3041973
32.52501	6667.286	27.18779	-98.48524	0.2477388
32.579	6662.08	26.93988	-98.42262	0.1983406
32.63299	6656.868	26.69651	-98.35773	0.1582824
32.68699	6651.648	26.46523	-98.29059	0.1301633
32.74097	6646.423	26.24852	-98.22122	0.115872
32.79496	6641.194	26.04035	-98.14974	0.1143771
32.84895	6635.963	25.83638	-98.07631	0.1215422
32.90294	6630.728	25.63599	-98.00112	0.1331204
32.95694	6625.489	25.43831	-97.92443	0.146788
33.01093	6620.25	25.24296	-97.84652	0.1619922
33.06491	6615.011	25.05641	-97.76772	0.1792005
33.1189	6609.772	24.89665	-97.68833	0.1992623
33.17289	6604.536	24.78393	-97.60872	0.2229633
33.22689	6599.3	24.73189	-97.52921	0.2507479
33.28088	6594.063	24.74345	-97.45013	0.2826487
33.33487	6588.814	24.81356	-97.37183	0.3183145
33.38885	6583.543	24.93292	-97.29467	0.3571511
33.44284	6578.25	25.09739	-97.21899	0.3984198
33.49684	6572.93	25.30376	-97.14509	0.4413167
33.55083	6567.589	25.54224	-97.0733	0.4850106
33.60482	6562.233	25.79466	-97.00386	0.5286943
33.65881	6556.874	26.04788	-96.93702	0.5715993
33.7128	6551.519	26.29527	-96.87292	0.6130171
33.76679	6546.177	26.53629	-96.81168	0.6523279
33.82078	6540.848	26.77007	-96.75332	0.6889521
33.87477	6535.531	26.99654	-96.69781	0.7223898
33.92876	6530.225	27.21912	-96.64507	0.752146
33.98275	6524.931	27.44555	-96.59498	0.7777784
34.03674	6519.649	27.67945	-96.54732	0.7988949
34.09073	6514.383	27.91921	-96.50183	0.8151363
34.14472	6509.136	28.15667	-96.45823	0.8261753
34.19871	6503.914	28.37676	-96.41621	0.8316807
34.2527	6498.721	28.56357	-96.37548	0.8314183
34.30669	6493.563	28.70907	-96.33572	0.8252568
34.36068	6488.44	28.80926	-96.29662	0.8132168
34.41467	6483.347	28.85721	-96.25787	0.7955155
34.46866	6478.282	28.84526	-96.21918	0.7726131
34.52265	6473.241	28.76883	-96.18027	0.7452651
34.57664	6468.218	28.62848	-96.14088	0.714592
34.63063	6463.214	28.42391	-96.10075	0.6821095
34.68462	6458.221	28.15963	-96.05967	0.6497759
34.73861	6453.226	27.8469	-96.01746	0.6199479
34.7926	6448.217	27.5063	-95.974	0.5952769
34.84659	6443.184	27.16256	-95.92922	0.5783697
34.90058	6438.12	26.83506	-95.88314	0.5713913
34.95457	6433.021	26.53365	-95.83578	0.5755654
35.00856	6427.884	26.26315	-95.78727	0.5908818
35.06255	6422.703	26.02318	-95.73776	0.6161253
35.11654	6417.479	25.81286	-95.68748	0.6492352
35.17053	6412.226	25.63723	-95.63665	0.6877549
35.22452	6406.965	25.51085	-95.58553	0.7292524
35.27851	6401.716	25.44493	-95.5344	0.771544
35.3325	6396.493	25.44278	-95.48351	0.8128003
35.38649	6391.296	25.4929	-95.4331	0.8515835
35.44048	6386.122	25.5839	-95.38336	0.8867838
35.49447	6380.958	25.70015	-95.33448	0.917592
35.54846	6375.793	25.81762	-95.28662	0.9434465
35.60246	6370.615	25.91714	-95.23991	0.9640293
35.65644	6365.421	25.98694	-95.19446	0.9791877
35.71043	6360.217	26.0222	-95.15037	0.988948
35.76442	6355.007	26.02474	-95.1077	0.9934258
35.81841	6349.796	25.99815	-95.0665	0.9928511
35.87241	6344.588	25.94856	-95.02676	0.9875139
35.9264	6339.383	25.88216	-94.98846	0.9777705
35.98038	6334.181	25.8049	-94.95159	0.9640483
36.03437	6328.987	25.71977	-94.91608	0.9468117
36.08837	6323.806	25.62927	-94.88184	0.9265951
36.14236	6318.641	25.52834	-94.84875	0.9039283
36.19635	6313.496	25.40519	-94.81666	0.8793549
36.25034	6308.374	25.24905	-94.78535	0.8534431
36.30433	6303.276	25.0534	-94.7546	0.8267358
36.35832	6298.202	24.81669	-94.72408	0.7997752
36.41231	6293.145	24.54281	-94.69346	0.7730997
36.4663	6288.09	24.24311	-94.66237	0.7472038
36.52029	6283.02	23.93658	-94.63046	0.7225459
36.57428	6277.931	23.64078	-94.59738	0.6995147
36.62827	6272.823	23.37025	-94.56284	0.6784323
36.68226	6267.697	23.13702	-94.52657	0.6596102
36.73625	6262.555	22.96029	-94.48833	0.6432889
36.79024	6257.407	22.85781	-94.44795	0.6296989
36.84423	6252.263	22.83969	-94.4053	0.6190435
36.89822	6247.136	22.90583	-94.36025	0.6114798
36.95221	6242.038	23.05156	-94.31276	0.6070735
37.0062	6236.974	23.26369	-94.26276	0.6057855
37.06019	6231.941	23.5236	-94.21022	0.6074691
37.11418	6226.932	23.80948	-94.15513	0.6118901
37.16817	6221.934	24.10179	-94.0975	0.6187232
37.22216	6216.941	24.3819	-94.03734	0.6276034
37.27615	6211.949	24.63528	-93.97462	0.6381469
37.33014	6206.952	24.86247	-93.90936	0.6499957
37.38413	6201.942	25.06948	-93.84158	0.662816
37.43812	6196.913	25.26299	-93.77126	0.6762977
37.49211	6191.864	25.44614	-93.69841	0.6901526
37.5461	6186.798	25.62519	-93.62309	0.7041504
37.60009	6181.719	25.80014	-93.54537	0.7180914
37.65408	6176.628	25.96945	-93.46543	0.7318757
37.70807	6171.531	26.1266	-93.38345	0.7454563
37.76206	6166.431	26.25995	-93.29974	0.758836
37.81605	6161.335	26.35235	-93.21454	0.7720335
37.87004	6156.25	26.38667	-93.12815	0.7850559
37.92403	6151.181	26.34764	-93.04082	0.7978794
37.97802	6146.126	26.23014	-92.95284	0.8104776
38.03201	6141.091	26.04436	-92.86446	0.8227901
38.086	6136.071	25.80353	-92.77593	0.8347279
38.13999	6131.059	25.52337	-92.68749	0.8461965
38.19398	6126.043	25.21861	-92.59933	0.8570806
38.24797	6121.016	24.90594	-92.51157	0.8672718
38.30196	6115.968	24.59788	-92.42429	0.8766569
38.35595	6110.905	24.3061	-92.33753	0.8851234
38.40994	6105.829	24.03936	-92.2513	0.8925612
38.46394	6100.742	23.80616	-92.16557	0.8988771
38.51793	6095.65	23.61144	-92.08028	0.9040337
38.57191	6090.563	23.45353	-91.99541	0.9080717
38.6259	6085.489	23.32094	-91.9109	0.9110954
38.67989	6080.439	23.20564	-91.82668	0.9132859
38.73389	6075.42	23.10933	-91.74271	0.9149348
38.78788	6070.433	23.03932	-91.65892	0.9164094
38.84187	6065.475	23.00051	-91.57533	0.9181559
38.89585	6060.54	22.99021	-91.49189	0.9206159
38.94984	6055.622	22.99952	-91.40861	0.924215
39.00384	6050.717	23.01563	-91.32546	0.929276
39.05783	6045.817	23.0306	-91.24245	0.9359839
39.11182	6040.91	23.04144	-91.15952	0.944366
39.16581	6035.992	23.0463	-91.07666	0.9542806
39.2198	6031.067	23.03765	-90.99378	0.9654142
39.27379	6026.146	23.0123	-90.9108	0.9773251
39.32778	6021.231	22.96933	-90.82756	0.9894776
39.38177	6016.323	22.90457	-90.74394	1.001257
39.43576	6011.421	22.81593	-90.65978	1.012024
39.48975	6006.536	22.70446	-90.5749	1.021149
39.54374	6001.677	22.57178	-90.48915	1.028063
39.59773	5996.857	22.42547	-90.40242	1.032289
39.65172	5992.079	22.27269	-90.31467	1.033462
39.70571	5987.344	22.12242	-90.22592	1.031327
39.7597	5982.646	21.98088	-90.13625	1.025725
39.81369	5977.975	21.84973	-90.04581	1.016602
39.86768	5973.313	21.72825	-89.95475	1.003991
39.92167	5968.644	21.60632	-89.86324	0.9879777
39.97566	5963.957	21.47746	-89.77151	0.9686436
40.02965	5959.245	21.34178	-89.67981	0.9460781
40.08364	5954.505	21.20354	-89.58842	0.9203925
40.13763	5949.728	21.06637	-89.49767	0.8917087
40.19162	5944.91	20.93863	-89.40788	0.8601718
40.24561	5940.051	20.83227	-89.31935	0.8259738
40.2996	5935.16	20.76332	-89.2324	0.7893878
40.35359	5930.251	20.74719	-89.14731	0.7507786
40.40758	5925.346	20.79323	-89.06437	0.7106293
40.46157	5920.458	20.9098	-88.98382	0.6695349
40.51556	5915.592	21.09677	-88.90587	0.6281951
40.56955	5910.746	21.34308	-88.83069	0.587414
40.62354	5905.912	21.63325	-88.75837	0.548092
40.67753	5901.085	21.94591	-88.68897	0.5111728
40.73152	5896.266	22.26033	-88.62249	0.4776425
40.78551	5891.45	22.55566	-88.5589	0.448467
40.8395	5886.635	22.80816	-88.49813	0.4245174
40.89349	5881.817	23.00045	-88.44012	0.4064566
40.94748	5876.992	23.12499	-88.38472	0.3946229
41.00147	5872.154	23.18659	-88.33179	0.3889722
41.05546	5867.303	23.19661	-88.28117	0.3891247
41.10946	5862.443	23.17169	-88.23267	0.3944346
41.16344	5857.585	23.13428	-88.18613	0.4041477
41.21743	5852.749	23.10177	-88.14133	0.4175276
41.27142	5847.946	23.08091	-88.09807	0.4339201
41.32542	5843.186	23.06852	-88.05614	0.4527939
41.37941	5838.461	23.05687	-88.01527	0.4737032
41.4334	5833.769	23.03736	-87.9752	0.496278
41.48738	5829.1	23.00157	-87.9356	0.5201695
41.54137	5824.45	22.9446	-87.89614	0.5450602
41.59537	5819.807	22.86317	-87.85643	0.5706469
41.64936	5815.162	22.75456	-87.81609	0.5965841
41.70335	5810.506	22.61614	-87.77473	0.622504
41.75734	5805.837	22.45034	-87.73199	0.6480058
41.81133	5801.155	22.26762	-87.68756	0.6726822
41.86532	5796.458	22.08044	-87.64114	0.6961319
41.91931	5791.749	21.89972	-87.59248	0.717997
41.9733	5787.034	21.73973	-87.54138	0.7379872
42.02729	5782.326	21.61653	-87.48772	0.7558694
42.08128	5777.635	21.53616	-87.43147	0.771448
42.13527	5772.965	21.494	-87.37263	0.7845823
42.18926	5768.31	21.47793	-87.31132	0.795157
42.24325	5763.659	21.47663	-87.24767	0.8030689
42.29724	5759	21.48111	-87.18185	0.8082182
42.35123	5754.328	21.48332	-87.11409	0.8105216
42.40522	5749.647	21.47422	-87.04459	0.8098752
42.45921	5744.962	21.4425	-86.97361	0.8061751
42.5132	5740.271	21.3796	-86.90138	0.7993255
42.56719	5735.575	21.28657	-86.82815	0.7892252
42.62118	5730.869	21.16981	-86.75413	0.7758008
42.67517	5726.151	21.04407	-86.67948	0.7590158
42.72916	5721.419	20.92849	-86.60435	0.7389006
42.78315	5716.68	20.83716	-86.52885	0.7155873
42.83714	5711.94	20.77516	-86.45311	0.6893259
42.89113	5707.208	20.73849	-86.37724	0.6604928
42.94512	5702.488	20.71277	-86.30139	0.6295784
42.99911	5697.777	20.68637	-86.22572	0.5972033
43.0531	5693.069	20.64731	-86.15034	0.5640895
43.10709	5688.361	20.59009	-86.07542	0.5310624
43.16108	5683.652	20.51155	-86.00115	0.499031
43.21507	5678.94	20.40581	-85.92774	0.4689789
43.26906	5674.227	20.2735	-85.85544	0.441884
43.32305	5669.51	20.11481	-85.78448	0.418598
43.37704	5664.787	19.93448	-85.71515	0.3997248
43.43103	5660.061	19.74	-85.64763	0.3854814
43.48502	5655.34	19.54199	-85.58211	0.3756399
43.53901	5650.629	19.35645	-85.51874	0.3695804
43.593	5645.936	19.19574	-85.45762	0.3664135
43.64699	5641.265	19.07016	-85.39882	0.3651528
43.70098	5636.614	18.98679	-85.34236	0.3648503
43.75497	5631.981	18.94387	-85.28825	0.3647166
43.80896	5627.367	18.93477	-85.2364	0.3641341
43.86295	5622.773	18.95135	-85.18674	0.3626738
43.91694	5618.196	18.98695	-85.13911	0.3601057
43.97094	5613.636	19.03787	-85.0934	0.3563449
44.02493	5609.094	19.10355	-85.04944	0.3514448
44.07891	5604.572	19.18778	-85.00708	0.3455552
44.1329	5600.073	19.29253	-84.96619	0.3389046
44.18689	5595.596	19.41935	-84.92662	0.3317842
44.24089	5591.134	19.56877	-84.88824	0.324531
44.29488	5586.679	19.74386	-84.85091	0.3175721
44.34887	5582.218	19.9468	-84.81448	0.3114131
44.40285	5577.743	20.17825	-84.77876	0.3066139
44.45684	5573.249	20.43112	-84.74355	0.3037534
44.51084	5568.74	20.69376	-84.70867	0.3033861
44.56483	5564.225	20.95617	-84.67389	0.3059263
44.61882	5559.714	21.20973	-84.63895	0.3115894
44.67281	5555.212	21.4493	-84.60357	0.3203422
44.7268	5550.723	21.67033	-84.56742	0.3319132
44.78079	5546.246	21.86809	-84.5302	0.3458796
44.83478	5541.781	22.03852	-84.49159	0.3617333
44.88877	5537.325	22.17453	-84.45135	0.3789376
44.94276	5532.872	22.26871	-84.40926	0.3970005
44.99675	5528.418	22.31522	-84.36518	0.4154961
45.05074	5523.962	22.3139	-84.31899	0.4340889
45.10473	5519.498	22.26795	-84.27065	0.4525774
45.15872	5515.021	22.18104	-84.22013	0.4709445
45.21271	5510.53	22.06195	-84.16752	0.4893225
45.2667	5506.031	21.91179	-84.11295	0.5080597
45.32069	5501.528	21.73136	-84.05664	0.5276636
45.37468	5497.021	21.5165	-83.99884	0.5487434
45.42867	5492.509	21.26362	-83.93987	0.5719057
45.48266	5487.987	20.9746	-83.88004	0.5976863
45.53665	5483.45	20.65229	-83.81976	0.6264502
45.59064	5478.906	20.3099	-83.75942	0.6583321
45.64463	5474.355	19.9668	-83.69949	0.6932086
45.69862	5469.797	19.63967	-83.64043	0.7306696
45.75261	5465.227	19.33809	-83.58267	0.7700728
45.8066	5460.641	19.06888	-83.5266	0.8105466
45.86059	5456.035	18.83952	-83.47253	0.8510803
45.91458	5451.404	18.65455	-83.42071	0.8905951
45.96857	5446.746	18.51707	-83.37131	0.9280027
46.02256	5442.06	18.43586	-83.32442	0.9622433
46.07655	5437.346	18.4148	-83.28008	0.9923761
46.13054	5432.612	18.45321	-83.23823	1.017573
46.18453	5427.868	18.54259	-83.1988	1.037163
46.23852	5423.123	18.66684	-83.16161	1.050669
46.29251	5418.392	18.80767	-83.1265	1.057792
46.3465	5413.684	18.95163	-83.0932	1.058448
46.40049	5409.004	19.08907	-83.06146	1.052759
46.45448	5404.354	19.20957	-83.03093	1.041026
46.50847	5399.734	19.30389	-83.00124	1.023736
46.56247	5395.143	19.36482	-82.97198	1.001521
46.61646	5390.575	19.39363	-82.9427	0.9751834
46.67044	5386.027	19.39787	-82.91289	0.9456333
46.72443	5381.5	19.38534	-82.88198	0.9139058
46.77842	5376.997	19.36191	-82.8494	0.8810955
46.83242	5372.528	19.32496	-82.81455	0.8483477
46.88641	5368.1	19.26697	-82.77683	0.8167675
46.9404	5363.723	19.18025	-82.73569	0.7873939
46.99438	5359.404	19.05938	-82.69067	0.7610933
47.04837	5355.141	18.89883	-82.64136	0.7384732
47.10237	5350.926	18.69888	-82.58746	0.719834
47.15636	5346.746	18.4664	-82.52879	0.7050607
47.21035	5342.594	18.20859	-82.46523	0.6936718
47.26434	5338.462	17.93506	-82.39678	0.6848376
47.31833	5334.341	17.65592	-82.32357	0.6774631
47.37232	5330.217	17.38031	-82.24578	0.6703025
47.42631	5326.077	17.12101	-82.16372	0.6621096
47.4803	5321.907	16.88508	-82.07776	0.6517048
47.53429	5317.696	16.67614	-81.98835	0.6381044
47.58828	5313.439	16.50027	-81.89599	0.6204826
47.64227	5309.134	16.36882	-81.80127	0.5982723
47.69626	5304.783	16.29347	-81.70486	0.5711466
47.75025	5300.392	16.27581	-81.60742	0.5390384
47.80424	5295.965	16.31015	-81.50969	0.5021733
47.85823	5291.508	16.3898	-81.41234	0.4611066
47.91222	5287.031	16.50714	-81.31606	0.4168457
47.96621	5282.542	16.66247	-81.22147	0.3709148
48.0202	5278.045	16.85977	-81.12916	0.3256923
48.07419	5273.544	17.10268	-81.03967	0.2847927
48.12818	5269.034	17.39033	-80.95345	0.2535099
48.18217	5264.505	17.71888	-80.87091	0.2383176
48.23616	5259.946	18.08352	-80.79238	0.2439477
48.29015	5255.355	18.48038	-80.71808	0.2697103
48.34414	5250.736	18.90022	-80.64816	0.3103971
48.39813	5246.103	19.33171	-80.58266	0.3601156
48.45212	5241.47	19.75539	-80.52154	0.4143344
48.50611	5236.856	20.15208	-80.46468	0.4699778
48.5601	5232.277	20.50462	-80.41183	0.524994
48.61409	5227.744	20.80046	-80.36272	0.5779794
48.66808	5223.262	21.033	-80.31696	0.6279366
48.72207	5218.831	21.20198	-80.27409	0.67417
48.77606	5214.446	21.31345	-80.23359	0.7161642
48.83005	5210.097	21.37265	-80.19485	0.7535846
48.88404	5205.776	21.38295	-80.15723	0.7861876
48.93803	5201.48	21.34931	-80.12007	0.8138475
48.99202	5197.205	21.27256	-80.08272	0.8365138
49.04601	5192.947	21.1572	-80.04453	0.8542091
49.1	5188.708	21.01398	-80.00494	0.8670517
49.15399	5184.485	20.85399	-79.9634	0.8752598
49.20798	5180.281	20.68285	-79.91953	0.879169
49.26197	5176.099	20.49782	-79.87294	0.8792256
49.31596	5171.941	20.28925	-79.82344	0.8759824
49.36995	5167.811	20.04802	-79.77091	0.870071
49.42394	5163.706	19.76809	-79.71533	0.8622238
49.47794	5159.62	19.44206	-79.65678	0.8532563
49.53193	5155.542	19.06972	-79.5954	0.8440305
49.58591	5151.458	18.65788	-79.5314	0.8354762
49.6399	5147.357	18.2265	-79.46509	0.8285026
49.6939	5143.229	17.79803	-79.3968	0.823958
49.74789	5139.063	17.38796	-79.32695	0.8225122
49.80188	5134.851	17.0108	-79.25598	0.8245779
49.85587	5130.59	16.67567	-79.18435	0.8302432
49.90985	5126.285	16.38828	-79.11256	0.8392755
49.96385	5121.945	16.15455	-79.0411	0.8510988
50.01784	5117.589	15.98121	-78.97048	0.8648975
50.07183	5113.238	15.87083	-78.90121	0.8796532
50.12582	5108.91	15.8144	-78.83379	0.8942518
50.17981	5104.609	15.79662	-78.76868	0.9075307
50.2338	5100.334	15.80631	-78.70632	0.918359
50.28779	5096.078	15.82973	-78.64708	0.9256725
50.34178	5091.833	15.8569	-78.59125	0.9285169
50.39577	5087.589	15.88099	-78.53902	0.9261503
50.44976	5083.335	15.89631	-78.49049	0.9180602
50.50375	5079.063	15.90305	-78.44566	0.904011
50.55774	5074.772	15.9088	-78.40442	0.8840243
50.61173	5070.461	15.92077	-78.3666	0.8583802
50.66572	5066.138	15.94187	-78.33192	0.8275997
50.71971	5061.81	15.97389	-78.30005	0.792426
50.7737	5057.481	16.01848	-78.27057	0.7538695
50.82769	5053.164	16.0763	-78.24304	0.7131996
50.88168	5048.871	16.14726	-78.21699	0.6719803
50.93567	5044.613	16.22967	-78.19191	0.632029
50.98966	5040.396	16.32094	-78.16729	0.5953606
51.04365	5036.223	16.41795	-78.1426	0.564043
51.09764	5032.091	16.51437	-78.1173	0.5399727
51.15163	5027.986	16.60674	-78.09087	0.5245244
51.20562	5023.893	16.69604	-78.06286	0.5182624
51.25961	5019.796	16.7809	-78.03284	0.5207167
51.3136	5015.686	16.85848	-78.00049	0.5304997
51.36759	5011.556	16.92321	-77.96557	0.5456306
51.42158	5007.405	16.96459	-77.9279	0.5638939
51.47557	5003.23	16.97302	-77.88746	0.5831779
51.52956	4999.036	16.94492	-77.84424	0.6015755
51.58355	4994.824	16.88379	-77.79831	0.6175234
51.63754	4990.599	16.80094	-77.74984	0.6297502
51.69153	4986.367	16.71107	-77.69904	0.6373135
51.74552	4982.133	16.62751	-77.64612	0.6394972
51.79951	4977.901	16.55995	-77.59135	0.6359062
51.8535	4973.677	16.51325	-77.535	0.6263956
51.90749	4969.457	16.49011	-77.47735	0.6110941
51.96148	4965.241	16.49307	-77.41867	0.5903645
52.01547	4961.029	16.52534	-77.35922	0.564809
52.06947	4956.823	16.58984	-77.29927	0.5352539
52.12346	4952.622	16.68694	-77.23904	0.5027488
52.17744	4948.42	16.81347	-77.17873	0.4685931
52.23143	4944.213	16.96252	-77.11857	0.4343671
52.28542	4939.999	17.12122	-77.05872	0.4019426
52.33942	4935.78	17.28053	-76.99933	0.3734943
52.39341	4931.56	17.43035	-76.94054	0.3513154
52.4474	4927.334	17.56499	-76.88242	0.3375184
52.50138	4923.104	17.68879	-76.82508	0.3334472
52.55537	4918.868	17.80548	-76.76852	0.3392696
52.60937	4914.633	17.91997	-76.71273	0.3538733
52.66336	4910.406	18.03507	-76.65761	0.3753118
52.71735	4906.19	18.15242	-76.60303	0.4013146
52.77134	4901.989	18.27787	-76.54877	0.4297434
52.82533	4897.804	18.414	-76.49464	0.4587462
52.87932	4893.637	18.56022	-76.44038	0.4868405
52.93331	4889.493	18.71111	-76.3857	0.5128683
52.9873	4885.378	18.85847	-76.33038	0.5359769
53.04129	4881.297	18.98797	-76.2741	0.5556132
53.09528	4877.247	19.08102	-76.21661	0.5714204
53.14927	4873.22	19.12651	-76.15764	0.5832259
53.20326	4869.211	19.11952	-76.09692	0.5910123
53.25725	4865.212	19.06068	-76.03426	0.5948623
53.31124	4861.216	18.95618	-75.96947	0.5949243
53.36523	4857.216	18.81492	-75.90252	0.5914053
53.41922	4853.208	18.64092	-75.83341	0.5845443
53.47321	4849.193	18.43796	-75.76231	0.5746084
53.5272	4845.172	18.20859	-75.68942	0.5618813
53.58119	4841.151	17.95996	-75.61507	0.5466305
53.63518	4837.139	17.7059	-75.53958	0.529117
53.68917	4833.138	17.46285	-75.46338	0.5096115
53.74316	4829.143	17.24497	-75.38687	0.4883962
53.79715	4825.148	17.05736	-75.31048	0.4657649
53.85114	4821.141	16.89587	-75.23463	0.4419868
53.90513	4817.116	16.75641	-75.15971	0.4172879
53.95912	4813.067	16.63537	-75.08612	0.3918588
54.01311	4808.994	16.52876	-75.01415	0.365818
54.0671	4804.898	16.43357	-74.94413	0.3392308
54.12109	4800.787	16.35069	-74.87628	0.3121168
54.17508	4796.663	16.28012	-74.81083	0.2844652
54.22907	4792.528	16.21942	-74.74791	0.2562666
54.28306	4788.388	16.17323	-74.68764	0.2275388
54.33705	4784.251	16.14699	-74.63009	0.1983857
54.39104	4780.123	16.14305	-74.57525	0.1690874
54.44503	4776.01	16.16916	-74.52309	0.1402895
54.49902	4771.917	16.2337	-74.47351	0.1134261
54.55301	4767.841	16.33982	-74.42638	0.09158415
54.607	4763.779	16.48665	-74.38148	0.08046351
54.66099	4759.727	16.66187	-74.33852	0.0854605
54.71498	4755.683	16.85183	-74.29714	0.1048488
54.76897	4751.644	17.03836	-74.25694	0.13258
54.82296	4747.606	17.2028	-74.21744	0.1643048
54.87695	4743.571	17.33393	-74.17816	0.1976734
54.93095	4739.541	17.42711	-74.13855	0.2313137
54.98494	4735.523	17.48048	-74.09803	0.2642327
55.03893	4731.524	17.49803	-74.05603	0.295629
55.09291	4727.552	17.48099	-74.01196	0.3247464
55.1469	4723.616	17.43716	-73.96527	0.3509049
55.2009	4719.718	17.38172	-73.91541	0.3734508
55.25489	4715.858	17.32935	-73.86191	0.3917917
55.30888	4712.029	17.29223	-73.80431	0.4053606
55.36287	4708.219	17.27332	-73.74232	0.4136413
55.41685	4704.415	17.2683	-73.67577	0.4162005
55.47085	4700.601	17.26883	-73.60458	0.4126753
55.52484	4696.764	17.26868	-73.52882	0.4028095
55.57883	4692.894	17.26222	-73.44859	0.3864802
55.63282	4688.991	17.24657	-73.36411	0.3637431
55.68681	4685.063	17.22333	-73.27563	0.3347965
55.7408	4681.119	17.19676	-73.18349	0.3000604
55.79479	4677.168	17.17148	-73.08804	0.2602406
55.84878	4673.218	17.15385	-72.98971	0.2165038
55.90277	4669.267	17.154	-72.88893	0.1709275
55.95676	4665.308	17.17737	-72.78619	0.1280778
56.01075	4661.332	17.22909	-72.68199	0.09940405
56.06474	4657.332	17.30907	-72.57687	0.1038486
56.11873	4653.31	17.41549	-72.47134	0.1409481
56.17272	4649.27	17.54634	-72.36596	0.1935258
56.22671	4645.214	17.70052	-72.26121	0.2518941
56.2807	4641.147	17.8777	-72.15754	0.3120731
56.33469	4637.076	18.06899	-72.05535	0.3721026
56.38868	4633.009	18.25843	-71.95503	0.4308121
56.44267	4628.954	18.43309	-71.85691	0.4874247
56.49666	4624.913	18.58076	-71.76129	0.5414368
56.55065	4620.884	18.69775	-71.66846	0.5925202
56.60464	4616.862	18.7808	-71.57862	0.6405199
56.65863	4612.847	18.83366	-71.492	0.6854233
56.71262	4608.835	18.86357	-71.40869	0.7273686
56.76661	4604.825	18.87123	-71.3288	0.7665899
56.8206	4600.821	18.85637	-71.25231	0.8034441
56.87459	4596.833	18.82143	-71.17916	0.8383572
56.92858	4592.872	18.76771	-71.10918	0.8718544
56.98257	4588.943	18.70055	-71.04211	0.9044937
57.03656	4585.053	18.61926	-70.97765	0.9368712
57.09055	4581.21	18.51867	-70.91539	0.9695637
57.14454	4577.421	18.39289	-70.85491	1.003077
57.19853	4573.688	18.23629	-70.79574	1.037827
57.25252	4570.011	18.05	-70.7374	1.074111
57.30651	4566.386	17.83591	-70.67938	1.112105
57.3605	4562.802	17.60031	-70.62122	1.151819
57.41449	4559.25	17.34817	-70.56245	1.193133
57.46848	4555.72	17.08649	-70.50269	1.235767
57.52247	4552.203	16.82127	-70.44156	1.279353
57.57647	4548.679	16.56041	-70.37881	1.323412
57.63046	4545.131	16.30722	-70.31425	1.367401
57.68444	4541.546	16.06185	-70.24774	1.410732
57.73843	4537.927	15.82154	-70.17923	1.452794
57.79242	4534.28	15.58713	-70.10872	1.492966
57.84642	4530.62	15.36535	-70.03626	1.530574
57.90041	4526.952	15.16398	-69.962	1.564957
57.9544	4523.278	14.994	-69.88606	1.59544
58.00838	4519.597	14.86053	-69.80866	1.621405
58.06238	4515.913	14.75889	-69.73	1.642244
58.11637	4512.231	14.68251	-69.6503	1.657397
58.17036	4508.546	14.62452	-69.56979	1.666346
58.22435	4504.853	14.58212	-69.48866	1.668627
58.27834	4501.145	14.55182	-69.40707	1.663855
58.33233	4497.419	14.52829	-69.32516	1.651712
58.38632	4493.675	14.51051	-69.24297	1.631965
58.44031	4489.908	14.50053	-69.16051	1.604476
58.4943	4486.114	14.50115	-69.07779	1.569212
58.54829	4482.299	14.51394	-68.99479	1.526249
58.60228	4478.468	14.53725	-68.91151	1.475782
58.65627	4474.627	14.5725	-68.82795	1.418139
58.71026	4470.78	14.62251	-68.74413	1.353801
58.76425	4466.934	14.68126	-68.66003	1.283403
58.81824	4463.095	14.73615	-68.57562	1.20777
58.87223	4459.27	14.76994	-68.49082	1.127874
58.92622	4455.461	14.76942	-68.40552	1.044855
58.98021	4451.666	14.72989	-68.31953	0.9599978
59.0342	4447.876	14.65363	-68.23257	0.8747151
59.08819	4444.088	14.54533	-68.14436	0.790538
59.14218	4440.296	14.40929	-68.05447	0.7090728
59.19617	4436.497	14.24785	-67.96249	0.6319625
59.25016	4432.689	14.06391	-67.86792	0.5608999
59.30415	4428.868	13.85741	-67.77022	0.4975385
59.35814	4425.035	13.62659	-67.66885	0.4434069
59.41213	4421.195	13.36911	-67.56319	0.3996507
59.46612	4417.358	13.08601	-67.45268	0.3667545
59.52011	4413.533	12.78907	-67.33678	0.3441826
59.5741	4409.727	12.49081	-67.21504	0.3303409
59.62809	4405.942	12.20678	-67.08706	0.3228576
59.68208	4402.182	11.95157	-66.95253	0.3191158
59.73607	4398.45	11.74006	-66.81121	0.3167477
59.79006	4394.755	11.58217	-66.66296	0.3139372
59.84405	4391.105	11.48385	-66.50766	0.3094907
59.89804	4387.507	11.44714	-66.34528	0.3028695
59.95203	4383.958	11.47359	-66.17582	0.294134
60.00602	4380.45	11.56254	-65.99932	0.2839128
60.06001	4376.974	11.70776	-65.81585	0.2734078
60.114	4373.513	11.90091	-65.62547	0.2642854
60.168	4370.05	12.1355	-65.4283	0.2585564
60.22198	4366.574	12.4047	-65.22443	0.2581781
60.27597	4363.085	12.69823	-65.01402	0.2645727
60.32996	4359.589	13.00548	-64.7972	0.2781693
60.38395	4356.091	13.32139	-64.57409	0.2983202
60.43795	4352.599	13.64065	-64.34483	0.3236195
60.49194	4349.122	13.95604	-64.10949	0.3523527
60.54593	4345.666	14.25637	-63.86824	0.382818
60.59991	4342.233	14.53441	-63.62125	0.4134909
60.6539	4338.82	14.79493	-63.36874	0.4430849
60.7079	4335.419	15.04692	-63.11094	0.4705313
60.76189	4332.026	15.29428	-62.84812	0.4949709
60.81588	4328.635	15.53682	-62.5805	0.5157131
60.86987	4325.242	15.76928	-62.30829	0.5322117
60.92385	4321.849	15.98413	-62.03165	0.5440419
60.97785	4318.457	16.17161	-61.75071	0.5508822
61.03184	4315.067	16.32067	-61.46549	0.5525192
61.08583	4311.679	16.42247	-61.17597	0.5488257
61.13982	4308.292	16.47106	-60.88205	0.5397637
61.19381	4304.91	16.46374	-60.58357	0.5253623
61.2478	4301.538	16.40735	-60.2803	0.5057153
61.30179	4298.183	16.31282	-59.97196	0.4810019
61.35578	4294.853	16.1868	-59.65825	0.4515015
61.40977	4291.557	16.03407	-59.33881	0.417623
61.46376	4288.303	15.86122	-59.01324	0.3799195
61.51775	4285.1	15.67745	-58.68113	0.3391564
61.57174	4281.946	15.49105	-58.34203	0.2963765
61.62573	4278.839	15.3076	-57.9955	0.2530688
61.67972	4275.766	15.13218	-57.64106	0.2115394
61.73371	4272.708	14.96863	-57.27822	0.175577
61.7877	4269.648	14.81855	-56.9065	0.1511822
61.84169	4266.578	14.67911	-56.52537	0.1451216
61.89568	4263.491	14.54688	-56.13431	0.1590297
61.94967	4260.395	14.42658	-55.73281	0.1870996
62.00366	4257.296	14.3281	-55.32034	0.2220673
62.05765	4254.204	14.25738	-54.89633	0.2588935
62.11164	4251.124	14.2167	-54.4602	0.2945081
62.16563	4248.058	14.20273	-54.01135	0.327005
62.21962	4245.008	14.20845	-53.54916	0.3550918
62.27361	4241.979	14.22491	-53.073	0.377902
62.3276	4238.974	14.24764	-52.58228	0.3948558
62.38159	4235.994	14.27699	-52.07637	0.405605
62.43558	4233.039	14.31202	-51.55465	0.4100422
62.48957	4230.108	14.35091	-51.01646	0.4082434
62.54356	4227.206	14.39329	-50.46118	0.4005125
62.59755	4224.334	14.43967	-49.88814	0.3873646
62.65154	4221.501	14.49144	-49.29675	0.3695954
62.70553	4218.704	14.54165	-48.68636	0.3483616
62.75952	4215.938	14.58496	-48.05637	0.3252582
62.81351	4213.199	14.61764	-47.40614	0.3026229
62.8675	4210.484	14.6369	-46.73504	0.2836223
62.92149	4207.792	14.64046	-46.04242	0.2722531
62.97548	4205.125	14.6239	-45.32759	0.2725264
63.02947	4202.486	14.58123	-44.58985	0.2870081
63.08347	4199.875	14.50705	-43.82848	0.3157323
63.13745	4197.289	14.39515	-43.04273	0.3565785
63.19144	4194.722	14.24448	-42.2318	0.4066054
63.24543	4192.175	14.06462	-41.39487	0.4630727
63.29943	4189.65	13.87286	-40.53112	0.5237005
63.35342	4187.156	13.68364	-39.63968	0.5867175
63.40741	4184.704	13.50787	-38.71974	0.6507225
63.4614	4182.304	13.35042	-37.77042	0.7146078
63.51538	4179.966	13.2135	-36.79089	0.7775516
63.56938	4177.697	13.10254	-35.78025	0.8389034
63.62337	4175.499	13.0198	-34.73761	0.8982537
63.67736	4173.375	12.96695	-33.66209	0.9553578
63.73135	4171.324	12.94857	-32.55273	1.010201
63.78534	4169.339	12.96834	-31.40859	1.062917
63.83933	4167.411	13.02265	-30.22874	1.113857
63.89332	4165.528	13.1053	-29.01219	1.163549
63.94731	4163.689	13.20841	-27.75798	1.212597
64.0013	4161.891	13.32938	-26.4651	1.261767
64.05529	4160.134	13.47468	-25.13252	1.311784
64.10928	4158.42	13.65085	-23.75923	1.363392
64.16327	4156.758	13.86459	-22.34409	1.417239
64.21726	4155.154	14.11673	-20.88604	1.473871
64.27125	4153.622	14.40585	-19.38394	1.533778
64.32524	4152.171	14.72852	-17.8366	1.597223
64.37923	4150.814	15.07388	-16.24286	1.664397
64.43322	4149.552	15.42941	-14.60145	1.735299
64.48721	4148.386	15.78382	-12.91113	1.809823
64.5412	4147.314	16.12496	-11.17049	1.887735
64.59519	4146.342	16.44403	-9.378081	1.968698
64.64918	4145.466	16.73254	-7.532428	2.052356
64.70317	4144.679	16.98567	-5.631894	2.138236
64.75716	4143.973	17.20523	-3.674869	2.225874
64.81115	4143.346	17.38972	-1.659611	2.314741
64.86514	4142.791	17.54421	0.4155832	2.40434
64.91913	4142.307	17.67541	2.552545	2.494059
64.97312	4141.902	17.79165	4.753148	2.583344
65.02711	4141.591	17.90321	7.019243	2.671646
65.0811	4141.392	18.01361	9.352874	2.758418
65.13509	4141.314	18.11619	11.75603	2.843248
65.18908	4141.363	18.20222	14.23086	2.925649
65.24307	4141.541	18.26469	16.77954	3.005388
65.29707	4141.856	18.30242	19.40432	3.082089
65.35105	4142.313	18.31974	22.10755	3.15566
65.40504	4142.918	18.32181	24.89154	3.225985
65.45903	4143.676	18.31377	27.75876	3.292951
65.51302	4144.586	18.30252	30.7116	3.356734
65.56702	4145.645	18.29551	33.75256	3.417359
65.621	4146.85	18.2969	36.88414	3.475244
65.675	4148.199	18.30894	40.10893	3.530652
65.72898	4149.69	18.32958	43.42944	3.584096
65.78297	4151.325	18.35781	46.84821	3.63614
65.83697	4153.108	18.39461	50.36782	3.68736
65.89095	4155.043	18.43865	53.99068	3.738599
65.94495	4157.136	18.48503	57.71943	3.790623
65.99893	4159.387	18.53049	61.5564	3.844378
66.05293	4161.803	18.57869	65.50426	3.900789
66.10692	4164.386	18.64109	69.56542	3.960942
66.1609	4167.146	18.72901	73.74256	4.025667
66.2149	4170.095	18.84681	78.03822	4.096049
66.26888	4173.246	18.99674	82.45491	4.173005
66.32288	4176.609	19.18505	86.99544	4.257418
66.37687	4180.196	19.41528	91.66245	4.350203
66.43085	4184.009	19.68835	96.45881	4.451992
66.48485	4188.052	20.00219	101.3873	4.563586
66.53883	4192.331	20.34667	106.4511	4.6852
66.59283	4196.85	20.70774	111.653	4.817395
66.64682	4201.61	21.07379	116.9964	4.960425
66.70081	4206.615	21.43916	122.4845	5.114405
66.7548	4211.874	21.79728	128.1205	5.279466
66.80878	4217.396	22.14084	133.908	5.455435
66.86278	4223.189	22.46074	139.8504	5.642411
66.91677	4229.269	22.7508	145.9514	5.840007
66.97076	4235.649	23.01631	152.2145	6.048089
67.02475	4242.35	23.2704	158.6437	6.266235
67.07874	4249.392	23.52436	165.2429	6.494003
67.13273	4256.789	23.79236	172.016	6.730948
67.18672	4264.549	24.08353	178.9674	6.976376
67.24071	4272.682	24.40252	186.1013	7.229912
67.2947	4281.196	24.75022	193.4224	7.490773
67.34869	4290.098	25.12151	200.9352	7.758547
67.40268	4299.387	25.50447	208.6445	8.03256
67.45667	4309.068	25.88327	216.5554	8.312216
67.51066	4319.146	26.24072	224.6728	8.596962
67.56465	4329.634	26.56267	233.0018	8.885991
67.61864	4340.541	26.84597	241.5471	9.17892
67.67263	4351.878	27.09736	250.3137	9.474777
67.72662	4363.661	27.33084	259.3059	9.773014
67.78061	4375.905	27.56597	268.5277	10.07278
67.8346	4388.622	27.8232	277.9828	10.3732
67.8886	4401.82	28.11712	287.674	10.67347
67.94258	4415.513	28.4552	297.6037	10.97249
67.99657	4429.713	28.84258	307.7732	11.26965
68.05056	4444.43	29.28591	318.1834	11.56377
68.10455	4459.667	29.79407	328.8339	11.85433
68.15855	4475.431	30.36761	339.7238	12.14047
68.21253	4491.726	30.99681	350.8511	12.42156
68.26653	4508.56	31.6737	362.2127	12.69713
68.32051	4525.944	32.3906	373.805	12.9664
68.3745	4543.887	33.14185	385.623	13.22927
68.4285	4562.406	33.92689	397.6613	13.48503
68.48248	4581.522	34.74358	409.9131	13.73352
68.53648	4601.262	35.58779	422.3712	13.97427
68.59046	4621.65	36.45602	435.0275	14.20683
68.64445	4642.708	37.34631	447.8728	14.43089
68.69845	4664.45	38.25967	460.8975	14.64571
68.75243	4686.884	39.19965	474.0907	14.85109
68.80643	4710.017	40.16876	487.4411	15.04619
68.86041	4733.858	41.16634	500.9364	15.23054
68.91441	4758.421	42.19036	514.5637	15.40344
68.9684	4783.72	43.23929	528.3093	15.56412
69.02238	4809.774	44.3103	542.1586	15.71183
69.07638	4836.604	45.39783	556.0968	15.84561
69.13036	4864.237	46.49126	570.1077	15.96477
69.18436	4892.698	47.57845	584.1749	16.06835
69.23835	4922.019	48.65831	598.281	16.15549
69.29234	4952.233	49.73635	612.4082	16.22546
69.34633	4983.371	50.82613	626.5379	16.27744
69.40031	5015.457	51.94249	640.6512	16.31078
69.45431	5048.519	53.09402	654.7283	16.32467
69.5083	5082.583	54.28171	668.7492	16.31851
69.56229	5117.676	55.49693	682.6932	16.29153
69.61628	5153.821	56.72378	696.5391	16.24307
69.67027	5191.045	57.94903	710.2653	16.17235
69.72426	5229.377	59.16814	723.8494	16.0786
69.77825	5268.853	60.38044	737.2687	15.96083
69.83224	5309.501	61.58974	750.4996	15.81831
69.88623	5351.352	62.79941	763.5182	15.64994
69.94022	5394.427	64.01413	776.2995	15.45507
69.99421	5438.744	65.23721	788.8187	15.23274
70.0482	5484.307	66.46861	801.0499	14.98233
70.10219	5531.112	67.70737	812.967	14.70325
70.15618	5579.137	68.94611	824.5438	14.39503
70.21017	5628.345	70.16699	835.7528	14.05779
70.26416	5678.68	71.34422	846.5677	13.69101
70.31815	5730.07	72.45067	856.9611	13.29544
70.37214	5782.432	73.47172	866.9063	12.87113
70.42613	5835.68	74.39972	876.3767	12.41876
70.48012	5889.726	75.23253	885.3461	11.93923
70.53411	5944.495	75.9734	893.7889	11.43326
70.5881	5999.919	76.63385	901.68	10.90269
70.64209	6055.944	77.23095	908.996	10.34821
70.69608	6112.52	77.78368	915.7135	9.772225
70.75008	6169.601	78.31422	921.8117	9.175825
70.80406	6227.146	78.83827	927.2696	8.561939
70.85806	6285.114	79.36204	932.0693	7.932319
70.91204	6343.474	79.88682	936.1942	7.28966
70.96603	6402.196	80.41006	939.6284	6.637661
71.02003	6461.254	80.92719	942.3597	5.979049
71.07401	6520.613	81.43326	944.3763	5.319276
71.12801	6580.229	81.92194	945.6702	4.663317
71.18199	6640.059	82.39091	946.2336	4.019962
71.23598	6700.057	82.83982	946.0625	3.401001
71.28998	6760.181	83.26125	945.1544	2.826582
71.34396	6820.392	83.64892	943.509	2.331788
71.39796	6880.659	83.99177	941.1289	1.976223
71.45194	6940.955	84.2876	938.0175	1.836371
71.50594	7001.254	84.54286	934.1824	1.951781
71.55993	7061.529	84.75802	929.6312	2.272987
71.61391	7121.736	84.93138	924.3751	2.718987
71.66791	7181.818	85.05761	918.4266	3.228475
71.72189	7241.696	85.13047	911.7999	3.766165
71.77589	7301.284	85.14481	904.5114	4.313126
71.82988	7360.485	85.09372	896.5776	4.856733
71.88387	7419.198	84.96806	888.0188	5.391687
71.93786	7477.306	84.75315	878.8544	5.912003
71.99184	7534.686	84.43159	869.1069	6.415612
72.04584	7591.228	83.98534	858.7986	6.900091
72.09983	7646.823	83.40902	847.9532	7.363857
72.15382	7701.358	82.70234	836.5955	7.806
72.20781	7754.716	81.86305	824.7499	8.225002
72.2618	7806.788	80.88097	812.4428	8.621531
72.31579	7857.476	79.75624	799.6997	8.994229
72.36978	7906.693	78.50533	786.5474	9.343882
72.42377	7954.375	77.15377	773.0123	9.670373
72.47776	8000.478	75.72568	759.121	9.973913
72.53175	8044.985	74.24523	744.9006	10.25496
72.58574	8087.894	72.7448	730.3773	10.51332
72.63973	8129.22	71.25758	715.5786	10.75007
72.69372	8168.98	69.81137	700.5308	10.96498
72.74771	8207.198	68.42024	685.2612	11.1588
72.8017	8243.897	67.09266	669.7965	11.3317
72.85569	8279.104	65.8345	654.1639	11.48402
72.90968	8312.843	64.64168	638.3901	11.6161
72.96367	8345.145	63.49425	622.5021	11.72809
73.01766	8376.035	62.36631	606.5267	11.82035
73.07165	8405.55	61.2322	590.4906	11.89298
73.12564	8433.727	60.0765	574.4203	11.94632
73.17963	8460.61	58.90311	558.3423	11.98048
73.23362	8486.251	57.72858	542.2825	11.9958
73.28761	8510.697	56.5777	526.267	11.99243
73.3416	8533.992	55.47903	510.3212	11.97081
73.39559	8556.182	54.45875	494.4701	11.93093
73.44958	8577.311	53.55073	478.7384	11.87329
73.50357	8597.438	52.78513	463.1497	11.79784
73.55756	8616.615	52.18129	447.7273	11.70485
73.61155	8634.899	51.73562	432.4932	11.59461
73.66554	8652.348	51.42487	417.4686	11.46723
73.71954	8669.004	51.21035	402.674	11.32352
73.77352	8684.906	51.05341	388.1277	11.16335
73.82751	8700.089	50.92281	373.8481	10.98784
73.8815	8714.58	50.79422	359.851	10.79706
73.93549	8728.405	50.65651	346.1515	10.5918
73.98949	8741.601	50.49981	332.763	10.37276
74.04347	8754.207	50.31994	319.6974	10.14061
74.09747	8766.26	50.12288	306.9654	9.896698
74.15146	8777.783	49.9178	294.5751	9.641449
74.20544	8788.802	49.71744	282.5343	9.376693
74.25944	8799.344	49.52949	270.8481	9.10326
74.31342	8809.434	49.36036	259.5202	8.822841
74.36742	8819.088	49.2148	248.5531	8.537
74.42141	8828.331	49.10024	237.947	8.247237
74.4754	8837.183	49.01411	227.7012	7.955754
74.52939	8845.666	48.94123	217.8126	7.663619
74.58337	8853.806	48.87242	208.2776	7.373059
74.63737	8861.62	48.792	199.0903	7.085263
74.69136	8869.111	48.68016	190.2443	6.801788
74.74535	8876.285	48.5152	181.7319	6.524036
74.79934	8883.159	48.28388	173.5443	6.253019
74.85332	8889.751	47.98293	165.6724	5.990204
74.90732	8896.071	47.60699	158.1057	5.736022
74.96131	8902.125	47.15799	150.8341	5.491757
75.0153	8907.9	46.64548	143.846	5.257853
75.06929	8913.396	46.0933	137.1302	5.035072
75.12328	8918.608	45.5312	130.6752	4.824106
75.17727	8923.558	44.98974	124.4692	4.625453
75.23126	8928.267	44.49188	118.5011	4.439899
75.28525	8932.762	44.05013	112.7592	4.267613
75.33924	8937.06	43.66867	107.233	4.109236
75.39323	8941.187	43.33483	101.9114	3.964836
75.44722	8945.165	43.03524	96.78438	3.834576
75.50121	8949.015	42.76578	91.84207	3.718396
75.5552	8952.738	42.52235	87.07504	3.616035
75.60919	8956.34	42.29748	82.4745	3.527324
75.66318	8959.825	42.07939	78.03181	3.451627
75.71717	8963.197	41.85249	73.73911	3.388622
75.77116	8966.442	41.60398	69.58859	3.337473
75.82515	8969.546	41.32166	65.57323	3.297605
75.87914	8972.497	41.00439	61.68606	3.268012
75.93313	8975.295	40.66774	57.92062	3.247756
75.98712	8977.945	40.33733	54.27067	3.235794
76.04111	8980.456	40.05128	50.73023	3.230969
76.0951	8982.831	39.83795	47.29365	3.232235
76.14909	8985.066	39.70807	43.95535	3.238278
76.20308	8987.159	39.66202	40.71018	3.24802
76.25707	8989.098	39.68674	37.55307	3.260217
76.31107	8990.868	39.75834	34.47922	3.273767
76.36505	8992.453	39.85582	31.48401	3.287616
76.41904	8993.842	39.96886	28.56298	3.30073
76.47303	8995.023	40.0773	25.71194	3.312227
76.52702	8995.997	40.17033	22.92674	3.321106
76.58102	8996.775	40.24211	20.20368	3.326591
76.635	8997.366	40.29317	17.53915	3.327843
76.689	8997.768	40.32555	14.92994	3.324193
76.74298	8997.991	40.34472	12.37308	3.315043
76.79697	8998.058	40.36788	9.86588	3.29986
76.85097	8997.993	40.41265	7.40596	3.278278
76.90495	8997.814	40.48716	4.991082	3.249947
76.95895	8997.532	40.59406	2.619345	3.214779
77.01293	8997.145	40.72868	0.2890092	3.172725
77.06693	8996.643	40.88007	-2.001404	3.123952
77.12092	8996.021	41.04235	-4.253164	3.068774
77.1749	8995.273	41.20298	-6.467342	3.007636
77.2289	8994.389	41.34854	-8.644711	2.941139
77.28288	8993.355	41.46595	-10.78586	2.86988
77.33688	8992.17	41.54164	-12.89104	2.794656
77.39087	8990.844	41.5603	-14.96027	2.71624
77.44485	8989.388	41.51344	-16.99326	2.635522
77.49885	8987.818	41.39955	-18.98944	2.553405
77.55284	8986.146	41.22038	-20.94801	2.470784
77.60683	8984.378	40.97442	-22.86788	2.388609
77.66082	8982.533	40.66561	-24.74791	2.30769
77.71481	8980.625	40.30509	-26.58672	2.228905
77.7688	8978.656	39.90462	-28.38291	2.152928
77.82279	8976.641	39.46992	-30.13496	2.08037
77.87678	8974.588	39.00026	-31.84134	2.011719
77.93077	8972.502	38.49452	-33.50053	1.947296
77.98476	8970.38	37.95838	-35.1111	1.887362
78.03875	8968.215	37.40527	-36.67179	1.831896
78.09274	8965.994	36.84957	-38.18144	1.780841
78.14673	8963.709	36.30005	-39.63917	1.733817
78.20072	8961.353	35.76224	-41.04427	1.690377
78.25471	8958.924	35.23478	-42.39635	1.649933
78.3087	8956.421	34.71821	-43.69531	1.611792
78.36269	8953.851	34.21981	-44.9413	1.575329
78.41668	8951.222	33.74596	-46.13486	1.539762
78.47067	8948.537	33.30694	-47.27668	1.504514
78.52466	8945.801	32.91413	-48.36778	1.468912
78.57865	8943.01	32.57957	-49.40929	1.432449
78.63264	8940.155	32.31743	-50.40248	1.394712
78.68663	8937.224	32.13428	-51.34871	1.3554
78.74062	8934.211	32.03019	-52.24934	1.31442
78.79461	8931.108	32.00606	-53.1059	1.271674
78.8486	8927.901	32.05785	-53.91982	1.227355
78.9026	8924.571	32.17809	-54.69266	1.181619
78.95658	8921.105	32.36416	-55.42593	1.134833
79.01057	8917.496	32.60963	-56.12111	1.087426
79.06456	8913.743	32.91426	-56.77967	1.039903
79.11855	8909.856	33.27728	-57.40294	0.9929049
79.17255	8905.853	33.68871	-57.99231	0.947018
79.22653	8901.743	34.12626	-58.54893	0.902986
79.28053	8897.548	34.56965	-59.07393	0.8615041
79.33451	8893.294	35.0085	-59.56825	0.8233843
79.3885	8889.007	35.43807	-60.03268	0.7894943
79.4425	8884.709	35.86234	-60.46785	0.7607377
79.49648	8880.427	36.28545	-60.87412	0.7380124
79.55048	8876.196	36.70589	-61.25178	0.7220832
79.60446	8872.049	37.11754	-61.60084	0.7135019
79.65845	8867.996	37.51048	-61.9213	0.7124912
79.71245	8864.026	37.87159	-62.21298	0.7188263
79.76643	8860.129	38.18905	-62.47563	0.7318259
79.82043	8856.302	38.45111	-62.70893	0.7504871
79.87441	8852.552	38.64849	-62.91249	0.7735471
79.92841	8848.894	38.77473	-63.08606	0.7997742
79.9824	8845.345	38.82507	-63.22932	0.8279035
80.03638	8841.906	38.79749	-63.34216	0.8569354
80.09038	8838.581	38.69813	-63.42452	0.8860317
80.14436	8835.368	38.54276	-63.47654	0.9146023
80.19836	8832.254	38.34579	-63.4986	0.942265
80.25235	8829.214	38.1206	-63.49126	0.9687863
80.30634	8826.224	37.88847	-63.45549	0.9941806
80.36033	8823.263	37.66522	-63.39245	1.018503
80.41431	8820.313	37.45493	-63.30368	1.042004
80.46831	8817.355	37.25539	-63.19096	1.064908
80.5223	8814.364	37.0583	-63.05635	1.087479
80.57629	8811.303	36.84948	-62.90212	1.109883
80.63028	8808.147	36.62054	-62.7307	1.132164
80.68427	8804.894	36.3709	-62.54467	1.15431
80.73826	8801.552	36.10564	-62.34672	1.176168
80.79225	8798.133	35.8299	-62.13961	1.197524
80.84624	8794.646	35.54631	-61.9262	1.21803
80.90023	8791.101	35.26399	-61.70941	1.237249
80.95422	8787.516	34.9873	-61.49222	1.254647
81.00821	8783.914	34.72505	-61.2776	1.269635
81.0622	8780.312	34.49875	-61.0685	1.281597
81.11619	8776.72	34.33258	-60.86781	1.289941
81.17018	8773.148	34.23422	-60.6783	1.294109
81.22417	8769.605	34.18994	-60.50259	1.293609
81.27816	8766.104	34.17004	-60.34309	1.288041
81.33215	8762.646	34.14832	-60.20199	1.277123
81.38614	8759.224	34.11314	-60.08125	1.260713
81.44013	8755.813	34.06311	-59.98252	1.238834
81.49413	8752.402	34.00458	-59.90719	1.21172
81.54811	8749.003	33.94221	-59.85627	1.179834
81.6021	8745.632	33.87399	-59.83054	1.143922
81.65609	8742.307	33.79235	-59.83041	1.104979
81.71008	8739.043	33.69688	-59.85609	1.064316
81.76408	8735.853	33.59601	-59.90751	1.023527
81.81806	8732.753	33.50092	-59.98436	0.9845077
81.87206	8729.76	33.42013	-60.08622	0.9494359
81.92604	8726.875	33.36383	-60.21247	0.9206635
81.98003	8724.088	33.33782	-60.36249	0.900524
82.03403	8721.38	33.33972	-60.53551	0.8910065
82.08801	8718.739	33.36542	-60.73085	0.8934094
82.14201	8716.148	33.40795	-60.94779	0.9080977
82.19599	8713.572	33.45302	-61.18565	0.9344525
82.24998	8710.983	33.49114	-61.44385	0.9710203
82.30398	8708.359	33.52235	-61.72188	1.015911
82.35796	8705.687	33.55326	-62.01948	1.066954
82.41196	8702.953	33.59177	-62.33657	1.122092
82.46594	8700.162	33.63882	-62.67335	1.179418
82.51994	8697.314	33.68975	-63.03023	1.237268
82.57393	8694.416	33.74097	-63.40785	1.294287
82.62791	8691.479	33.80197	-63.80711	1.349321
82.68191	8688.523	33.88638	-64.22904	1.401608
82.73589	8685.555	34.00877	-64.67492	1.45048
82.78989	8682.576	34.16908	-65.14612	1.49561
82.84388	8679.582	34.36303	-65.6442	1.536794
82.89787	8676.555	34.57985	-66.17083	1.573998
82.95186	8673.476	34.80088	-66.72777	1.607314
83.00584	8670.326	35.00254	-67.31689	1.636786
83.05984	8667.084	35.17212	-67.94001	1.662655
83.11383	8663.729	35.30916	-68.59901	1.684989
83.16782	8660.253	35.42004	-69.29567	1.704048
83.22181	8656.657	35.50351	-70.03173	1.720034
83.27579	8652.958	35.5511	-70.80887	1.733187
83.32979	8649.173	35.55157	-71.62856	1.743767
83.38378	8645.314	35.49671	-72.49216	1.75195
83.43777	8641.393	35.389	-73.40067	1.758115
83.49176	8637.414	35.2441	-74.35497	1.762451
83.54575	8633.381	35.07961	-75.35557	1.76537
83.59974	8629.287	34.90775	-76.40266	1.767182
83.65373	8625.126	34.72738	-77.49615	1.768217
83.70772	8620.896	34.53033	-78.63564	1.768794
83.76171	8616.599	34.3124	-79.82051	1.76912
83.8157	8612.247	34.07399	-81.04977	1.769551
83.86969	8607.848	33.81685	-82.32221	1.770217
83.92368	8603.404	33.54137	-83.6363	1.771333
83.97767	8598.924	33.24658	-84.99024	1.772957
84.03166	8594.42	32.93347	-86.38205	1.775108
84.08565	8589.913	32.60877	-87.80956	1.777764
84.13964	8585.418	32.27487	-89.27047	1.780791
84.19363	8580.948	31.92834	-90.76228	1.784216
84.24762	8576.502	31.57263	-92.28249	1.78793
84.30161	8572.065	31.21501	-93.82845	1.792064
84.35561	8567.621	30.87324	-95.39758	1.796758
84.40959	8563.149	30.56524	-96.98732	1.802236
84.46358	8558.627	30.29957	-98.5951	1.808833
84.51757	8554.028	30.07389	-100.2185	1.816891
84.57156	8549.33	29.87784	-101.855	1.826894
84.62556	8544.514	29.70377	-103.5024	1.839299
84.67954	8539.569	29.55171	-105.1584	1.854697
84.73354	8534.496	29.42938	-106.8209	1.873661
84.78752	8529.304	29.34118	-108.4878	1.89674
84.84151	8524.005	29.28886	-110.1571	1.924463
84.89551	8518.614	29.26989	-111.8271	1.957233
84.94949	8513.132	29.2845	-113.4961	1.995349
85.00349	8507.546	29.32647	-115.1624	2.038869
85.05747	8501.835	29.39125	-116.8247	2.087668
85.11147	8495.968	29.48209	-118.4814	2.141433
85.16546	8489.913	29.60092	-120.1314	2.199707
85.21944	8483.649	29.74233	-121.7734	2.261892
85.27344	8477.168	29.90376	-123.4064	2.327269
85.32742	8470.462	30.07693	-125.0295	2.395004
85.38142	8463.545	30.24971	-126.6418	2.464197
85.43541	8456.429	30.41298	-128.2426	2.533899
85.4894	8449.134	30.56376	-129.831	2.603192
85.54339	8441.664	30.72	-131.4064	2.671199
85.59737	8434.03	30.89847	-132.9681	2.73712
85.65137	8426.243	31.1067	-134.5154	2.800222
85.70536	8418.325	31.33473	-136.0478	2.859821
85.75935	8410.289	31.571	-137.5647	2.915292
85.81334	8402.146	31.80872	-139.0658	2.966088
85.86732	8393.903	32.0415	-140.5502	3.011796
85.92132	8385.567	32.25071	-142.0174	3.052144
85.97531	8377.137	32.4229	-143.4665	3.087005
86.0293	8368.62	32.54508	-144.8964	3.116431
86.08329	8360.011	32.59584	-146.3061	3.140527
86.13728	8351.314	32.55506	-147.6944	3.159562
86.19127	8342.527	32.41565	-149.06	3.173823
86.24526	8333.646	32.17876	-150.4017	3.183722
86.29925	8324.657	31.85042	-151.7183	3.189693
86.35324	8315.568	31.44081	-153.0085	3.192214
86.40723	8306.392	30.96599	-154.2712	3.191781
86.46122	8297.16	30.44659	-155.5052	3.188816
86.51521	8287.896	29.89958	-156.7095	3.183789
86.5692	8278.625	29.33965	-157.8832	3.177125
86.62319	8269.355	28.77438	-159.0253	3.169195
86.67718	8260.1	28.20761	-160.135	3.160361
86.73117	8250.862	27.64017	-161.2116	3.150857
86.78516	8241.643	27.07	-162.2545	3.14086
86.83915	8232.436	26.49103	-163.2633	3.130409
86.89314	8223.239	25.89708	-164.2374	3.119461
86.94713	8214.053	25.28042	-165.1768	3.107835
87.00112	8204.875	24.63608	-166.0812	3.095263
87.05511	8195.699	23.96974	-166.9507	3.0814
87.1091	8186.525	23.2903	-167.7853	3.065819
87.16309	8177.355	22.61059	-168.5854	3.048128
87.21708	8168.19	21.95277	-169.3513	3.02788
87.27107	8159.022	21.34182	-170.0838	3.004694
87.32507	8149.85	20.80657	-170.7837	2.978176
87.37905	8140.668	20.37346	-171.4518	2.947961
87.43304	8131.479	20.05223	-172.0893	2.913668
87.48703	8122.276	19.84211	-172.6973	2.875006
87.54102	8113.059	19.73106	-173.2769	2.831757
87.59502	8103.831	19.70429	-173.8295	2.783716
87.649	8094.6	19.73637	-174.3563	2.730774
87.703	8085.368	19.80223	-174.8589	2.67285
87.75699	8076.131	19.88371	-175.3386	2.609919
87.81097	8066.865	19.97473	-175.7969	2.542064
87.86497	8057.542	20.07292	-176.2353	2.469469
87.91895	8048.143	20.18265	-176.6551	2.392467
87.97295	8038.661	20.31636	-177.0576	2.31159
88.02694	8029.107	20.47458	-177.4441	2.227571
88.08092	8019.491	20.6474	-177.8155	2.141381
88.13492	8009.828	20.82643	-178.1729	2.054226
88.1889	8000.126	21.00997	-178.5169	1.967514
88.2429	7990.389	21.2039	-178.8484	1.882853
88.29689	7980.613	21.40908	-179.168	1.802018
88.35088	7970.8	21.61672	-179.4762	1.726897
88.40487	7960.945	21.81272	-179.7732	1.659351
88.45885	7951.05	21.98457	-180.0596	1.601092
88.51285	7941.119	22.1232	-180.3354	1.553532
88.56684	7931.158	22.22429	-180.6009	1.517591
88.62083	7921.174	22.29193	-180.856	1.493674
88.67482	7911.175	22.3293	-181.1008	1.481548
88.72881	7901.16	22.34002	-181.3352	1.480419
88.7828	7891.135	22.3275	-181.5589	1.488992
88.83679	7881.101	22.29887	-181.7717	1.505568
88.89078	7871.065	22.26368	-181.9733	1.528275
88.94477	7861.025	22.23614	-182.1634	1.55515
88.99876	7850.976	22.23271	-182.3418	1.584335
89.05275	7840.907	22.26193	-182.5082	1.614127
89.10674	7830.82	22.32491	-182.6621	1.643027
89.16073	7820.712	22.40788	-182.8033	1.669757
89.21472	7810.594	22.48922	-182.9314	1.693242
89.26871	7800.479	22.54214	-183.0461	1.712609
89.3227	7790.378	22.55189	-183.1472	1.727183
89.37669	7780.286	22.51392	-183.2344	1.736464
89.43068	7770.197	22.42909	-183.3077	1.740103
89.48467	7760.099	22.30671	-183.3669	1.737874
89.53866	7749.999	22.16141	-183.4119	1.729684
89.59265	7739.896	22.00702	-183.4429	1.715423
89.64664	7729.799	21.85835	-183.4599	1.695085
89.70063	7719.711	21.73344	-183.4631	1.668642
89.75462	7709.635	21.64671	-183.4529	1.636093
89.80861	7699.552	21.60684	-183.4298	1.597459
89.8626	7689.451	21.60802	-183.3943	1.55276
89.9166	7679.323	21.64665	-183.3472	1.502091
89.97058	7669.178	21.71704	-183.2891	1.445616
90.02457	7659.022	21.79998	-183.2209	1.383618
90.07856	7648.876	21.86446	-183.1435	1.316465
90.13255	7638.75	21.88763	-183.0578	1.244676
90.18655	7628.657	21.85935	-182.965	1.168887
90.24053	7618.597	21.78226	-182.866	1.089828
90.29453	7608.58	21.66521	-182.7621	1.00837
90.34851	7598.605	21.5204	-182.6545	0.9254547
90.4025	7588.678	21.36602	-182.5443	0.8421746
90.4565	7578.79	21.22312	-182.433	0.7597961
90.51048	7568.942	21.11058	-182.3216	0.6798585
90.56448	7559.126	21.04325	-182.2113	0.6043143
90.61846	7549.342	21.02795	-182.1033	0.5358214
90.67245	7539.583	21.06009	-181.9985	0.478008
90.72645	7529.851	21.12719	-181.8977	0.4356527
90.78043	7520.145	21.20885	-181.8017	0.4138435
90.83443	7510.468	21.27836	-181.711	0.4160293
90.88841	7500.808	21.31504	-181.6262	0.4418938
90.94241	7491.16	21.30815	-181.5476	0.4875514
90.9964	7481.523	21.25615	-181.4756	0.5478453
91.05038	7471.906	21.17107	-181.4106	0.6181741
91.10438	7462.306	21.07187	-181.3526	0.6950558
91.15837	7452.722	20.97925	-181.302	0.7760651
91.21236	7443.158	20.90253	-181.2587	0.8594911
91.26635	7433.62	20.84997	-181.2228	0.9441266
91.32034	7424.105	20.82826	-181.1942	1.029058
91.37433	7414.593	20.83998	-181.1727	1.113637
91.42832	7405.058	20.89259	-181.1583	1.19739
91.48231	7395.486	20.98993	-181.1508	1.27993
91.5363	7385.88	21.12903	-181.15	1.360943
91.59029	7376.25	21.29318	-181.1555	1.440132
91.64428	7366.608	21.4685	-181.1673	1.517236
91.69827	7356.972	21.63873	-181.1851	1.592008
91.75226	7347.351	21.78875	-181.2085	1.664293
91.80625	7337.756	21.91306	-181.2375	1.733961
91.86024	7328.198	22.01611	-181.2716	1.800983
91.91423	7318.671	22.1051	-181.3107	1.865393
91.96822	7309.166	22.17708	-181.3544	1.927279
92.02221	7299.669	22.22039	-181.4026	1.986762
92.0762	7290.179	22.22072	-181.4551	2.044
92.13019	7280.691	22.16886	-181.5117	2.099146
92.18418	7271.199	22.06812	-181.5723	2.15238
92.23817	7261.679	21.92796	-181.6368	2.203867
92.29216	7252.114	21.75581	-181.7049	2.253776
92.34615	7242.482	21.56136	-181.7764	2.302246
92.40014	7232.777	21.35401	-181.8513	2.349407
92.45413	7223	21.14407	-181.937	2.385847
92.50813	7213.166	20.93971	-182.0158	2.418951
92.56211	7203.279	20.73768	-182.0897	2.450063
92.6161	7193.354	20.52939	-182.161	2.480307
92.67009	7183.398	20.31897	-182.2312	2.510433
92.72408	7173.424	20.11441	-182.3014	2.540903
92.77808	7163.425	19.91299	-182.3723	2.571959
92.83206	7153.396	19.70214	-182.4441	2.603712
92.88605	7143.315	19.4682	-182.5171	2.636203
92.94004	7133.172	19.19982	-182.5914	2.669426
92.99403	7122.962	18.89043	-182.6668	2.703327
93.04803	7112.696	18.54343	-182.7433	2.737869
93.10201	7102.377	18.17122	-182.8209	2.773002
93.15601	7092.022	17.78917	-182.8993	2.808666
93.20999	7081.64	17.41532	-182.9785	2.844806
93.26398	7071.26	17.06642	-183.0583	2.881364
93.31798	7060.908	16.75424	-183.1387	2.918292
93.37196	7050.617	16.48067	-183.2193	2.955536
93.42596	7040.406	16.24162	-183.3002	2.993065
93.47994	7030.296	16.02828	-183.3813	3.030825
93.53394	7020.286	15.82727	-183.4623	3.068785
93.58793	7010.36	15.6278	-183.5432	3.106933
93.64191	7000.496	15.41838	-183.6238	3.145224
93.69591	6990.67	15.18674	-183.7041	3.183653
93.74989	6980.867	14.93123	-183.7839	3.222194
93.80389	6971.09	14.66826	-183.8632	3.260841
93.85788	6961.334	14.42449	-183.9418	3.299581
93.91187	6951.584	14.21739	-184.0197	3.338416
93.96586	6941.806	14.06033	-184.0968	3.37735
94.01984	6931.976	13.96483	-184.173	3.416395
94.07384	6922.008	14.14824	-184.2483	3.455528
94.12783	6912.021	14.37516	-184.3225	3.494786
94.18182	6902.056	14.6187	-184.3957	3.534168
94.23581	6892.118	14.86982	-184.4678	3.573691
94.28979	6882.198	15.12529	-184.5387	3.613367
94.34379	6872.291	15.38538	-184.6084	3.653216
94.39778	6862.39	15.65024	-184.6768	3.69326
94.45177	6852.489	15.92092	-184.7441	3.733508
94.50576	6842.584	16.19868	-184.81	3.773987
94.55975	6832.674	16.48591	-184.8746	3.81472
94.61374	6822.755	16.78384	-184.9379	3.855729
94.66773	6812.827	17.09337	-185	3.897037
94.72172	6802.888	17.41551	-185.0607	3.938653
94.77571	6792.937	17.75012	-185.1201	3.980617
94.8297	6782.972	18.09607	-185.1782	4.022941
94.88369	6772.992	18.45364	-185.2351	4.065648
94.93768	6763	18.82141	-185.2907	4.108766
94.99167	6752.999	19.19979	-185.345	4.152318
