T[Â°C]	350nm [counts / mm]	S.D.	First derivative	S.D. of first derivative
20.00115	3063.903		-45.10855	
20.0551	3061.533		-45.08994	
20.10905	3059.163		-45.07084	
20.16299	3056.79		-45.05125	
20.21694	3054.413		-45.03114	
20.27089	3052.033		-45.01051	
20.32484	3049.647		-44.98935	
20.37879	3047.257		-44.96763	
20.43273	3044.862		-44.94536	
20.48668	3042.461		-44.92252	
20.54063	3040.057		-44.89911	
20.59458	3037.649		-44.87512	
20.64853	3035.24		-44.85054	
20.70247	3032.831		-44.82538	
20.75642	3030.424		-44.79964	
20.81037	3028.023		-44.7733	
20.86432	3025.634		-44.74637	
20.91827	3023.265		-44.71886	
20.97221	3020.915		-44.69077	
21.02616	3018.503		-44.66211	
21.08011	3016.085		-44.63287	
21.13406	3013.656		-44.60308	
21.18801	3011.213		-44.57273	
21.24195	3008.759		-44.54186	
21.2959	3006.3		-44.51046	
21.34985	3003.841		-44.47857	
21.4038	3001.385		-44.44619	
21.45775	2998.941		-44.41336	
21.51169	2996.512		-44.3801	
21.56564	2994.098		-44.34645	
21.61959	2991.699		-44.31242	
21.67354	2989.32		-44.27806	
21.72749	2986.957		-44.24341	
21.78144	2984.6		-44.20852	
21.83538	2982.241		-44.17342	
21.88933	2979.878		-44.13818	
21.94328	2977.507		-44.10285	
21.99723	2975.12		-44.0675	
22.05117	2972.715		-44.03218	
22.10512	2970.288		-43.99696	
22.15907	2967.838		-43.96192	
22.21302	2965.369		-43.9271	
22.26697	2962.879		-43.89252	
22.32092	2960.37		-43.85817	
22.37486	2957.844		-43.8239	
22.42881	2955.306		-43.78945	
22.48276	2952.762		-43.75432	
22.53671	2950.224		-43.71781	
22.59065	2947.696		-43.67913	
22.6446	2945.182		-43.63081	
22.69855	2942.69		-43.58362	
22.7525	2940.223		-43.53777	
22.80645	2937.786		-43.4934	
22.8604	2935.382		-43.45061	
22.91434	2933.009		-43.40944	
22.96829	2930.664		-43.36988	
23.02224	2928.352		-43.33187	
23.07619	2926.076		-43.29532	
23.13013	2923.83		-43.26009	
23.18408	2921.604		-43.22601	
23.23803	2919.396		-43.19287	
23.29198	2917.202		-43.16043	
23.34593	2915.016		-43.12844	
23.39988	2912.833		-43.09665	
23.45382	2910.657		-43.06475	
23.50777	2908.481		-43.03247	
23.56172	2906.306		-42.99958	
23.61567	2904.132		-42.96586	
23.66961	2901.966		-42.93117	
23.72356	2899.807		-42.89541	
23.77751	2897.647		-42.85854	
23.83146	2895.479		-42.82054	
23.88541	2893.292		-42.78146	
23.93936	2891.082		-42.74136	
23.9933	2888.85		-42.70036	
24.04725	2886.601		-42.65859	
24.1012	2884.337		-42.61621	
24.15515	2882.057		-42.57339	
24.2091	2879.761		-42.5303	
24.26304	2877.456		-42.48713	
24.31699	2875.146		-42.44403	
24.37094	2872.833		-42.4012	
24.42489	2870.522		-42.35886	
24.47884	2868.214		-42.31728	
24.53278	2865.915		-42.27675	
24.58673	2863.631		-42.23759	
24.64068	2861.363		-42.2001	
24.69463	2859.108		-42.16458	
24.74858	2856.857		-42.1313	
24.80252	2854.604		-42.10048	
24.85647	2852.337		-42.07228	
24.91042	2850.042		-42.04681	
24.96437	2847.71		-42.02412	
25.01832	2845.333		-42.00422	
25.07226	2842.913		-41.9871	
25.12621	2840.452		-41.97264	
25.18016	2837.959		-41.96065	
25.23411	2835.443		-41.95089	
25.28806	2832.914		-41.94305	
25.342	2830.385		-41.93673	
25.39595	2827.88		-41.93153	
25.4499	2825.419		-41.92699	
25.50385	2823.012		-41.92265	
25.5578	2820.661		-41.91806	
25.61174	2818.36		-41.91279	
25.66569	2816.104		-41.90645	
25.71964	2813.886		-41.89868	
25.77359	2811.698		-41.88917	
25.82754	2809.531		-41.87769	
25.88148	2807.372		-41.86411	
25.93543	2805.219		-41.84837	
25.98938	2803.077		-41.83051	
26.04333	2800.957		-41.81065	
26.09728	2798.861		-41.78896	
26.15122	2796.787		-41.76564	
26.20517	2794.73		-41.74095	
26.25912	2792.688		-41.71514	
26.31307	2790.656		-41.68845	
26.36702	2788.629		-41.66116	
26.42096	2786.595		-41.63352	
26.47491	2784.542		-41.60581	
26.52886	2782.459		-41.57826	
26.58281	2780.338		-41.55109	
26.63676	2778.174		-41.52449	
26.6907	2775.963		-41.49862	
26.74465	2773.709		-41.47366	
26.7986	2771.417		-41.44978	
26.85255	2769.097		-41.42714	
26.9065	2766.758		-41.40595	
26.96044	2764.406		-41.38639	
27.01439	2762.047		-41.36868	
27.06834	2759.685		-41.35301	
27.12229	2757.329		-41.33955	
27.17624	2754.988		-41.32843	
27.23018	2752.665		-41.31974	
27.28413	2750.356		-41.31348	
27.33808	2748.053		-41.3096	
27.39203	2745.758		-41.30795	
27.44598	2743.475		-41.30833	
27.49992	2741.211		-41.31047	
27.55387	2738.965		-41.3141	
27.60782	2736.739		-41.3189	
27.66177	2734.533		-41.32456	
27.71572	2732.351		-41.33074	
27.76966	2730.193		-41.33714	
27.82361	2728.055		-41.34348	
27.87756	2725.924		-41.34954	
27.93151	2723.792		-41.35516	
27.98546	2721.653		-41.3602	
28.0394	2719.504		-41.36459	
28.09335	2717.34		-41.36831	
28.1473	2715.155		-41.37135	
28.20125	2712.939		-41.37377	
28.2552	2710.693		-41.37565	
28.30914	2708.424		-41.37709	
28.36309	2706.138		-41.37821	
28.41704	2703.838		-41.37913	
28.47099	2701.523		-41.37995	
28.52494	2699.198		-41.38075	
28.57888	2696.865		-41.38155	
28.63283	2694.531		-41.38235	
28.68678	2692.199		-41.38309	
28.74073	2689.873		-41.38371	
28.79468	2687.557		-41.38413	
28.84863	2685.256		-41.3843	
28.90257	2682.975		-41.38417	
28.95652	2680.713		-41.38375	
29.01047	2678.469		-41.38303	
29.06442	2676.242		-41.38206	
29.11836	2674.033		-41.38094	
29.17231	2671.837		-41.37976	
29.22626	2669.649		-41.3787	
29.28021	2667.461		-41.37788	
29.33416	2665.272		-41.37745	
29.38811	2663.088		-41.37749	
29.44205	2660.919		-41.37805	
29.496	2658.763		-41.37915	
29.54995	2656.621		-41.38076	
29.6039	2654.49		-41.38284	
29.65784	2652.364		-41.38534	
29.71179	2650.24		-41.38818	
29.76574	2648.112		-41.39129	
29.81969	2645.974		-41.39457	
29.87364	2643.827		-41.39789	
29.92759	2641.675		-41.40114	
29.98153	2639.517		-41.40419	
30.03548	2637.348		-41.40687	
30.08943	2635.159		-41.40904	
30.14338	2632.936		-41.41056	
30.19732	2630.67		-41.41131	
30.25127	2628.366		-41.41119	
30.30522	2626.032		-41.41016	
30.35917	2623.679		-41.40816	
30.41312	2621.317		-41.40519	
30.46707	2618.959		-41.40125	
30.52101	2616.614		-41.39632	
30.57496	2614.285		-41.39039	
30.62891	2611.977		-41.38338	
30.68286	2609.69		-41.37518	
30.7368	2607.424		-41.36564	
30.79075	2605.175		-41.35458	
30.8447	2602.938		-41.34179	
30.89865	2600.701		-41.32705	
30.9526	2598.452		-41.31009	
31.00655	2596.191		-41.29062	
31.06049	2593.922		-41.26839	
31.11444	2591.66		-41.24317	
31.16839	2589.414		-41.21477	
31.22234	2587.189		-41.18304	
31.27629	2584.988		-41.14793	
31.33023	2582.808		-41.10943	
31.38418	2580.646		-41.0676	
31.43813	2578.489		-41.02261	
31.49208	2576.329		-40.97466	
31.54603	2574.161		-40.92406	
31.59997	2571.984		-40.87117	
31.65392	2569.797		-40.81638	
31.70787	2567.594		-40.76008	
31.76182	2565.365		-40.7027	
31.81577	2563.104		-40.64467	
31.86971	2560.811		-40.58639	
31.92366	2558.493		-40.52823	
31.97761	2556.164		-40.47057	
32.03156	2553.832		-40.41366	
32.08551	2551.506		-40.35778	
32.13945	2549.192		-40.30312	
32.1934	2546.89		-40.24989	
32.24735	2544.601		-40.19828	
32.3013	2542.316		-40.14848	
32.35525	2540.032		-40.1007	
32.40919	2537.751		-40.05511	
32.46314	2535.484		-40.01191	
32.51709	2533.243		-39.97122	
32.57104	2531.038		-39.93314	
32.62498	2528.877		-39.89771	
32.67893	2526.762		-39.86498	
32.73288	2524.692		-39.83492	
32.78683	2522.665		-39.80751	
32.84078	2520.676		-39.78268	
32.89473	2518.718		-39.76034	
32.94867	2516.783		-39.74028	
33.00262	2514.86		-39.72229	
33.05657	2512.935		-39.70606	
33.11052	2511.001		-39.69124	
33.16447	2509.052		-39.67744	
33.21841	2507.087		-39.66427	
33.27236	2505.105		-39.65132	
33.32631	2503.11		-39.63822	
33.38026	2501.104		-39.62464	
33.4342	2499.089		-39.61033	
33.48816	2497.068		-39.59512	
33.5421	2495.045		-39.57892	
33.59605	2493.018		-39.56178	
33.65	2490.984		-39.5438	
33.70395	2488.937		-39.52515	
33.75789	2486.874		-39.50608	
33.81184	2484.791		-39.48684	
33.86579	2482.686		-39.46772	
33.91974	2480.555		-39.44901	
33.97369	2478.395		-39.43096	
34.02763	2476.207		-39.4138	
34.08158	2473.993		-39.39773	
34.13553	2471.76		-39.3829	
34.18948	2469.519		-39.36943	
34.24343	2467.285		-39.3574	
34.29737	2465.063		-39.34686	
34.35132	2462.856		-39.33781	
34.40527	2460.66		-39.33026	
34.45922	2458.473		-39.32417	
34.51316	2456.292		-39.31945	
34.56712	2454.115		-39.31599	
34.62106	2451.944		-39.31366	
34.67501	2449.775		-39.31231	
34.72896	2447.602		-39.31179	
34.78291	2445.417		-39.31195	
34.83685	2443.205		-39.31265	
34.8908	2440.96		-39.31376	
34.94475	2438.683		-39.31514	
34.9987	2436.378		-39.31663	
35.05265	2434.059		-39.31808	
35.10659	2431.744		-39.3193	
35.16054	2429.451		-39.32004	
35.21449	2427.188		-39.32004	
35.26844	2424.958		-39.31899	
35.32239	2422.766		-39.31657	
35.37634	2420.608		-39.31247	
35.43028	2418.484		-39.30636	
35.48423	2416.394		-39.29797	
35.53818	2414.336		-39.28708	
35.59212	2412.305		-39.2735	
35.64608	2410.297		-39.25715	
35.70002	2408.304		-39.23803	
35.75397	2406.322		-39.21621	
35.80792	2404.348		-39.19185	
35.86187	2402.381		-39.16517	
35.91581	2400.416		-39.13644	
35.96976	2398.449		-39.10599	
36.02371	2396.482		-39.07419	
36.07766	2394.508		-39.04144	
36.13161	2392.521		-39.00815	
36.18555	2390.523		-38.97473	
36.2395	2388.513		-38.94154	
36.29345	2386.49		-38.90893	
36.3474	2384.45		-38.87716	
36.40135	2382.394		-38.84644	
36.4553	2380.322		-38.81689	
36.50924	2378.235		-38.78859	
36.56319	2376.134		-38.76155	
36.61714	2374.021		-38.73577	
36.67109	2371.903		-38.7112	
36.72504	2369.782		-38.68782	
36.77898	2367.66		-38.66557	
36.83293	2365.536		-38.64442	
36.88688	2363.408		-38.62436	
36.94083	2361.273		-38.60537	
36.99477	2359.127		-38.58749	
37.04872	2356.974		-38.57077	
37.10267	2354.818		-38.55523	
37.15662	2352.664		-38.54093	
37.21057	2350.515		-38.52785	
37.26451	2348.379		-38.51594	
37.31846	2346.261		-38.50512	
37.37241	2344.163		-38.49528	
37.42636	2342.081		-38.48624	
37.48031	2340.013		-38.47784	
37.53426	2337.962		-38.46985	
37.5882	2335.924		-38.46204	
37.64215	2333.894		-38.45417	
37.6961	2331.865		-38.44595	
37.75005	2329.833		-38.43709	
37.804	2327.797		-38.42733	
37.85794	2325.752		-38.41645	
37.91189	2323.69		-38.40428	
37.96584	2321.607		-38.39071	
38.01979	2319.504		-38.37571	
38.07373	2317.387		-38.35932	
38.12768	2315.262		-38.34163	
38.18163	2313.136		-38.32277	
38.23558	2311.013		-38.30291	
38.28953	2308.895		-38.28221	
38.34348	2306.78		-38.26082	
38.39742	2304.669		-38.2389	
38.45137	2302.563		-38.21657	
38.50532	2300.465		-38.19393	
38.55927	2298.375		-38.17104	
38.61322	2296.296		-38.14793	
38.66716	2294.226		-38.12461	
38.72111	2292.156		-38.1011	
38.77506	2290.083		-38.07739	
38.82901	2288.007		-38.05351	
38.88295	2285.931		-38.02949	
38.9369	2283.863		-38.00541	
38.99085	2281.809		-37.98141	
39.0448	2279.773		-37.95769	
39.09875	2277.758		-37.93443	
39.15269	2275.763		-37.91188	
39.20664	2273.788		-37.89022	
39.26059	2271.825		-37.86966	
39.31454	2269.874		-37.85035	
39.36849	2267.928		-37.83248	
39.42244	2265.98		-37.81614	
39.47638	2264.026		-37.80141	
39.53033	2262.061		-37.78832	
39.58428	2260.081		-37.77685	
39.63823	2258.085		-37.76687	
39.69218	2256.076		-37.75821	
39.74612	2254.059		-37.75063	
39.80007	2252.04		-37.74385	
39.85402	2250.018		-37.73757	
39.90797	2247.988		-37.73149	
39.96191	2245.946		-37.72533	
40.01587	2243.893		-37.71882	
40.06981	2241.831		-37.71174	
40.12376	2239.76		-37.70391	
40.17771	2237.681		-37.69516	
40.23166	2235.603		-37.68537	
40.2856	2233.531		-37.67445	
40.33955	2231.466		-37.66236	
40.3935	2229.407		-37.64907	
40.44745	2227.353		-37.63458	
40.5014	2225.301		-37.61891	
40.55534	2223.258		-37.60209	
40.60929	2221.226		-37.58415	
40.66324	2219.209		-37.56513	
40.71719	2217.206		-37.54504	
40.77114	2215.219		-37.52389	
40.82508	2213.247		-37.50168	
40.87903	2211.289		-37.47842	
40.93298	2209.338		-37.45413	
40.98693	2207.384		-37.42887	
41.04087	2205.416		-37.40273	
41.09483	2203.434		-37.37583	
41.14877	2201.442		-37.34832	
41.20272	2199.438		-37.32036	
41.25667	2197.418		-37.29215	
41.31062	2195.383		-37.26391	
41.36456	2193.33		-37.2359	
41.41851	2191.261		-37.20841	
41.47246	2189.172		-37.18173	
41.52641	2187.057		-37.15613	
41.58036	2184.913		-37.13183	
41.6343	2182.74		-37.10897	
41.68825	2180.547		-37.08762	
41.7422	2178.348		-37.06778	
41.79615	2176.162		-37.04941	
41.8501	2173.996		-37.03239	
41.90405	2171.852		-37.01657	
41.95799	2169.734		-37.00174	
42.01194	2167.646		-36.98766	
42.06589	2165.589		-36.97408	
42.11983	2163.565		-36.96074	
42.17379	2161.576		-36.94739	
42.22773	2159.627		-36.93381	
42.28168	2157.72		-36.9198	
42.33563	2155.85		-36.90522	
42.38958	2154.011		-36.88993	
42.44352	2152.197		-36.87386	
42.49747	2150.403		-36.85692	
42.55142	2148.622		-36.83912	
42.60537	2146.844		-36.82045	
42.65932	2145.061		-36.80099	
42.71326	2143.265		-36.78087	
42.76721	2141.454		-36.76021	
42.82116	2139.629		-36.73918	
42.87511	2137.791		-36.71791	
42.92906	2135.936		-36.69651	
42.98301	2134.059		-36.6751	
43.03695	2132.161		-36.65372	
43.0909	2130.24		-36.63244	
43.14485	2128.295		-36.61126	
43.1988	2126.321		-36.59021	
43.25275	2124.314		-36.56927	
43.30669	2122.278		-36.54848	
43.36064	2120.221		-36.52786	
43.41459	2118.153		-36.50747	
43.46854	2116.08		-36.4874	
43.52248	2114.006		-36.46771	
43.57643	2111.931		-36.4485	
43.63038	2109.853		-36.42984	
43.68433	2107.769		-36.41182	
43.73828	2105.684		-36.39446	
43.79222	2103.606		-36.37778	
43.84617	2101.543		-36.36176	
43.90012	2099.497		-36.34634	
43.95407	2097.465		-36.33141	
44.00802	2095.446		-36.3168	
44.06197	2093.436		-36.30231	
44.11591	2091.437		-36.28767	
44.16986	2089.455		-36.27265	
44.22381	2087.497		-36.257	
44.27776	2085.565		-36.24051	
44.33171	2083.657		-36.22297	
44.38565	2081.763		-36.2042	
44.4396	2079.876		-36.18407	
44.49355	2077.987		-36.16248	
44.5475	2076.092		-36.13939	
44.60144	2074.185		-36.11483	
44.65539	2072.259		-36.08889	
44.70934	2070.312		-36.06175	
44.76329	2068.346		-36.03368	
44.81724	2066.363		-36.00494	
44.87119	2064.364		-35.97583	
44.92513	2062.35		-35.94661	
44.97908	2060.329		-35.91754	
45.03303	2058.312		-35.88885	
45.08698	2056.31		-35.86074	
45.14093	2054.331		-35.83339	
45.19487	2052.37		-35.80698	
45.24882	2050.417		-35.78164	
45.30277	2048.459		-35.7575	
45.35672	2046.494		-35.73463	
45.41066	2044.523		-35.71312	
45.46461	2042.549		-35.69301	
45.51856	2040.578		-35.67436	
45.57251	2038.617		-35.65725	
45.62646	2036.672		-35.64175	
45.6804	2034.751		-35.62798	
45.73435	2032.86		-35.61607	
45.7883	2031.004		-35.60614	
45.84225	2029.185		-35.59836	
45.8962	2027.403		-35.59286	
45.95015	2025.649		-35.58976	
46.00409	2023.913		-35.58912	
46.05804	2022.181		-35.59093	
46.11199	2020.442		-35.59515	
46.16594	2018.689		-35.60166	
46.21989	2016.918		-35.61029	
46.27383	2015.131		-35.6208	
46.32778	2013.326		-35.63294	
46.38173	2011.504		-35.64641	
46.43568	2009.662		-35.66088	
46.48962	2007.801		-35.67603	
46.54358	2005.927		-35.69154	
46.59752	2004.044		-35.70716	
46.65147	2002.153		-35.72266	
46.70542	2000.255		-35.73783	
46.75937	1998.349		-35.75256	
46.81331	1996.432		-35.76669	
46.86726	1994.495		-35.78012	
46.92121	1992.528		-35.79272	
46.97516	1990.525		-35.80435	
47.02911	1988.484		-35.81491	
47.08305	1986.412		-35.82423	
47.137	1984.328		-35.8322	
47.19095	1982.248		-35.83866	
47.2449	1980.18		-35.84348	
47.29885	1978.129		-35.8465	
47.35279	1976.099		-35.84758	
47.40674	1974.094		-35.84654	
47.46069	1972.121		-35.84326	
47.51464	1970.18		-35.8376	
47.56858	1968.266		-35.8295	
47.62254	1966.37		-35.81889	
47.67648	1964.485		-35.80573	
47.73043	1962.596		-35.79002	
47.78438	1960.695		-35.77178	
47.83833	1958.775		-35.75109	
47.89227	1956.836		-35.72813	
47.94622	1954.876		-35.70309	
48.00017	1952.897		-35.67627	
48.05412	1950.897		-35.64794	
48.10807	1948.88		-35.61842	
48.16201	1946.851		-35.58799	
48.21596	1944.813		-35.55695	
48.26991	1942.768		-35.52554	
48.32386	1940.718		-35.49393	
48.37781	1938.665		-35.46231	
48.43176	1936.61		-35.43076	
48.4857	1934.553		-35.39935	
48.53965	1932.497		-35.36809	
48.5936	1930.444		-35.33698	
48.64754	1928.397		-35.30601	
48.7015	1926.361		-35.27515	
48.75544	1924.344		-35.2444	
48.80939	1922.355		-35.2138	
48.86334	1920.403		-35.18342	
48.91729	1918.492		-35.15339	
48.97123	1916.62		-35.12382	
49.02518	1914.788		-35.0949	
49.07913	1912.992		-35.06677	
49.13308	1911.229		-35.03961	
49.18703	1909.499		-35.01357	
49.24097	1907.798		-34.98878	
49.29492	1906.121		-34.96535	
49.34887	1904.455		-34.94336	
49.40282	1902.795		-34.92285	
49.45677	1901.135		-34.90382	
49.51072	1899.476		-34.88629	
49.56466	1897.818		-34.87022	
49.61861	1896.16		-34.85559	
49.67256	1894.503		-34.84235	
49.72651	1892.839		-34.83043	
49.78046	1891.156		-34.81976	
49.8344	1889.442		-34.81026	
49.88835	1887.692		-34.80186	
49.9423	1885.9		-34.79454	
49.99625	1884.064		-34.78829	
50.05019	1882.181		-34.7831	
50.10414	1880.256		-34.77895	
50.15809	1878.296		-34.77584	
50.21204	1876.313		-34.77376	
50.26599	1874.317		-34.77269	
50.31993	1872.317		-34.7726	
50.37388	1870.321		-34.77343	
50.42783	1868.331		-34.77507	
50.48178	1866.347		-34.77737	
50.53573	1864.369		-34.78012	
50.58968	1862.399		-34.78306	
50.64362	1860.438		-34.78589	
50.69757	1858.489		-34.78831	
50.75152	1856.552		-34.79	
50.80547	1854.63		-34.79066	
50.85941	1852.723		-34.79003	
50.91336	1850.829		-34.78789	
50.96731	1848.948		-34.78407	
51.02126	1847.077		-34.77843	
51.07521	1845.216		-34.77094	
51.12915	1843.362		-34.76157	
51.1831	1841.517		-34.7504	
51.23705	1839.679		-34.7375	
51.291	1837.842		-34.723	
51.34495	1835.99		-34.70701	
51.3989	1834.107		-34.68964	
51.45284	1832.181		-34.67095	
51.50679	1830.208		-34.65101	
51.56074	1828.191		-34.62986	
51.61469	1826.142		-34.60756	
51.66864	1824.076		-34.58415	
51.72258	1822.004		-34.55969	
51.77653	1819.94		-34.53426	
51.83048	1817.894		-34.50791	
51.88443	1815.876		-34.48074	
51.93837	1813.894		-34.45281	
51.99232	1811.948		-34.42422	
52.04627	1810.031		-34.39506	
52.10022	1808.138		-34.36542	
52.15417	1806.262		-34.33539	
52.20811	1804.392		-34.3051	
52.26206	1802.528		-34.27463	
52.31601	1800.67		-34.2441	
52.36996	1798.825		-34.21361	
52.42391	1797		-34.18325	
52.47786	1795.203		-34.15308	
52.5318	1793.442		-34.12312	
52.58575	1791.721		-34.09339	
52.6397	1790.047		-34.0639	
52.69365	1788.418		-34.03469	
52.7476	1786.823		-34.00581	
52.80154	1785.253		-33.97729	
52.85549	1783.697		-33.94915	
52.90944	1782.14		-33.92142	
52.96339	1780.567		-33.89415	
53.01733	1778.969		-33.8674	
53.07129	1777.334		-33.84126	
53.12523	1775.655		-33.8159	
53.17918	1773.929		-33.79151	
53.23313	1772.16		-33.76834	
53.28708	1770.354		-33.74664	
53.34102	1768.517		-33.7267	
53.39497	1766.661		-33.70877	
53.44892	1764.793		-33.6931	
53.50287	1762.918		-33.6799	
53.55682	1761.04		-33.66937	
53.61076	1759.158		-33.66166	
53.66471	1757.267		-33.65687	
53.71866	1755.364		-33.65506	
53.77261	1753.447		-33.65621	
53.82656	1751.517		-33.66019	
53.8805	1749.582		-33.66681	
53.93445	1747.65		-33.67579	
53.9884	1745.728		-33.68681	
54.04235	1743.821		-33.69954	
54.09629	1741.932		-33.71362	
54.15025	1740.062		-33.7287	
54.20419	1738.209		-33.74445	
54.25814	1736.376		-33.76053	
54.31209	1734.558		-33.77658	
54.36604	1732.751		-33.79229	
54.41998	1730.945		-33.80732	
54.47393	1729.139		-33.82138	
54.52788	1727.332		-33.83415	
54.58183	1725.527		-33.84533	
54.63578	1723.729		-33.85463	
54.68972	1721.938		-33.86182	
54.74367	1720.151		-33.86668	
54.79762	1718.364		-33.86904	
54.85157	1716.572		-33.86874	
54.90552	1714.767		-33.86568	
54.95947	1712.945		-33.85983	
55.01341	1711.11		-33.85117	
55.06736	1709.27		-33.83979	
55.12131	1707.434		-33.82581	
55.17525	1705.6		-33.80941	
55.22921	1703.76		-33.79081	
55.28315	1701.905		-33.77024	
55.3371	1700.032		-33.74799	
55.39105	1698.141		-33.72437	
55.445	1696.238		-33.69971	
55.49894	1694.325		-33.6744	
55.55289	1692.41		-33.64881	
55.60684	1690.5		-33.62334	
55.66079	1688.6		-33.59837	
55.71474	1686.713		-33.57425	
55.76868	1684.842		-33.5513	
55.82263	1682.984		-33.52977	
55.87658	1681.138		-33.50988	
55.93053	1679.305		-33.49178	
55.98448	1677.49		-33.47556	
56.03843	1675.694		-33.46133	
56.09237	1673.917		-33.44915	
56.14632	1672.154		-33.43906	
56.20027	1670.401		-33.43107	
56.25422	1668.656		-33.42516	
56.30816	1666.917		-33.42127	
56.36211	1665.181		-33.41933	
56.41606	1663.447		-33.41924	
56.47001	1661.717		-33.42087	
56.52396	1659.992		-33.42407	
56.5779	1658.272		-33.42867	
56.63185	1656.559		-33.43446	
56.6858	1654.849		-33.44122	
56.73975	1653.14		-33.4487	
56.7937	1651.428		-33.45662	
56.84764	1649.709		-33.46473	
56.90159	1647.981		-33.47272	
56.95554	1646.236		-33.48037	
57.00949	1644.472		-33.48738	
57.06344	1642.693		-33.49355	
57.11739	1640.907		-33.49862	
57.17133	1639.117		-33.50237	
57.22528	1637.323		-33.50462	
57.27923	1635.526		-33.50515	
57.33318	1633.729		-33.50382	
57.38712	1631.932		-33.5005	
57.44107	1630.133		-33.49511	
57.49502	1628.331		-33.48758	
57.54897	1626.523		-33.47792	
57.60292	1624.708		-33.46613	
57.65686	1622.887		-33.45224	
57.71081	1621.063		-33.4363	
57.76476	1619.239		-33.41835	
57.81871	1617.415		-33.3985	
57.87266	1615.594		-33.3769	
57.92661	1613.775		-33.35371	
57.98055	1611.959		-33.32916	
58.0345	1610.151		-33.30348	
58.08845	1608.349		-33.27689	
58.1424	1606.547		-33.24963	
58.19635	1604.742		-33.22192	
58.25029	1602.925		-33.19395	
58.30424	1601.085		-33.16594	
58.35819	1599.217		-33.13802	
58.41214	1597.319		-33.11036	
58.46608	1595.392		-33.08309	
58.52003	1593.441		-33.05631	
58.57398	1591.47		-33.03013	
58.62793	1589.482		-33.00458	
58.68188	1587.481		-32.97969	
58.73582	1585.475		-32.95543	
58.78977	1583.475		-32.93174	
58.84372	1581.496		-32.90854	
58.89767	1579.552		-32.88568	
58.95162	1577.649		-32.86301	
59.00557	1575.791		-32.84031	
59.05951	1573.977		-32.81734	
59.11346	1572.199		-32.7938	
59.16741	1570.451		-32.76939	
59.22136	1568.724		-32.74378	
59.27531	1567.014		-32.71667	
59.32925	1565.323		-32.68776	
59.3832	1563.656		-32.65676	
59.43715	1562.014		-32.62345	
59.4911	1560.399		-32.5876	
59.54504	1558.81		-32.54906	
59.599	1557.25		-32.50771	
59.65294	1555.719		-32.46352	
59.70689	1554.212		-32.4165	
59.76084	1552.72		-32.36668	
59.81479	1551.232		-32.3142	
59.86873	1549.735		-32.25923	
59.92268	1548.22		-32.20201	
59.97663	1546.676		-32.14283	
60.03058	1545.1		-32.082	
60.08453	1543.487		-32.01987	
60.13847	1541.835		-31.95679	
60.19242	1540.146		-31.89314	
60.24637	1538.421		-31.82932	
60.30032	1536.662		-31.76571	
60.35427	1534.872		-31.70271	
60.40821	1533.053		-31.64069	
60.46216	1531.209		-31.58	
60.51611	1529.351		-31.52093	
60.57006	1527.49		-31.46374	
60.624	1525.634		-31.40862	
60.67796	1523.788		-31.35567	
60.7319	1521.958		-31.30492	
60.78585	1520.141		-31.25632	
60.8398	1518.333		-31.20975	
60.89375	1516.531		-31.165	
60.94769	1514.734		-31.12181	
61.00164	1512.941		-31.07984	
61.05559	1511.156		-31.03867	
61.10954	1509.382		-30.99783	
61.16349	1507.62		-30.95677	
61.21743	1505.87		-30.91491	
61.27138	1504.134		-30.87167	
61.32533	1502.409		-30.82646	
61.37928	1500.7		-30.7787	
61.43323	1499.007		-30.72786	
61.48717	1497.333		-30.67342	
61.54112	1495.677		-30.61487	
61.59507	1494.047		-30.5518	
61.64902	1492.442		-30.48379	
61.70296	1490.861		-30.41049	
61.75691	1489.3		-30.33162	
61.81086	1487.752		-30.24691	
61.86481	1486.21		-30.15621	
61.91876	1484.666		-30.05941	
61.97271	1483.119		-29.95645	
62.02665	1481.566		-29.84735	
62.0806	1480.005		-29.73213	
62.13455	1478.433		-29.61086	
62.1885	1476.848		-29.48367	
62.24245	1475.254		-29.35065	
62.29639	1473.657		-29.21192	
62.35034	1472.063		-29.06758	
62.40429	1470.473		-28.91776	
62.45824	1468.884		-28.76255	
62.51219	1467.292		-28.60201	
62.56614	1465.692		-28.43624	
62.62008	1464.08		-28.26523	
62.67403	1462.458		-28.08897	
62.72798	1460.828		-27.90737	
62.78193	1459.192		-27.72029	
62.83587	1457.553		-27.5275	
62.88982	1455.916		-27.32872	
62.94377	1454.286		-27.12366	
62.99772	1452.67		-26.91193	
63.05167	1451.073		-26.6931	
63.10561	1449.498		-26.4667	
63.15956	1447.952		-26.23223	
63.21351	1446.437		-25.98915	
63.26746	1444.958		-25.73693	
63.32141	1443.515		-25.47504	
63.37535	1442.104		-25.20293	
63.4293	1440.722		-24.92009	
63.48325	1439.362		-24.62601	
63.5372	1438.02		-24.32021	
63.59115	1436.694		-24.00219	
63.6451	1435.385		-23.67159	
63.69904	1434.094		-23.32794	
63.75299	1432.82		-22.97088	
63.80694	1431.559		-22.6001	
63.86089	1430.306		-22.21529	
63.91483	1429.054		-21.8162	
63.96878	1427.799		-21.40257	
64.02273	1426.54		-20.97425	
64.07668	1425.275		-20.53091	
64.13063	1424.005		-20.07226	
64.18458	1422.733		-19.59814	
64.23853	1421.464		-19.10816	
64.29247	1420.205		-18.60195	
64.34642	1418.963		-18.07911	
64.40037	1417.737		-17.53922	
64.45432	1416.528		-16.9818	
64.50826	1415.337		-16.4064	
64.56221	1414.167		-15.8125	
64.61616	1413.027		-15.19956	
64.6701	1411.927		-14.56699	
64.72405	1410.879		-13.91413	
64.778	1409.887		-13.2403	
64.83195	1408.955		-12.54473	
64.8859	1408.088		-11.82656	
64.93985	1407.285		-11.08519	
64.9938	1406.545		-10.31973	
65.04774	1405.861		-9.529365	
65.10169	1405.229		-8.713321	
65.15564	1404.639		-7.870779	
65.20959	1404.089		-7.000951	
65.26353	1403.579		-6.10308	
65.31748	1403.116		-5.176363	
65.37143	1402.702		-4.220005	
65.42538	1402.336		-3.233209	
65.47932	1402.015		-2.215184	
65.53327	1401.737		-1.165147	
65.58723	1401.5		-0.08217669	
65.64117	1401.305		1.034164	
65.69512	1401.154		2.184733	
65.74907	1401.047		3.370209	
65.80302	1400.986		4.591244	
65.85696	1400.969		5.848459	
65.91091	1401.001		7.142538	
65.96486	1401.083		8.474053	
66.01881	1401.212		9.84364	
66.07275	1401.385		11.2519	
66.1267	1401.601		12.69941	
66.18065	1401.861		14.18674	
66.2346	1402.168		15.71447	
66.28854	1402.529		17.28316	
66.3425	1402.954		18.89363	
66.39645	1403.454		20.54599	
66.45039	1404.039		22.24109	
66.50434	1404.726		23.97953	
66.55829	1405.526		25.7619	
66.61224	1406.445		27.58892	
66.66618	1407.487		29.46115	
66.72013	1408.65		31.37927	
66.77408	1409.93		33.34394	
66.82803	1411.322		35.35585	
66.88197	1412.823		37.41564	
66.93592	1414.427		39.52397	
66.98987	1416.136		41.68145	
67.04382	1417.95		43.88895	
67.09777	1419.87		46.14637	
67.15172	1421.898		48.45445	
67.20567	1424.042		50.81359	
67.25961	1426.313		53.22412	
67.31356	1428.724		55.68633	
67.36751	1431.289		58.20042	
67.42146	1434.015		60.76657	
67.4754	1436.895		63.38491	
67.52935	1439.922		66.05553	
67.5833	1443.087		68.77849	
67.63725	1446.386		71.55377	
67.69119	1449.817		74.38134	
67.74514	1453.378		77.26109	
67.7991	1457.067		80.19331	
67.85304	1460.886		83.17697	
67.90699	1464.843		86.21225	
67.96094	1468.947		89.29884	
68.01488	1473.208		92.43638	
68.06883	1477.642		95.6244	
68.12278	1482.263		98.86238	
68.17673	1487.085		102.1497	
68.23067	1492.116		105.4858	
68.28462	1497.368		108.8698	
68.33857	1502.84		112.3013	
68.39252	1508.53		115.7793	
68.44646	1514.437		119.3031	
68.50042	1520.557		122.8726	
68.55437	1526.885		126.4857	
68.60831	1533.413		130.1423	
68.66226	1540.133		133.8413	
68.71621	1547.045		137.5819	
68.77016	1554.153		141.363	
68.8241	1561.466		145.1836	
68.87805	1568.996		149.0426	
68.932	1576.754		152.9389	
68.98595	1584.748		156.8712	
69.03989	1592.981		160.8381	
69.09384	1601.449		164.8382	
69.14779	1610.151		168.8697	
69.20174	1619.078		172.9308	
69.25569	1628.227		177.02	
69.30964	1637.593		181.1339	
69.36359	1647.182		185.2705	
69.41753	1656.997		189.4269	
69.47148	1667.04		193.6	
69.52543	1677.312		197.7865	
69.57938	1687.813		201.9827	
69.63332	1698.543		206.1846	
69.68727	1709.508		210.3879	
69.74122	1720.716		214.5879	
69.79517	1732.175		218.7796	
69.84911	1743.894		222.9577	
69.90306	1755.876		227.1163	
69.95702	1768.131		231.2498	
70.01096	1780.662		235.3506	
70.06491	1793.48		239.4124	
70.11886	1806.586		243.428	
70.17281	1819.974		247.3897	
70.22675	1833.635		251.2898	
70.2807	1847.556		255.1201	
70.33465	1861.728		258.8724	
70.3886	1876.147		262.5382	
70.44254	1890.807		266.1088	
70.49649	1905.706		269.5755	
70.55044	1920.84		272.9295	
70.60439	1936.212		276.162	
70.65833	1951.826		279.2643	
70.71229	1967.69		282.2282	
70.76624	1983.808		285.0444	
70.82018	2000.186		287.7051	
70.87413	2016.826		290.2023	
70.92808	2033.727		292.5284	
70.98203	2050.883		294.676	
71.03597	2068.287		296.6384	
71.08992	2085.928		298.4093	
71.14387	2103.797		299.9827	
71.19781	2121.875		301.3535	
71.25176	2140.155		302.5171	
71.30571	2158.634		303.4695	
71.35966	2177.313		304.2071	
71.41361	2196.191		304.7274	
71.46756	2215.269		305.028	
71.52151	2234.551		305.1073	
71.57545	2254.029		304.9647	
71.6294	2273.691		304.5998	
71.68335	2293.516		304.0132	
71.7373	2313.48		303.2057	
71.79124	2333.553		302.1791	
71.84519	2353.691		300.9355	
71.89914	2373.844		299.4774	
71.95309	2393.96		297.8082	
72.00703	2413.995		295.9313	
72.06098	2433.911		293.8509	
72.11494	2453.68		291.5709	
72.16888	2473.272		289.0968	
72.22283	2492.663		286.4333	
72.27678	2511.819		283.5858	
72.33073	2530.712		280.56	
72.38467	2549.311		277.3617	
72.43862	2567.583		273.9971	
72.49257	2585.488		270.4727	
72.54652	2602.983		266.7952	
72.60046	2620.025		262.9714	
72.65441	2636.577		259.0086	
72.70836	2652.608		254.9142	
72.76231	2668.099		250.6958	
72.81625	2683.036		246.3611	
72.87021	2697.417		241.9175	
72.92416	2711.241		237.3745	
72.9781	2724.522		232.7397	
73.03205	2737.278		228.0218	
73.086	2749.525		223.2294	
73.13995	2761.277		218.3716	
73.19389	2772.541		213.4574	
73.24784	2783.33		208.4962	
73.30179	2793.647		203.4973	
73.35574	2803.491		198.4703	
73.40968	2812.856		193.4247	
73.46363	2821.746		188.3701	
73.51758	2830.175		183.3164	
73.57153	2838.165		178.2724	
73.62548	2845.735		173.2492	
73.67943	2852.916		168.2556	
73.73338	2859.743		163.3012	
73.78732	2866.26		158.3949	
73.84127	2872.503		153.5456	
73.89522	2878.499		148.7618	
73.94917	2884.261		144.0517	
74.00311	2889.796		139.4229	
74.05706	2895.111		134.8826	
74.11101	2900.222		130.4373	
74.16496	2905.154		126.0932	
74.2189	2909.919		121.8556	
74.27285	2914.525		117.7293	
74.32681	2918.983		113.7177	
74.38075	2923.302		109.8254	
74.4347	2927.494		106.0546	
74.48865	2931.566		102.4074	
74.54259	2935.518		98.88499	
74.59654	2939.353		95.48819	
74.65049	2943.066		92.217	
74.70444	2946.661		89.07086	
74.75838	2950.143		86.04866	
74.81233	2953.52		83.14877	
74.86628	2956.798		80.36908	
74.92023	2959.987		77.70708	
74.97417	2963.095		75.15992	
75.02813	2966.132		72.72405	
75.08208	2969.098		70.39674	
75.13602	2971.996		68.17397	
75.18997	2974.829		66.05191	
75.24392	2977.606		64.02659	
75.29787	2980.335		62.09393	
75.35181	2983.019		60.24984	
75.40576	2985.651		58.49023	
75.45971	2988.224		56.81107	
75.51366	2990.737		55.20841	
75.5676	2993.196		53.67843	
75.62155	2995.614		52.21744	
75.6755	2998.004		50.82191	
75.72945	3000.382		49.48844	
75.7834	3002.764		48.21365	
75.83735	3005.157		46.99483	
75.8913	3007.568		45.82894	
75.94524	3009.997		44.71329	
75.99919	3012.433		43.64533	
76.05314	3014.858		42.62263	
76.10709	3017.264		41.64288	
76.16103	3019.637		40.70384	
76.21498	3021.962		39.80336	
76.26893	3024.222		38.93934	
76.32288	3026.4		38.10974	
76.37682	3028.491		37.31257	
76.43077	3030.492		36.54588	
76.48473	3032.413		35.8076	
76.53867	3034.267		35.09596	
76.59262	3036.064		34.40883	
76.64657	3037.807		33.74418	
76.70052	3039.498		33.09999	
76.75446	3041.135		32.4743	
76.80841	3042.71		31.86522	
76.86236	3044.221		31.27097	
76.91631	3045.665		30.68987	
76.97025	3047.041		30.12037	
77.0242	3048.349		29.56108	
77.07815	3049.587		29.01079	
77.1321	3050.754		28.4685	
77.18604	3051.853		27.93341	
77.24	3052.892		27.40485	
77.29395	3053.887		26.88252	
77.34789	3054.854		26.36608	
77.40184	3055.806		25.85544	
77.45579	3056.749		25.35068	
77.50974	3057.689		24.85204	
77.56368	3058.632		24.35995	
77.61763	3059.582		23.87496	
77.67158	3060.545		23.39777	
77.72552	3061.534		22.92916	
77.77947	3062.556		22.47001	
77.83342	3063.609		22.02128	
77.88737	3064.693		21.58399	
77.94132	3065.804		21.15913	
77.99527	3066.938		20.74787	
78.04922	3068.09		20.35113	
78.10316	3069.26		19.96979	
78.15711	3070.455		19.60467	
78.21106	3071.675		19.25648	
78.26501	3072.917		18.92584	
78.31895	3074.177		18.61322	
78.3729	3075.447		18.31899	
78.42685	3076.723		18.04333	
78.4808	3078.001		17.78626	
78.53474	3079.273		17.54761	
78.58869	3080.532		17.327	
78.64264	3081.767		17.12393	
78.69659	3082.963		16.93768	
78.75054	3084.101		16.76752	
78.80449	3085.167		16.61255	
78.85844	3086.153		16.47181	
78.91238	3087.056		16.3443	
78.96633	3087.874		16.229	
79.02028	3088.604		16.12488	
79.07423	3089.24		16.03098	
79.12817	3089.788		15.94644	
79.18212	3090.261		15.87054	
79.23607	3090.678		15.80268	
79.29002	3091.058		15.74238	
79.34396	3091.414		15.68934	
79.39792	3091.757		15.64338	
79.45187	3092.093		15.60451	
79.50581	3092.426		15.5729	
79.55976	3092.757		15.54888	
79.61371	3093.089		15.53294	
79.66766	3093.431		15.52567	
79.7216	3093.799		15.52778	
79.77555	3094.205		15.54002	
79.8295	3094.65		15.56317	
79.88345	3095.139		15.59799	
79.93739	3095.68		15.64519	
79.99134	3096.283		15.70542	
80.04529	3096.962		15.77925	
80.09924	3097.731		15.8671	
80.15319	3098.599		15.9693	
80.20714	3099.56		16.08599	
80.26109	3100.597		16.21721	
80.31503	3101.682		16.36285	
80.36898	3102.795		16.52266	
80.42293	3103.913		16.6962	
80.47688	3105.018		16.88289	
80.53082	3106.097		17.08199	
80.58477	3107.139		17.2926	
80.63872	3108.137		17.51369	
80.69267	3109.086		17.74404	
80.74661	3109.992		17.98231	
80.80056	3110.871		18.22701	
80.85452	3111.742		18.47658	
80.90846	3112.618		18.72922	
80.96241	3113.51		18.98315	
81.01636	3114.42		19.2365	
81.0703	3115.339		19.48734	
81.12425	3116.259		19.73379	
81.1782	3117.174		19.97399	
81.23215	3118.082		20.20618	
81.28609	3118.984		20.42872	
81.34004	3119.889		20.6401	
81.39399	3120.81		20.83898	
81.44794	3121.76		21.02418	
81.50188	3122.752		21.19471	
81.55584	3123.791		21.34981	
81.60979	3124.881		21.48883	
81.66373	3126.039		21.61139	
81.71768	3127.291		21.71721	
81.77163	3128.646		21.80621	
81.82558	3130.104		21.87837	
81.87952	3131.653		21.93377	
81.93347	3133.278		21.97253	
81.98742	3134.963		21.99479	
82.04137	3136.688		22.00072	
82.09531	3138.431		21.99048	
82.14926	3140.173		21.96415	
82.20321	3141.901		21.92181	
82.25716	3143.608		21.86342	
82.31111	3145.289		21.78895	
82.36506	3146.945		21.69832	
82.41901	3148.572		21.59136	
82.47295	3150.164		21.46783	
82.5269	3151.722		21.32744	
82.58085	3153.249		21.16981	
82.6348	3154.744		20.99449	
82.68874	3156.206		20.801	
82.74269	3157.631		20.58879	
82.79664	3159.02		20.35727	
82.85059	3160.371		20.10582	
82.90453	3161.684		19.83375	
82.95848	3162.952		19.54036	
83.01244	3164.166		19.22488	
83.06638	3165.326		18.88671	
83.12033	3166.44		18.52511	
83.17428	3167.515		18.13945	
83.22823	3168.551		17.72915	
83.28217	3169.546		17.29373	
83.33612	3170.495		16.83282	
83.39007	3171.401		16.34618	
83.44402	3172.275		15.83375	
83.49796	3173.125		15.29562	
83.55191	3173.954		14.73209	
83.60586	3174.761		14.14364	
83.65981	3175.548		13.53094	
83.71375	3176.314		12.89486	
83.76771	3177.055		12.23633	
83.82166	3177.766		11.55668	
83.8756	3178.451		10.85705	
83.92955	3179.113		10.1387	
83.9835	3179.76		9.402961	
84.03745	3180.385		8.651155	
84.09139	3180.983		7.884629	
84.14534	3181.547		7.104698	
84.19929	3182.082		6.312621	
84.25323	3182.599		5.509586	
84.30718	3183.108		4.696737	
84.36113	3183.61		3.875171	
84.41508	3184.091		3.045919	
84.46903	3184.531		2.209804	
84.52298	3184.911		1.367924	
84.57693	3185.221		0.5209216	
84.63087	3185.46		-0.3305402	
84.68482	3185.631		-1.185914	
84.73877	3185.734		-2.044734	
84.79272	3185.771		-2.906613	
84.84666	3185.758		-3.771203	
84.90061	3185.707		-4.638199	
84.95456	3185.615		-5.507315	
85.00851	3185.474		-6.378302	
85.06245	3185.282		-7.250935	
85.1164	3185.034		-8.125019	
85.17035	3184.719		-9.000347	
85.2243	3184.326		-9.876822	
85.27825	3183.845		-10.75393	
85.3322	3183.264		-11.63153	
85.38615	3182.574		-12.50924	
85.44009	3181.772		-13.38669	
85.49404	3180.859		-14.26334	
85.54799	3179.842		-15.13864	
85.60194	3178.732		-16.01195	
85.65588	3177.542		-16.88254	
85.70983	3176.289		-17.74962	
85.76378	3174.991		-18.61233	
85.81773	3173.664		-19.46977	
85.87167	3172.324		-20.32099	
85.92563	3170.977		-21.16516	
85.97958	3169.626		-22.0011	
86.03352	3168.266		-22.82798	
86.08747	3166.884		-23.64489	
86.14142	3165.459		-24.45093	
86.19537	3163.983		-25.24527	
86.24931	3162.453		-26.0272	
86.30326	3160.878		-26.79608	
86.35721	3159.257		-27.55139	
86.41116	3157.591		-28.2927	
86.4651	3155.874		-29.01966	
86.51905	3154.107		-29.732	
86.573	3152.298		-30.42954	
86.62695	3150.462		-31.1122	
86.6809	3148.607		-31.78013	
86.73485	3146.74		-32.43331	
86.7888	3144.854		-33.07212	
86.84274	3142.951		-33.69694	
86.89669	3141.03		-34.3082	
86.95064	3139.09		-34.90639	
87.00459	3137.128		-35.49208	
87.05853	3135.138		-36.06588	
87.11248	3133.109		-36.62851	
87.16643	3131.025		-37.18072	
87.22038	3128.867		-37.72326	
87.27432	3126.619		-38.25687	
87.32827	3124.28		-38.78225	
87.38223	3121.86		-39.30012	
87.43617	3119.383		-39.8109	
87.49012	3116.873		-40.31514	
87.54407	3114.348		-40.81319	
87.59801	3111.822		-41.30536	
87.65196	3109.301		-41.79182	
87.70591	3106.8		-42.27268	
87.75986	3104.335		-42.74792	
87.8138	3101.917		-43.21742	
87.86775	3099.548		-43.68097	
87.9217	3097.223		-44.13826	
87.97565	3094.93		-44.58887	
88.02959	3092.652		-45.03233	
88.08354	3090.373		-45.46809	
88.1375	3088.072		-45.89566	
88.19144	3085.741		-46.31432	
88.24539	3083.381		-46.72356	
88.29934	3080.996		-47.12285	
88.35329	3078.594		-47.51168	
88.40723	3076.18		-47.88962	
88.46118	3073.759		-48.25623	
88.51513	3071.334		-48.61111	
88.56908	3068.905		-48.9539	
88.62302	3066.471		-49.28424	
88.67697	3064.026		-49.60185	
88.73092	3061.557		-49.90649	
88.78487	3059.043		-50.198	
88.83882	3056.464		-50.47633	
88.89277	3053.802		-50.74134	
88.94672	3051.048		-50.99312	
89.00066	3048.205		-51.23176	
89.05461	3045.286		-51.4575	
89.10856	3042.309		-51.67068	
89.16251	3039.291		-51.87177	
89.21645	3036.24		-52.06133	
89.2704	3033.165		-52.24001	
89.32435	3030.064		-52.4085	
89.3783	3026.941		-52.56757	
89.43224	3023.793		-52.71795	
89.48619	3020.621		-52.86039	
89.54014	3017.42		-52.99556	
89.59409	3014.188		-53.1241	
89.64804	3010.921		-53.24653	
89.70199	3007.621		-53.36336	
89.75594	3004.291		-53.47499	
89.80988	3000.943		-53.58179	
89.86383	2997.592		-53.68413	
89.91778	2994.254		-53.78233	
89.97173	2990.946		-53.87671	
90.02567	2987.689		-53.96757	
90.07962	2984.49		-54.05519	
90.13357	2981.348		-54.13984	
90.18752	2978.256		-54.22175	
90.24146	2975.205		-54.30119	
90.29542	2972.178		-54.37846	
90.34937	2969.167		-54.45378	
90.40331	2966.155		-54.52745	
90.45726	2963.139		-54.59973	
90.51121	2960.12		-54.67086	
90.56516	2957.106		-54.74108	
90.6191	2954.11		-54.8106	
90.67305	2951.149		-54.87959	
90.727	2948.234		-54.94823	
90.78094	2945.376		-55.0167	
90.83489	2942.581		-55.08516	
90.88884	2939.845		-55.15378	
90.94279	2937.156		-55.22269	
90.99674	2934.499		-55.2921	
91.05069	2931.863		-55.36219	
91.10464	2929.24		-55.43326	
91.15858	2926.626		-55.50563	
91.21253	2924.013		-55.5797	
91.26648	2921.39		-55.65586	
91.32043	2918.751		-55.73453	
91.37437	2916.09		-55.81613	
91.42832	2913.403		-55.90105	
91.48227	2910.685		-55.98965	
91.53622	2907.939		-56.08227	
91.59016	2905.172		-56.17918	
91.64411	2902.387		-56.28057	
91.69806	2899.586		-56.38658	
91.75201	2896.77		-56.49727	
91.80596	2893.938		-56.61258	
91.85991	2891.081		-56.7324	
91.91386	2888.196		-56.85659	
91.9678	2885.285		-56.98489	
92.02175	2882.354		-57.11703	
92.0757	2879.404		-57.25268	
92.12965	2876.434		-57.39146	
92.18359	2873.433		-57.53299	
92.23754	2870.392		-57.6769	
92.29149	2867.295		-57.82278	
92.34544	2864.134		-57.97029	
92.39938	2860.895		-58.11906	
92.45334	2857.573		-58.24081	
92.50729	2854.171		-58.35183	
92.56123	2850.698		-58.45553	
92.61518	2847.168		-58.55502	
92.66913	2843.604		-58.65253	
92.72308	2840.029		-58.7495	
92.77702	2836.468		-58.84671	
92.83097	2832.937		-58.94458	
92.88492	2829.446		-59.04324	
92.93887	2825.994		-59.14267	
92.99281	2822.575		-59.24278	
93.04676	2819.169		-59.34343	
93.10071	2815.764		-59.44447	
93.15466	2812.347		-59.54572	
93.20861	2808.916		-59.64703	
93.26256	2805.466		-59.74823	
93.31651	2802.005		-59.84918	
93.37045	2798.533		-59.94973	
93.4244	2795.06		-60.04975	
93.47835	2791.596		-60.14911	
93.5323	2788.158		-60.24768	
93.58624	2784.752		-60.34535	
93.64019	2781.369		-60.442	
93.69414	2778.006		-60.53753	
93.74809	2774.663		-60.63181	
93.80203	2771.335		-60.72475	
93.85598	2768.025		-60.81625	
93.90993	2764.732		-60.90622	
93.96388	2761.456		-60.99456	
94.01783	2758.195		-61.08118	
94.07178	2754.968		-61.16603	
94.12572	2751.756		-61.24905	
94.17967	2748.529		-61.33017	
94.23362	2745.287		-61.40936	
94.28757	2742.031		-61.48657	
94.34151	2738.765		-61.56178	
94.39546	2735.493		-61.63496	
94.44941	2732.217		-61.70611	
94.50336	2728.937		-61.77522	
94.5573	2725.656		-61.84227	
94.61125	2722.375		-61.90728	
94.66521	2719.096		-61.97028	
94.71915	2715.823		-62.03126	
94.7731	2712.555		-62.09025	
94.82705	2709.294		-62.14729	
94.881	2706.04		-62.20241	
94.93494	2702.792		-62.25566	
94.98889	2699.55		-62.30708	
