T[Â°C]	330nm [counts / mm]	S.D.	First derivative	S.D. of first derivative
20.00115	3421.176		-49.2247	
20.0551	3418.573		-49.20193	
20.10905	3415.966		-49.17857	
20.16299	3413.355		-49.15463	
20.21694	3410.741		-49.13007	
20.27089	3408.121		-49.1049	
20.32484	3405.496		-49.07909	
20.37879	3402.866		-49.05264	
20.43273	3400.232		-49.02553	
20.48668	3397.597		-48.99778	
20.54063	3394.962		-48.96936	
20.59458	3392.33		-48.94028	
20.64853	3389.702		-48.91055	
20.70247	3387.08		-48.88015	
20.75642	3384.465		-48.8491	
20.81037	3381.86		-48.8174	
20.86432	3379.264		-48.78506	
20.91827	3376.677		-48.75209	
20.97221	3374.09		-48.7185	
21.02616	3371.494		-48.68431	
21.08011	3368.877		-48.64954	
21.13406	3366.225		-48.61419	
21.18801	3363.537		-48.57831	
21.24195	3360.824		-48.5419	
21.2959	3358.107		-48.505	
21.34985	3355.403		-48.46764	
21.4038	3352.719		-48.42983	
21.45775	3350.064		-48.39163	
21.51169	3347.44		-48.35305	
21.56564	3344.847		-48.31414	
21.61959	3342.283		-48.27492	
21.67354	3339.735		-48.23543	
21.72749	3337.191		-48.19571	
21.78144	3334.642		-48.15581	
21.83538	3332.07		-48.11576	
21.88933	3329.467		-48.07563	
21.94328	3326.823		-48.03547	
21.99723	3324.137		-47.99532	
22.05117	3321.412		-47.95526	
22.10512	3318.663		-47.91533	
22.15907	3315.908		-47.87559	
22.21302	3313.163		-47.83606	
22.26697	3310.433		-47.79674	
22.32092	3307.723		-47.75753	
22.37486	3305.035		-47.71824	
22.42881	3302.364		-47.67848	
22.48276	3299.702		-47.6376	
22.53671	3297.045		-47.59474	
22.59065	3294.389		-47.54891	
22.6446	3291.736		-47.50019	
22.69855	3289.083		-47.45393	
22.7525	3286.428		-47.41034	
22.80645	3283.777		-47.36955	
22.8604	3281.138		-47.33166	
22.91434	3278.524		-47.29667	
22.96829	3275.937		-47.26451	
23.02224	3273.383		-47.23509	
23.07619	3270.865		-47.2082	
23.13013	3268.385		-47.18362	
23.18408	3265.938		-47.16106	
23.23803	3263.523		-47.14023	
23.29198	3261.129		-47.12078	
23.34593	3258.749		-47.10235	
23.39988	3256.374		-47.08455	
23.45382	3254.001		-47.06695	
23.50777	3251.63		-47.0491	
23.56172	3249.265		-47.03053	
23.61567	3246.91		-47.01079	
23.66961	3244.565		-46.98943	
23.72356	3242.23		-46.96603	
23.77751	3239.903		-46.94028	
23.83146	3237.577		-46.91188	
23.88541	3235.253		-46.88059	
23.93936	3232.926		-46.84623	
23.9933	3230.584		-46.80866	
24.04725	3228.216		-46.76787	
24.1012	3225.81		-46.72392	
24.15515	3223.367		-46.67697	
24.2091	3220.89		-46.62726	
24.26304	3218.381		-46.5751	
24.31699	3215.842		-46.52084	
24.37094	3213.278		-46.46494	
24.42489	3210.696		-46.40789	
24.47884	3208.105		-46.35027	
24.53278	3205.512		-46.2927	
24.58673	3202.921		-46.23582	
24.64068	3200.333		-46.18029	
24.69463	3197.747		-46.12677	
24.74858	3195.153		-46.07583	
24.80252	3192.546		-46.028	
24.85647	3189.922		-45.98372	
24.91042	3187.273		-45.94335	
24.96437	3184.595		-45.90714	
25.01832	3181.882		-45.87524	
25.07226	3179.143		-45.84772	
25.12621	3176.388		-45.82457	
25.18016	3173.63		-45.80564	
25.23411	3170.873		-45.79073	
25.28806	3168.129		-45.77956	
25.342	3165.409		-45.77173	
25.39595	3162.726		-45.76682	
25.4499	3160.083		-45.76427	
25.50385	3157.478		-45.76346	
25.5578	3154.912		-45.76371	
25.61174	3152.382		-45.7643	
25.66569	3149.885		-45.76446	
25.71964	3147.418		-45.76346	
25.77359	3144.977		-45.76059	
25.82754	3142.555		-45.75522	
25.88148	3140.152		-45.74683	
25.93543	3137.772		-45.73502	
25.98938	3135.428		-45.71951	
26.04333	3133.133		-45.70018	
26.09728	3130.896		-45.67703	
26.15122	3128.723		-45.65019	
26.20517	3126.618		-45.61988	
26.25912	3124.575		-45.58639	
26.31307	3122.572		-45.55005	
26.36702	3120.584		-45.51126	
26.42096	3118.59		-45.47045	
26.47491	3116.567		-45.42811	
26.52886	3114.497		-45.38477	
26.58281	3112.362		-45.34098	
26.63676	3110.149		-45.29733	
26.6907	3107.85		-45.25445	
26.74465	3105.467		-45.21299	
26.7986	3103.014		-45.17356	
26.85255	3100.516		-45.13673	
26.9065	3097.992		-45.10303	
26.96044	3095.448		-45.07287	
27.01439	3092.884		-45.04662	
27.06834	3090.301		-45.02451	
27.12229	3087.696		-45.00669	
27.17624	3085.064		-44.99321	
27.23018	3082.399		-44.98396	
27.28413	3079.7		-44.97873	
27.33808	3076.973		-44.97718	
27.39203	3074.226		-44.97885	
27.44598	3071.472		-44.98315	
27.49992	3068.723		-44.98941	
27.55387	3065.996		-44.99686	
27.60782	3063.307		-45.00471	
27.66177	3060.673		-45.0121	
27.71572	3058.108		-45.01815	
27.76966	3055.619		-45.02201	
27.82361	3053.201		-45.02284	
27.87756	3050.843		-45.01987	
27.93151	3048.532		-45.01245	
27.98546	3046.258		-44.99998	
28.0394	3044.008		-44.98196	
28.09335	3041.768		-44.95805	
28.1473	3039.527		-44.92799	
28.20125	3037.28		-44.89169	
28.2552	3035.023		-44.8491	
28.30914	3032.751		-44.80033	
28.36309	3030.459		-44.74556	
28.41704	3028.138		-44.68505	
28.47099	3025.775		-44.6192	
28.52494	3023.376		-44.54848	
28.57888	3020.947		-44.47344	
28.63283	3018.486		-44.39469	
28.68678	3015.985		-44.3129	
28.74073	3013.442		-44.22878	
28.79468	3010.861		-44.14302	
28.84863	3008.259		-44.05636	
28.90257	3005.651		-43.96954	
28.95652	3003.044		-43.8833	
29.01047	3000.448		-43.79842	
29.06442	2997.872		-43.71563	
29.11836	2995.322		-43.63567	
29.17231	2992.804		-43.5592	
29.22626	2990.313		-43.48686	
29.28021	2987.844		-43.41922	
29.33416	2985.395		-43.35677	
29.38811	2982.966		-43.29989	
29.44205	2980.571		-43.24884	
29.496	2978.224		-43.20375	
29.54995	2975.931		-43.16462	
29.6039	2973.697		-43.13135	
29.65784	2971.523		-43.10374	
29.71179	2969.408		-43.0815	
29.76574	2967.344		-43.06428	
29.81969	2965.318		-43.05168	
29.87364	2963.32		-43.04326	
29.92759	2961.341		-43.03854	
29.98153	2959.369		-43.037	
30.03548	2957.386		-43.03811	
30.08943	2955.373		-43.04134	
30.14338	2953.317		-43.0462	
30.19732	2951.206		-43.0522	
30.25127	2949.043		-43.05892	
30.30522	2946.843		-43.06599	
30.35917	2944.616		-43.07312	
30.41312	2942.363		-43.08012	
30.46707	2940.088		-43.08689	
30.52101	2937.801		-43.09343	
30.57496	2935.51		-43.09976	
30.62891	2933.213		-43.10598	
30.68286	2930.905		-43.11217	
30.7368	2928.577		-43.11841	
30.79075	2926.232		-43.12474	
30.8447	2923.876		-43.13118	
30.89865	2921.511		-43.13774	
30.9526	2919.137		-43.14438	
31.00655	2916.759		-43.15102	
31.06049	2914.379		-43.1576	
31.11444	2912.006		-43.16401	
31.16839	2909.649		-43.17014	
31.22234	2907.311		-43.17588	
31.27629	2904.987		-43.18114	
31.33023	2902.67		-43.18585	
31.38418	2900.352		-43.18999	
31.43813	2898.025		-43.19356	
31.49208	2895.673		-43.1965	
31.54603	2893.283		-43.19872	
31.59997	2890.854		-43.2001	
31.65392	2888.384		-43.20048	
31.70787	2885.876		-43.19965	
31.76182	2883.332		-43.19737	
31.81577	2880.755		-43.19341	
31.86971	2878.154		-43.18751	
31.92366	2875.541		-43.17943	
31.97761	2872.928		-43.16893	
32.03156	2870.325		-43.15578	
32.08551	2867.747		-43.13972	
32.13945	2865.201		-43.12052	
32.1934	2862.688		-43.09796	
32.24735	2860.208		-43.07189	
32.3013	2857.754		-43.04221	
32.35525	2855.316		-43.0089	
32.40919	2852.888		-42.97202	
32.46314	2850.481		-42.93169	
32.51709	2848.11		-42.88808	
32.57104	2845.784		-42.84144	
32.62498	2843.506		-42.79203	
32.67893	2841.276		-42.74014	
32.73288	2839.092		-42.68609	
32.78683	2836.948		-42.63023	
32.84078	2834.839		-42.57288	
32.89473	2832.753		-42.51439	
32.94867	2830.678		-42.45501	
33.00262	2828.602		-42.39497	
33.05657	2826.514		-42.33447	
33.11052	2824.404		-42.27366	
33.16447	2822.269		-42.21268	
33.21841	2820.107		-42.15159	
33.27236	2817.918		-42.09049	
33.32631	2815.713		-42.02951	
33.38026	2813.501		-41.96886	
33.4342	2811.282		-41.90878	
33.48816	2809.056		-41.84951	
33.5421	2806.828		-41.79138	
33.59605	2804.605		-41.73466	
33.65	2802.392		-41.67962	
33.70395	2800.189		-41.62647	
33.75789	2797.997		-41.57542	
33.81184	2795.813		-41.52661	
33.86579	2793.629		-41.48019	
33.91974	2791.436		-41.43626	
33.97369	2789.219		-41.39484	
34.02763	2786.979		-41.35592	
34.08158	2784.723		-41.31943	
34.13553	2782.466		-41.28529	
34.18948	2780.223		-41.25337	
34.24343	2778.009		-41.22353	
34.29737	2775.825		-41.19561	
34.35132	2773.661		-41.16944	
34.40527	2771.508		-41.14485	
34.45922	2769.357		-41.12166	
34.51316	2767.199		-41.09969	
34.56712	2765.024		-41.0788	
34.62106	2762.826		-41.05888	
34.67501	2760.605		-41.03983	
34.72896	2758.362		-41.02156	
34.78291	2756.094		-41.00401	
34.83685	2753.802		-40.98717	
34.8908	2751.488		-40.971	
34.94475	2749.158		-40.95551	
34.9987	2746.823		-40.94069	
35.05265	2744.489		-40.92651	
35.10659	2742.16		-40.91292	
35.16054	2739.84		-40.89983	
35.21449	2737.533		-40.88711	
35.26844	2735.244		-40.87465	
35.32239	2732.977		-40.86234	
35.37634	2730.728		-40.85007	
35.43028	2728.49		-40.83777	
35.48423	2726.259		-40.82537	
35.53818	2724.035		-40.81284	
35.59212	2721.814		-40.80019	
35.64608	2719.591		-40.78746	
35.70002	2717.364		-40.77476	
35.75397	2715.139		-40.76218	
35.80792	2712.931		-40.74988	
35.86187	2710.745		-40.738	
35.91581	2708.575		-40.72666	
35.96976	2706.412		-40.71597	
36.02371	2704.248		-40.706	
36.07766	2702.078		-40.6968	
36.13161	2699.901		-40.68838	
36.18555	2697.73		-40.68073	
36.2395	2695.579		-40.67376	
36.29345	2693.454		-40.66735	
36.3474	2691.359		-40.66132	
36.40135	2689.289		-40.65546	
36.4553	2687.233		-40.64951	
36.50924	2685.18		-40.64325	
36.56319	2683.123		-40.63643	
36.61714	2681.061		-40.62886	
36.67109	2678.989		-40.62037	
36.72504	2676.903		-40.61084	
36.77898	2674.8		-40.60015	
36.83293	2672.679		-40.58824	
36.88688	2670.539		-40.57507	
36.94083	2668.38		-40.5607	
36.99477	2666.207		-40.54521	
37.04872	2664.024		-40.52877	
37.10267	2661.834		-40.51152	
37.15662	2659.635		-40.49366	
37.21057	2657.428		-40.47535	
37.26451	2655.219		-40.45678	
37.31846	2653.01		-40.43808	
37.37241	2650.797		-40.41934	
37.42636	2648.573		-40.40068	
37.48031	2646.336		-40.38213	
37.53426	2644.087		-40.36376	
37.5882	2641.829		-40.34558	
37.64215	2639.569		-40.32761	
37.6961	2637.313		-40.30988	
37.75005	2635.065		-40.29241	
37.804	2632.83		-40.27526	
37.85794	2630.607		-40.25849	
37.91189	2628.396		-40.24215	
37.96584	2626.194		-40.22632	
38.01979	2623.996		-40.2111	
38.07373	2621.799		-40.19659	
38.12768	2619.594		-40.18288	
38.18163	2617.375		-40.17002	
38.23558	2615.14		-40.15802	
38.28953	2612.888		-40.14683	
38.34348	2610.622		-40.13633	
38.39742	2608.346		-40.12632	
38.45137	2606.069		-40.11655	
38.50532	2603.8		-40.1067	
38.55927	2601.546		-40.09646	
38.61322	2599.309		-40.08552	
38.66716	2597.087		-40.07358	
38.72111	2594.88		-40.0604	
38.77506	2592.687		-40.04577	
38.82901	2590.507		-40.02951	
38.88295	2588.343		-40.01152	
38.9369	2586.197		-39.99174	
38.99085	2584.069		-39.97016	
39.0448	2581.958		-39.94683	
39.09875	2579.865		-39.92188	
39.15269	2577.792		-39.89544	
39.20664	2575.745		-39.86768	
39.26059	2573.73		-39.83878	
39.31454	2571.75		-39.80894	
39.36849	2569.802		-39.77837	
39.42244	2567.874		-39.74726	
39.47638	2565.95		-39.71584	
39.53033	2564.013		-39.68434	
39.58428	2562.053		-39.65294	
39.63823	2560.063		-39.62179	
39.69218	2558.045		-39.591	
39.74612	2555.996		-39.56062	
39.80007	2553.919		-39.53071	
39.85402	2551.812		-39.50127	
39.90797	2549.672		-39.47231	
39.96191	2547.497		-39.44382	
40.01587	2545.288		-39.4158	
40.06981	2543.052		-39.38828	
40.12376	2540.798		-39.36132	
40.17771	2538.533		-39.33496	
40.23166	2536.271		-39.30921	
40.2856	2534.01		-39.28405	
40.33955	2531.754		-39.25941	
40.3935	2529.499		-39.23516	
40.44745	2527.25		-39.21114	
40.5014	2525.014		-39.18713	
40.55534	2522.786		-39.16289	
40.60929	2520.567		-39.1382	
40.66324	2518.364		-39.11279	
40.71719	2516.181		-39.08642	
40.77114	2514.028		-39.05888	
40.82508	2511.911		-39.03	
40.87903	2509.837		-38.99964	
40.93298	2507.806		-38.96774	
40.98693	2505.816		-38.93426	
41.04087	2503.854		-38.89923	
41.09483	2501.91		-38.86269	
41.14877	2499.968		-38.82475	
41.20272	2498.01		-38.78551	
41.25667	2496.021		-38.74517	
41.31062	2493.996		-38.70394	
41.36456	2491.929		-38.66209	
41.41851	2489.819		-38.61992	
41.47246	2487.662		-38.57775	
41.52641	2485.465		-38.53591	
41.58036	2483.243		-38.49474	
41.6343	2481.008		-38.45458	
41.68825	2478.771		-38.41572	
41.7422	2476.542		-38.3784	
41.79615	2474.331		-38.34282	
41.8501	2472.149		-38.30915	
41.90405	2470.004		-38.27748	
41.95799	2467.891		-38.24791	
42.01194	2465.796		-38.22046	
42.06589	2463.707		-38.19518	
42.11983	2461.612		-38.17209	
42.17379	2459.513		-38.15121	
42.22773	2457.415		-38.1325	
42.28168	2455.332		-38.11591	
42.33563	2453.276		-38.10129	
42.38958	2451.256		-38.08848	
42.44352	2449.278		-38.07728	
42.49747	2447.348		-38.06747	
42.55142	2445.467		-38.05882	
42.60537	2443.625		-38.05107	
42.65932	2441.809		-38.04395	
42.71326	2440.006		-38.03714	
42.76721	2438.208		-38.03032	
42.82116	2436.402		-38.02319	
42.87511	2434.577		-38.01543	
42.92906	2432.726		-38.00677	
42.98301	2430.844		-37.99694	
43.03695	2428.927		-37.98572	
43.0909	2426.973		-37.9729	
43.14485	2424.987		-37.95829	
43.1988	2422.972		-37.94176	
43.25275	2420.94		-37.92325	
43.30669	2418.896		-37.90277	
43.36064	2416.841		-37.88038	
43.41459	2414.774		-37.8562	
43.46854	2412.689		-37.83039	
43.52248	2410.584		-37.80314	
43.57643	2408.454		-37.77468	
43.63038	2406.305		-37.74525	
43.68433	2404.144		-37.71515	
43.73828	2401.973		-37.68465	
43.79222	2399.793		-37.65404	
43.84617	2397.607		-37.6236	
43.90012	2395.421		-37.59357	
43.95407	2393.243		-37.56419	
44.00802	2391.078		-37.53563	
44.06197	2388.928		-37.50806	
44.11591	2386.79		-37.48165	
44.16986	2384.657		-37.45651	
44.22381	2382.527		-37.43272	
44.27776	2380.406		-37.41032	
44.33171	2378.296		-37.38923	
44.38565	2376.196		-37.36938	
44.4396	2374.101		-37.35061	
44.49355	2372.012		-37.33269	
44.5475	2369.932		-37.3154	
44.60144	2367.854		-37.2985	
44.65539	2365.772		-37.28176	
44.70934	2363.681		-37.26497	
44.76329	2361.587		-37.24797	
44.81724	2359.504		-37.23061	
44.87119	2357.447		-37.21278	
44.92513	2355.426		-37.19441	
44.97908	2353.44		-37.1754	
45.03303	2351.483		-37.15569	
45.08698	2349.551		-37.13523	
45.14093	2347.638		-37.11395	
45.19487	2345.741		-37.09183	
45.24882	2343.857		-37.06889	
45.30277	2341.986		-37.04519	
45.35672	2340.127		-37.02082	
45.41066	2338.27		-36.99593	
45.46461	2336.407		-36.97064	
45.51856	2334.534		-36.94513	
45.57251	2332.646		-36.9196	
45.62646	2330.749		-36.89424	
45.6804	2328.858		-36.86926	
45.73435	2326.983		-36.8449	
45.7883	2325.127		-36.8214	
45.84225	2323.286		-36.79898	
45.8962	2321.46		-36.77788	
45.95015	2319.646		-36.75831	
46.00409	2317.837		-36.74046	
46.05804	2316.027		-36.72452	
46.11199	2314.202		-36.71065	
46.16594	2312.345		-36.69898	
46.21989	2310.443		-36.68957	
46.27383	2308.488		-36.68239	
46.32778	2306.477		-36.67728	
46.38173	2304.416		-36.674	
46.43568	2302.318		-36.67221	
46.48962	2300.202		-36.67151	
46.54358	2298.091		-36.67142	
46.59752	2295.997		-36.67148	
46.65147	2293.916		-36.67118	
46.70542	2291.84		-36.67005	
46.75937	2289.764		-36.66761	
46.81331	2287.69		-36.66344	
46.86726	2285.623		-36.65714	
46.92121	2283.571		-36.64833	
46.97516	2281.534		-36.63664	
47.02911	2279.507		-36.62174	
47.08305	2277.486		-36.60334	
47.137	2275.461		-36.5812	
47.19095	2273.426		-36.5551	
47.2449	2271.38		-36.52493	
47.29885	2269.328		-36.49062	
47.35279	2267.274		-36.4522	
47.40674	2265.221		-36.40973	
47.46069	2263.175		-36.36335	
47.51464	2261.142		-36.31322	
47.56858	2259.124		-36.25953	
47.62254	2257.127		-36.20254	
47.67648	2255.158		-36.14255	
47.73043	2253.211		-36.07986	
47.78438	2251.279		-36.01482	
47.83833	2249.35		-35.94781	
47.89227	2247.416		-35.87925	
47.94622	2245.461		-35.80955	
48.00017	2243.483		-35.73923	
48.05412	2241.479		-35.66883	
48.10807	2239.448		-35.59891	
48.16201	2237.395		-35.53006	
48.21596	2235.331		-35.46286	
48.26991	2233.269		-35.39782	
48.32386	2231.217		-35.33539	
48.37781	2229.173		-35.27591	
48.43176	2227.138		-35.21965	
48.4857	2225.116		-35.16682	
48.53965	2223.114		-35.11758	
48.5936	2221.138		-35.072	
48.64754	2219.19		-35.0301	
48.7015	2217.278		-34.99182	
48.75544	2215.406		-34.9571	
48.80939	2213.575		-34.92581	
48.86334	2211.791		-34.89779	
48.91729	2210.059		-34.87287	
48.97123	2208.375		-34.85086	
49.02518	2206.732		-34.83155	
49.07913	2205.119		-34.81476	
49.13308	2203.528		-34.80032	
49.18703	2201.951		-34.78802	
49.24097	2200.384		-34.77774	
49.29492	2198.82		-34.76934	
49.34887	2197.252		-34.76275	
49.40282	2195.673		-34.75795	
49.45677	2194.079		-34.75488	
49.51072	2192.463		-34.7535	
49.56466	2190.823		-34.75377	
49.61861	2189.158		-34.75563	
49.67256	2187.463		-34.75899	
49.72651	2185.736		-34.76377	
49.78046	2183.978		-34.76984	
49.8344	2182.19		-34.77705	
49.88835	2180.371		-34.78527	
49.9423	2178.515		-34.79434	
49.99625	2176.62		-34.80411	
50.05019	2174.686		-34.81446	
50.10414	2172.708		-34.82528	
50.15809	2170.683		-34.83647	
50.21204	2168.612		-34.84795	
50.26599	2166.507		-34.85964	
50.31993	2164.385		-34.87148	
50.37388	2162.262		-34.88337	
50.42783	2160.154		-34.89522	
50.48178	2158.073		-34.90686	
50.53573	2156.02		-34.91811	
50.58968	2153.994		-34.92875	
50.64362	2151.988		-34.93852	
50.69757	2149.993		-34.94715	
50.75152	2148.003		-34.95433	
50.80547	2146.01		-34.95979	
50.85941	2144.02		-34.96321	
50.91336	2142.04		-34.9643	
50.96731	2140.083		-34.96275	
51.02126	2138.152		-34.95832	
51.07521	2136.24		-34.95079	
51.12915	2134.339		-34.93999	
51.1831	2132.44		-34.92583	
51.23705	2130.531		-34.90826	
51.291	2128.604		-34.88734	
51.34495	2126.647		-34.86318	
51.3989	2124.661		-34.83595	
51.45284	2122.649		-34.80585	
51.50679	2120.623		-34.77312	
51.56074	2118.598		-34.73798	
51.61469	2116.579		-34.70071	
51.66864	2114.572		-34.66156	
51.72258	2112.583		-34.62078	
51.77653	2110.62		-34.57865	
51.83048	2108.69		-34.5354	
51.88443	2106.792		-34.49123	
51.93837	2104.927		-34.44635	
51.99232	2103.091		-34.40089	
52.04627	2101.288		-34.35502	
52.10022	2099.512		-34.30886	
52.15417	2097.752		-34.26257	
52.20811	2096.002		-34.21632	
52.26206	2094.259		-34.17028	
52.31601	2092.52		-34.12471	
52.36996	2090.789		-34.07984	
52.42391	2089.073		-34.03593	
52.47786	2087.375		-33.9932	
52.5318	2085.698		-33.9519	
52.58575	2084.043		-33.91223	
52.6397	2082.412		-33.87443	
52.69365	2080.805		-33.83868	
52.7476	2079.211		-33.8052	
52.80154	2077.615		-33.77417	
52.85549	2076.002		-33.74571	
52.90944	2074.362		-33.71993	
52.96339	2072.687		-33.69687	
53.01733	2070.98		-33.67654	
53.07129	2069.251		-33.65893	
53.12523	2067.505		-33.644	
53.17918	2065.74		-33.63174	
53.23313	2063.958		-33.62211	
53.28708	2062.161		-33.61511	
53.34102	2060.347		-33.61074	
53.39497	2058.513		-33.60902	
53.44892	2056.661		-33.60992	
53.50287	2054.795		-33.61342	
53.55682	2052.917		-33.61943	
53.61076	2051.025		-33.62783	
53.66471	2049.122		-33.63848	
53.71866	2047.208		-33.6512	
53.77261	2045.284		-33.66573	
53.82656	2043.355		-33.68179	
53.8805	2041.423		-33.69902	
53.93445	2039.491		-33.71703	
53.9884	2037.566		-33.73536	
54.04235	2035.656		-33.75352	
54.09629	2033.756		-33.77102	
54.15025	2031.863		-33.78737	
54.20419	2029.973		-33.80207	
54.25814	2028.085		-33.81466	
54.31209	2026.199		-33.8247	
54.36604	2024.32		-33.83179	
54.41998	2022.453		-33.83561	
54.47393	2020.607		-33.83583	
54.52788	2018.784		-33.83223	
54.58183	2016.988		-33.82462	
54.63578	2015.217		-33.81288	
54.68972	2013.466		-33.79694	
54.74367	2011.721		-33.7768	
54.79762	2009.972		-33.75249	
54.85157	2008.206		-33.72415	
54.90552	2006.408		-33.69191	
54.95947	2004.575		-33.65598	
55.01341	2002.712		-33.61658	
55.06736	2000.825		-33.57398	
55.12131	1998.923		-33.52845	
55.17525	1997.01		-33.48031	
55.22921	1995.094		-33.42989	
55.28315	1993.178		-33.37754	
55.3371	1991.266		-33.32361	
55.39105	1989.362		-33.26846	
55.445	1987.471		-33.21247	
55.49894	1985.593		-33.15601	
55.55289	1983.726		-33.09948	
55.60684	1981.869		-33.04322	
55.66079	1980.019		-32.98758	
55.71474	1978.179		-32.93283	
55.76868	1976.347		-32.87925	
55.82263	1974.523		-32.82707	
55.87658	1972.705		-32.77653	
55.93053	1970.896		-32.72782	
55.98448	1969.106		-32.68113	
56.03843	1967.348		-32.63662	
56.09237	1965.63		-32.59445	
56.14632	1963.957		-32.55472	
56.20027	1962.326		-32.5175	
56.25422	1960.729		-32.48281	
56.30816	1959.151		-32.45063	
56.36211	1957.578		-32.4209	
56.41606	1955.998		-32.39353	
56.47001	1954.405		-32.36842	
56.52396	1952.795		-32.34546	
56.5779	1951.168		-32.32451	
56.63185	1949.527		-32.30541	
56.6858	1947.871		-32.28798	
56.73975	1946.202		-32.27205	
56.7937	1944.521		-32.25745	
56.84764	1942.83		-32.24403	
56.90159	1941.133		-32.23167	
56.95554	1939.432		-32.22027	
57.00949	1937.722		-32.20975	
57.06344	1936.007		-32.20004	
57.11739	1934.29		-32.19106	
57.17133	1932.577		-32.18273	
57.22528	1930.868		-32.17494	
57.27923	1929.162		-32.16755	
57.33318	1927.459		-32.16037	
57.38712	1925.758		-32.15326	
57.44107	1924.055		-32.14602	
57.49502	1922.347		-32.1385	
57.54897	1920.633		-32.13058	
57.60292	1918.911		-32.12213	
57.65686	1917.183		-32.11304	
57.71081	1915.452		-32.10322	
57.76476	1913.717		-32.09261	
57.81871	1911.977		-32.0812	
57.87266	1910.236		-32.06902	
57.92661	1908.492		-32.05613	
57.98055	1906.749		-32.04263	
58.0345	1905.006		-32.02861	
58.08845	1903.264		-32.01417	
58.1424	1901.518		-31.99944	
58.19635	1899.765		-31.98452	
58.25029	1897.997		-31.96955	
58.30424	1896.205		-31.95462	
58.35819	1894.384		-31.93979	
58.41214	1892.536		-31.92512	
58.46608	1890.661		-31.91063	
58.52003	1888.763		-31.89633	
58.57398	1886.852		-31.88218	
58.62793	1884.936		-31.86811	
58.68188	1883.022		-31.854	
58.73582	1881.119		-31.83972	
58.78977	1879.232		-31.8251	
58.84372	1877.374		-31.80998	
58.89767	1875.555		-31.79417	
58.95162	1873.772		-31.77751	
59.00557	1872.019		-31.75983	
59.05951	1870.289		-31.74093	
59.11346	1868.58		-31.72063	
59.16741	1866.885		-31.69871	
59.22136	1865.199		-31.67493	
59.27531	1863.524		-31.64905	
59.32925	1861.86		-31.62079	
59.3832	1860.208		-31.58989	
59.43715	1858.573		-31.55609	
59.4911	1856.96		-31.51914	
59.54504	1855.37		-31.47882	
59.599	1853.805		-31.43495	
59.65294	1852.264		-31.3874	
59.70689	1850.743		-31.33608	
59.76084	1849.238		-31.28099	
59.81479	1847.745		-31.22217	
59.86873	1846.256		-31.15976	
59.92268	1844.762		-31.09396	
59.97663	1843.252		-31.025	
60.03058	1841.714		-30.95314	
60.08453	1840.141		-30.87872	
60.13847	1838.534		-30.80208	
60.19242	1836.894		-30.72361	
60.24637	1835.224		-30.64372	
60.30032	1833.527		-30.56285	
60.35427	1831.808		-30.48141	
60.40821	1830.068		-30.39983	
60.46216	1828.313		-30.31847	
60.51611	1826.55		-30.2377	
60.57006	1824.789		-30.15782	
60.624	1823.036		-30.0791	
60.67796	1821.292		-30.00173	
60.7319	1819.552		-29.92584	
60.78585	1817.811		-29.85146	
60.8398	1816.068		-29.77855	
60.89375	1814.325		-29.707	
60.94769	1812.583		-29.6366	
61.00164	1810.845		-29.56713	
61.05559	1809.115		-29.49829	
61.10954	1807.395		-29.42978	
61.16349	1805.688		-29.36128	
61.21743	1803.996		-29.29246	
61.27138	1802.321		-29.22298	
61.32533	1800.663		-29.15251	
61.37928	1799.029		-29.08072	
61.43323	1797.424		-29.00728	
61.48717	1795.855		-28.93185	
61.54112	1794.323		-28.85407	
61.59507	1792.823		-28.77363	
61.64902	1791.349		-28.69022	
61.70296	1789.89		-28.60353	
61.75691	1788.436		-28.51334	
61.81086	1786.985		-28.41945	
61.86481	1785.538		-28.32174	
61.91876	1784.098		-28.22011	
61.97271	1782.668		-28.11457	
62.02665	1781.247		-28.00514	
62.0806	1779.834		-27.89192	
62.13455	1778.428		-27.775	
62.1885	1777.027		-27.65454	
62.24245	1775.632		-27.53067	
62.29639	1774.237		-27.40353	
62.35034	1772.83		-27.27324	
62.40429	1771.394		-27.13991	
62.45824	1769.928		-27.00357	
62.51219	1768.433		-26.86424	
62.56614	1766.916		-26.72189	
62.62008	1765.383		-26.5764	
62.67403	1763.845		-26.42763	
62.72798	1762.31		-26.27532	
62.78193	1760.783		-26.11915	
62.83587	1759.266		-25.95869	
62.88982	1757.764		-25.79342	
62.94377	1756.284		-25.62279	
62.99772	1754.827		-25.44621	
63.05167	1753.392		-25.26307	
63.10561	1751.977		-25.07273	
63.15956	1750.58		-24.87453	
63.21351	1749.197		-24.66782	
63.26746	1747.824		-24.45193	
63.32141	1746.46		-24.22622	
63.37535	1745.109		-23.99007	
63.4293	1743.773		-23.7429	
63.48325	1742.457		-23.48417	
63.5372	1741.163		-23.21335	
63.59115	1739.889		-22.9299	
63.6451	1738.634		-22.63341	
63.69904	1737.394		-22.32335	
63.75299	1736.162		-21.99923	
63.80694	1734.931		-21.66061	
63.86089	1733.693		-21.307	
63.91483	1732.443		-20.93796	
63.96878	1731.178		-20.55302	
64.02273	1729.898		-20.15185	
64.07668	1728.606		-19.73397	
64.13063	1727.308		-19.29895	
64.18458	1726.016		-18.8465	
64.23853	1724.739		-18.37616	
64.29247	1723.485		-17.88749	
64.34642	1722.251		-17.38004	
64.40037	1721.036		-16.85335	
64.45432	1719.837		-16.30687	
64.50826	1718.651		-15.74004	
64.56221	1717.476		-15.15222	
64.61616	1716.313		-14.54267	
64.6701	1715.171		-13.91057	
64.72405	1714.063		-13.25499	
64.778	1713		-12.57495	
64.83195	1711.99		-11.86934	
64.8859	1711.045		-11.13686	
64.93985	1710.174		-10.37648	
64.9938	1709.385		-9.586843	
65.04774	1708.675		-8.766655	
65.10169	1708.041		-7.914632	
65.15564	1707.478		-7.029439	
65.20959	1706.976		-6.109768	
65.26353	1706.527		-5.154364	
65.31748	1706.125		-4.161943	
65.37143	1705.767		-3.131291	
65.42538	1705.453		-2.061274	
65.47932	1705.186		-0.9508393	
65.53327	1704.964		0.2009976	
65.58723	1704.785		1.395321	
65.64117	1704.655		2.632645	
65.69512	1704.581		3.913942	
65.74907	1704.567		5.239995	
65.80302	1704.614		6.611565	
65.85696	1704.721		8.02938	
65.91091	1704.886		9.494242	
65.96486	1705.096		11.00682	
66.01881	1705.338		12.56786	
66.07275	1705.605		14.17808	
66.1267	1705.897		15.83819	
66.18065	1706.217		17.54889	
66.2346	1706.57		19.31085	
66.28854	1706.971		21.12472	
66.3425	1707.436		22.99136	
66.39645	1707.984		24.91083	
66.45039	1708.635		26.88393	
66.50434	1709.403		28.91122	
66.55829	1710.297		30.99325	
66.61224	1711.314		33.13074	
66.66618	1712.449		35.32426	
66.72013	1713.702		37.57457	
66.77408	1715.068		39.88241	
66.82803	1716.552		42.24858	
66.88197	1718.159		44.67392	
66.93592	1719.895		47.1593	
66.98987	1721.77		49.70561	
67.04382	1723.791		52.31413	
67.09777	1725.969		54.98498	
67.15172	1728.312		57.71939	
67.20567	1730.83		60.51812	
67.25961	1733.525		63.38192	
67.31356	1736.399		66.31142	
67.36751	1739.456		69.3072	
67.42146	1742.7		72.36974	
67.4754	1746.13		75.49941	
67.52935	1749.738		78.69652	
67.5833	1753.521		81.96123	
67.63725	1757.471		85.29362	
67.69119	1761.582		88.69366	
67.74514	1765.851		92.16122	
67.7991	1770.279		95.69666	
67.85304	1774.875		99.29868	
67.90699	1779.654		102.9675	
67.96094	1784.625		106.7028	
68.01488	1789.794		110.504	
68.06883	1795.172		114.3709	
68.12278	1800.762		118.3029	
68.17673	1806.567		122.2997	
68.23067	1812.592		126.3606	
68.28462	1818.849		130.4852	
68.33857	1825.348		134.673	
68.39252	1832.097		138.9236	
68.44646	1839.102		143.2364	
68.50042	1846.37		147.6116	
68.55437	1853.894		152.0475	
68.60831	1861.67		156.5442	
68.66226	1869.694		161.1012	
68.71621	1877.962		165.718	
68.77016	1886.47		170.394	
68.8241	1895.221		175.1286	
68.87805	1904.217		179.9211	
68.932	1913.465		184.7708	
68.98595	1922.969		189.6769	
69.03989	1932.74		194.6385	
69.09384	1942.794		199.6546	
69.14779	1953.155		204.724	
69.20174	1963.841		209.8451	
69.25569	1974.856		215.017	
69.30964	1986.186		220.2361	
69.36359	1997.818		225.5007	
69.41753	2009.738		230.8078	
69.47148	2021.933		236.1541	
69.52543	2034.398		241.5358	
69.57938	2047.133		246.9484	
69.63332	2060.136		252.3871	
69.68727	2073.407		257.8463	
69.74122	2086.953		263.3199	
69.79517	2100.785		268.8013	
69.84911	2114.921		274.283	
69.90306	2129.379		279.7571	
69.95702	2144.18		285.2159	
70.01096	2159.333		290.6484	
70.06491	2174.854		296.046	
70.11886	2190.742		301.3982	
70.17281	2206.983		306.6945	
70.22675	2223.559		311.9237	
70.2807	2240.459		317.0745	
70.33465	2257.675		322.1353	
70.3886	2275.209		327.0941	
70.44254	2293.063		331.9392	
70.49649	2311.243		336.6582	
70.55044	2329.747		341.2392	
70.60439	2348.582		345.67	
70.65833	2367.762		349.9386	
70.71229	2387.307		354.0336	
70.76624	2407.229		357.9424	
70.82018	2427.547		361.6542	
70.87413	2448.273		365.1581	
70.92808	2469.408		368.4435	
70.98203	2490.937		371.5006	
71.03597	2512.844		374.3202	
71.08992	2535.114		376.8936	
71.14387	2557.735		379.2131	
71.19781	2580.704		381.2716	
71.25176	2604.015		383.0628	
71.30571	2627.665		384.581	
71.35966	2651.646		385.8216	
71.41361	2675.949		386.7807	
71.46756	2700.559		387.4549	
71.52151	2725.477		387.8418	
71.57545	2750.695		387.94	
71.6294	2776.198		387.7485	
71.68335	2801.95		387.2672	
71.7373	2827.904		386.4969	
71.79124	2854.005		385.4387	
71.84519	2880.195		384.0947	
71.89914	2906.407		382.4676	
71.95309	2932.577		380.5605	
72.00703	2958.646		378.3771	
72.06098	2984.559		375.9216	
72.11494	3010.278		373.1982	
72.16888	3035.75		370.213	
72.22283	3060.931		366.9711	
72.27678	3085.773		363.4786	
72.33073	3110.232		359.7421	
72.38467	3134.263		355.7686	
72.43862	3157.824		351.5654	
72.49257	3180.872		347.1405	
72.54652	3203.363		342.502	
72.60046	3225.253		337.6586	
72.65441	3246.506		332.6194	
72.70836	3267.092		327.3939	
72.76231	3286.985		321.9918	
72.81625	3306.174		316.4235	
72.87021	3324.656		310.6986	
72.92416	3342.429		304.8297	
72.9781	3359.501		298.8272	
73.03205	3375.887		292.7025	
73.086	3391.592		286.4677	
73.13995	3406.623		280.1347	
73.19389	3420.993		273.7162	
73.24784	3434.729		267.2249	
73.30179	3447.853		260.6736	
73.35574	3460.384		254.0753	
73.40968	3472.332		247.4434	
73.46363	3483.711		240.7912	
73.51758	3494.534		234.132	
73.57153	3504.828		227.4783	
73.62548	3514.62		220.8452	
73.67943	3523.94		214.2449	
73.73338	3532.813		207.6903	
73.78732	3541.262		201.1939	
73.84127	3549.311		194.768	
73.89522	3556.978		188.4242	
73.94917	3564.284		182.1738	
74.00311	3571.25		176.0272	
74.05706	3577.899		169.9943	
74.11101	3584.259		164.0842	
74.16496	3590.353		158.3049	
74.2189	3596.211		152.664	
74.27285	3601.865		147.168	
74.32681	3607.343		141.8216	
74.38075	3612.661		136.6311	
74.4347	3617.824		131.5997	
74.48865	3622.831		126.7301	
74.54259	3627.675		122.0246	
74.59654	3632.345		117.4843	
74.65049	3636.836		113.1096	
74.70444	3641.147		108.8999	
74.75838	3645.282		104.8543	
74.81233	3649.25		100.9706	
74.86628	3653.072		97.24657	
74.92023	3656.774		93.67895	
74.97417	3660.38		90.26415	
75.02813	3663.911		86.99763	
75.08208	3667.38		83.87581	
75.13602	3670.788		80.8934	
75.18997	3674.131		78.04536	
75.24392	3677.399		75.32645	
75.29787	3680.586		72.73131	
75.35181	3683.687		70.25449	
75.40576	3686.694		67.89056	
75.45971	3689.592		65.63413	
75.51366	3692.368		63.47992	
75.5676	3695.022		61.4228	
75.62155	3697.568		59.45786	
75.6755	3700.029		57.58041	
75.72945	3702.434		55.78595	
75.7834	3704.815		54.0699	
75.83735	3707.191		52.42867	
75.8913	3709.572		50.85808	
75.94524	3711.966		49.35446	
75.99919	3714.373		47.91429	
76.05314	3716.783		46.53423	
76.10709	3719.183		45.21107	
76.16103	3721.559		43.94177	
76.21498	3723.894		42.72337	
76.26893	3726.17		41.55304	
76.32288	3728.374		40.42807	
76.37682	3730.495		39.34582	
76.43077	3732.534		38.30372	
76.48473	3734.498		37.29911	
76.53867	3736.4		36.32981	
76.59262	3738.251		35.39318	
76.64657	3740.064		34.48677	
76.70052	3741.842		33.60812	
76.75446	3743.577		32.75479	
76.80841	3745.259		31.92439	
76.86236	3746.883		31.11465	
76.91631	3748.446		30.32338	
76.97025	3749.945		29.5486	
77.0242	3751.381		28.78842	
77.07815	3752.751		28.04115	
77.1321	3754.04		27.30531	
77.18604	3755.235		26.57963	
77.24	3756.32		25.86296	
77.29395	3757.294		25.15467	
77.34789	3758.167		24.45407	
77.40184	3758.963		23.76074	
77.45579	3759.706		23.07451	
77.50974	3760.423		22.39535	
77.56368	3761.125		21.72342	
77.61763	3761.819		21.05903	
77.67158	3762.518		20.40264	
77.72552	3763.245		19.75482	
77.77947	3764.017		19.11629	
77.83342	3764.844		18.48787	
77.88737	3765.725		17.87048	
77.94132	3766.654		17.26508	
77.99527	3767.611		16.67294	
78.04922	3768.579		16.09507	
78.10316	3769.549		15.53257	
78.15711	3770.519		14.98646	
78.21106	3771.498		14.45769	
78.26501	3772.492		13.94708	
78.31895	3773.5		13.45534	
78.3729	3774.516		12.98302	
78.42685	3775.533		12.53051	
78.4808	3776.541		12.09799	
78.53474	3777.531		11.68546	
78.58869	3778.497		11.29272	
78.64264	3779.432		10.91935	
78.69659	3780.325		10.56471	
78.75054	3781.153		10.22813	
78.80449	3781.89		9.90867	
78.85844	3782.514		9.605378	
78.91238	3783.011		9.317246	
78.96633	3783.378		9.043262	
79.02028	3783.62		8.782413	
79.07423	3783.75		8.533737	
79.12817	3783.787		8.296364	
79.18212	3783.752		8.069547	
79.23607	3783.662		7.852673	
79.29002	3783.521		7.645291	
79.34396	3783.335		7.447132	
79.39792	3783.115		7.25807	
79.45187	3782.876		7.078237	
79.50581	3782.626		6.907835	
79.55976	3782.366		6.747243	
79.61371	3782.096		6.596972	
79.66766	3781.828		6.457667	
79.7216	3781.584		6.330072	
79.77555	3781.389		6.215017	
79.8295	3781.261		6.11339	
79.88345	3781.218		6.026114	
79.93739	3781.278		5.954117	
79.99134	3781.451		5.898322	
80.04529	3781.732		5.85961	
80.09924	3782.098		5.838802	
80.15319	3782.521		5.836614	
80.20714	3782.976		5.853614	
80.26109	3783.441		5.890182	
80.31503	3783.901		5.946519	
80.36898	3784.357		6.022623	
80.42293	3784.82		6.118274	
80.47688	3785.292		6.233006	
80.53082	3785.776		6.366128	
80.58477	3786.266		6.516691	
80.63872	3786.759		6.683496	
80.69267	3787.244		6.865088	
80.74661	3787.716		7.059791	
80.80056	3788.17		7.265725	
80.85452	3788.599		7.480886	
80.90846	3788.992		7.703043	
80.96241	3789.334		7.929951	
81.01636	3789.614		8.159253	
81.0703	3789.83		8.388551	
81.12425	3789.989		8.615427	
81.1782	3790.103		8.837497	
81.23215	3790.188		9.052433	
81.28609	3790.258		9.258037	
81.34004	3790.333		9.452256	
81.39399	3790.443		9.633227	
81.44794	3790.618		9.799288	
81.50188	3790.88		9.949001	
81.55584	3791.24		10.08121	
81.60979	3791.697		10.195	
81.66373	3792.248		10.28982	
81.71768	3792.887		10.36537	
81.77163	3793.603		10.4216	
81.82558	3794.373		10.45868	
81.87952	3795.185		10.47696	
81.93347	3796.037		10.47691	
81.98742	3796.94		10.4591	
82.04137	3797.905		10.42418	
82.09531	3798.933		10.37283	
82.14926	3800.02		10.30575	
82.20321	3801.154		10.22359	
82.25716	3802.317		10.12687	
82.31111	3803.491		10.01606	
82.36506	3804.656		9.891564	
82.41901	3805.799		9.753648	
82.47295	3806.912		9.602455	
82.5269	3807.995		9.438036	
82.58085	3809.049		9.260322	
82.6348	3810.073		9.069134	
82.68874	3811.066		8.864151	
82.74269	3812.025		8.644911	
82.79664	3812.944		8.41077	
82.85059	3813.814		8.160919	
82.90453	3814.626		7.894379	
82.95848	3815.375		7.610075	
83.01244	3816.051		7.306812	
83.06638	3816.656		6.98351	
83.12033	3817.198		6.63893	
83.17428	3817.683		6.271897	
83.22823	3818.114		5.881259	
83.28217	3818.493		5.465965	
83.33612	3818.817		5.025061	
83.39007	3819.081		4.557749	
83.44402	3819.291		4.063398	
83.49796	3819.45		3.541569	
83.55191	3819.564		2.992032	
83.60586	3819.632		2.414793	
83.65981	3819.652		1.810107	
83.71375	3819.619		1.178475	
83.76771	3819.527		0.5205396	
83.82166	3819.37		-0.1625328	
83.8756	3819.153		-0.869639	
83.92955	3818.885		-1.599408	
83.9835	3818.582		-2.350321	
84.03745	3818.255		-3.120737	
84.09139	3817.912		-3.908906	
84.14534	3817.568		-4.713028	
84.19929	3817.248		-5.531287	
84.25323	3816.972		-6.3619	
84.30718	3816.741		-7.203119	
84.36113	3816.552		-8.053255	
84.41508	3816.392		-8.910691	
84.46903	3816.248		-9.774036	
84.52298	3816.098		-10.6416	
84.57693	3815.919		-11.51215	
84.63087	3815.7		-12.38442	
84.68482	3815.44		-13.25728	
84.73877	3815.136		-14.12969	
84.79272	3814.785		-15.00082	
84.84666	3814.385		-15.86993	
84.90061	3813.939		-16.73645	
84.95456	3813.442		-17.59996	
85.00851	3812.885		-18.46015	
85.06245	3812.262		-19.31685	
85.1164	3811.565		-20.17001	
85.17035	3810.772		-21.01966	
85.2243	3809.869		-21.866	
85.27825	3808.845		-22.70893	
85.3322	3807.687		-23.54875	
85.38615	3806.38		-24.38562	
85.44009	3804.912		-25.21975	
85.49404	3803.286		-26.05129	
85.54799	3801.525		-26.8804	
85.60194	3799.657		-27.70716	
85.65588	3797.708		-28.5316	
85.70983	3795.697		-29.35367	
85.76378	3793.642		-30.17328	
85.81773	3791.558		-30.99025	
85.87167	3789.464		-31.80433	
85.92563	3787.363		-32.61529	
85.97958	3785.257		-33.42244	
86.03352	3783.135		-34.22539	
86.08747	3780.988		-35.0235	
86.14142	3778.807		-35.81607	
86.19537	3776.595		-36.60232	
86.24931	3774.344		-37.38143	
86.30326	3772.049		-38.15253	
86.35721	3769.706		-38.91478	
86.41116	3767.329		-39.66736	
86.4651	3764.928		-40.40951	
86.51905	3762.514		-41.14054	
86.573	3760.09		-41.85986	
86.62695	3757.661		-42.56695	
86.6809	3755.229		-43.26155	
86.73485	3752.796		-43.94321	
86.7888	3750.354		-44.61183	
86.84274	3747.895		-45.26731	
86.89669	3745.406		-45.90965	
86.95064	3742.878		-46.53889	
87.00459	3740.301		-47.15524	
87.05853	3737.672		-47.75897	
87.11248	3734.99		-48.35044	
87.16643	3732.259		-48.93011	
87.22038	3729.478		-49.4985	
87.27432	3726.655		-50.05615	
87.32827	3723.804		-50.60362	
87.38223	3720.938		-51.14159	
87.43617	3718.07		-51.6705	
87.49012	3715.211		-52.19103	
87.54407	3712.368		-52.70377	
87.59801	3709.535		-53.20924	
87.65196	3706.701		-53.70796	
87.70591	3703.858		-54.20034	
87.75986	3700.996		-54.68678	
87.8138	3698.114		-55.16758	
87.86775	3695.209		-55.64299	
87.9217	3692.271		-56.11313	
87.97565	3689.291		-56.57802	
88.02959	3686.265		-57.03759	
88.08354	3683.197		-57.49167	
88.1375	3680.094		-57.94006	
88.19144	3676.973		-58.38221	
88.24539	3673.846		-58.81767	
88.29934	3670.714		-59.24584	
88.35329	3667.568		-59.66603	
88.40723	3664.397		-60.07753	
88.46118	3661.199		-60.47961	
88.51513	3657.977		-60.87155	
88.56908	3654.73		-61.25262	
88.62302	3651.453		-61.62216	
88.67697	3648.141		-61.97957	
88.73092	3644.791		-62.32431	
88.78487	3641.397		-62.65594	
88.83882	3637.958		-62.97414	
88.89277	3634.475		-63.27858	
88.94672	3630.95		-63.56918	
89.00066	3627.386		-63.84595	
89.05461	3623.796		-64.109	
89.10856	3620.183		-64.35854	
89.16251	3616.552		-64.59491	
89.21645	3612.896		-64.81855	
89.2704	3609.211		-65.02998	
89.32435	3605.488		-65.22983	
89.3783	3601.731		-65.41872	
89.43224	3597.935		-65.59732	
89.48619	3594.098		-65.76635	
89.54014	3590.214		-65.92648	
89.59409	3586.287		-66.07841	
89.64804	3582.321		-66.22277	
89.70199	3578.324		-66.36025	
89.75594	3574.307		-66.49154	
89.80988	3570.287		-66.61734	
89.86383	3566.276		-66.73839	
89.91778	3562.285		-66.85542	
89.97173	3558.313		-66.96921	
90.02567	3554.365		-67.08047	
90.07962	3550.435		-67.18997	
90.13357	3546.53		-67.29838	
90.18752	3542.654		-67.40633	
90.24146	3538.812		-67.51439	
90.29542	3535.001		-67.62305	
90.34937	3531.217		-67.73268	
90.40331	3527.455		-67.8436	
90.45726	3523.724		-67.95605	
90.51121	3520.029		-68.07019	
90.56516	3516.375		-68.18614	
90.6191	3512.763		-68.30399	
90.67305	3509.202		-68.42378	
90.727	3505.696		-68.5455	
90.78094	3502.246		-68.66908	
90.83489	3498.857		-68.79442	
90.88884	3495.523		-68.92135	
90.94279	3492.231		-69.04967	
90.99674	3488.963		-69.17921	
91.05069	3485.702		-69.30978	
91.10464	3482.433		-69.44126	
91.15858	3479.144		-69.57359	
91.21253	3475.826		-69.70676	
91.26648	3472.473		-69.84084	
91.32043	3469.089		-69.97592	
91.37437	3465.676		-70.11213	
91.42832	3462.231		-70.24958	
91.48227	3458.762		-70.3884	
91.53622	3455.273		-70.52873	
91.59016	3451.769		-70.67072	
91.64411	3448.249		-70.81449	
91.69806	3444.706		-70.96017	
91.75201	3441.127		-71.10789	
91.80596	3437.496		-71.25768	
91.85991	3433.801		-71.40965	
91.91386	3430.036		-71.56381	
91.9678	3426.203		-71.72021	
92.02175	3422.309		-71.87881	
92.0757	3418.362		-72.03954	
92.12965	3414.373		-72.20232	
92.18359	3410.353		-72.367	
92.23754	3406.301		-72.53342	
92.29149	3402.207		-72.70138	
92.34544	3398.064		-72.87057	
92.39938	3393.869		-73.04069	
92.45334	3389.625		-73.15341	
92.50729	3385.335		-73.25707	
92.56123	3381.005		-73.35505	
92.61518	3376.636		-73.45024	
92.66913	3372.231		-73.54463	
92.72308	3367.795		-73.63933	
92.77702	3363.343		-73.73483	
92.83097	3358.895		-73.83127	
92.88492	3354.478		-73.92856	
92.93887	3350.1		-74.02648	
92.99281	3345.762		-74.12479	
93.04676	3341.451		-74.22323	
93.10071	3337.159		-74.32152	
93.15466	3332.875		-74.4194	
93.20861	3328.595		-74.51667	
93.26256	3324.316		-74.61307	
93.31651	3320.046		-74.7084	
93.37045	3315.79		-74.80251	
93.4244	3311.562		-74.89522	
93.47835	3307.374		-74.98637	
93.5323	3303.24		-75.07587	
93.58624	3299.166		-75.16358	
93.64019	3295.149		-75.24941	
93.69414	3291.188		-75.33327	
93.74809	3287.271		-75.41508	
93.80203	3283.374		-75.49479	
93.85598	3279.488		-75.57231	
93.90993	3275.602		-75.64761	
93.96388	3271.709		-75.72061	
94.01783	3267.796		-75.7913	
94.07178	3263.755		-75.85964	
94.12572	3259.666		-75.92562	
94.17967	3255.546		-75.98921	
94.23362	3251.414		-76.05042	
94.28757	3247.275		-76.10925	
94.34151	3243.133		-76.1657	
94.39546	3238.987		-76.21978	
94.44941	3234.837		-76.27151	
94.50336	3230.682		-76.32091	
94.5573	3226.521		-76.36802	
94.61125	3222.354		-76.41286	
94.66521	3218.18		-76.45548	
94.71915	3214.002		-76.49592	
94.7731	3209.818		-76.53421	
94.82705	3205.63		-76.57043	
94.881	3201.435		-76.60461	
94.93494	3197.233		-76.63683	
94.98889	3193.023		-76.66714	
