T[Â°C]	350nm [counts / mm]	S.D.	First derivative	S.D. of first derivative
20.00043	2780.053		-40.79638	
20.05438	2778.164		-40.76973	
20.10833	2776.27		-40.74237	
20.16228	2774.371		-40.71431	
20.21623	2772.466		-40.68551	
20.27018	2770.557		-40.65598	
20.32413	2768.642		-40.62569	
20.37808	2766.721		-40.59465	
20.43203	2764.795		-40.56284	
20.48598	2762.865		-40.53027	
20.53993	2760.929		-40.49694	
20.59388	2758.99		-40.46284	
20.64783	2757.045		-40.428	
20.70178	2755.095		-40.3924	
20.75573	2753.14		-40.35607	
20.80968	2751.177		-40.31903	
20.86363	2749.207		-40.28128	
20.91758	2747.222		-40.24285	
20.97153	2745.208		-40.20376	
21.02547	2743.039		-40.16405	
21.07942	2740.836		-40.12373	
21.13337	2738.598		-40.08286	
21.18732	2736.327		-40.04145	
21.24127	2734.031		-39.99954	
21.29522	2731.72		-39.95718	
21.34917	2729.406		-39.9144	
21.40312	2727.1		-39.87124	
21.45707	2724.808		-39.82775	
21.51102	2722.527		-39.78396	
21.56497	2720.251		-39.73993	
21.61892	2717.983		-39.69569	
21.67287	2715.728		-39.6513	
21.72682	2713.484		-39.6068	
21.78077	2711.25		-39.56224	
21.83472	2709.027		-39.51768	
21.88867	2706.818		-39.47315	
21.94262	2704.625		-39.42872	
21.99657	2702.449		-39.38442	
22.05052	2700.294		-39.34029	
22.10447	2698.164		-39.29636	
22.15842	2696.054		-39.25266	
22.21237	2693.956		-39.20914	
22.26632	2691.861		-39.16573	
22.32026	2689.765		-39.12225	
22.37421	2687.664		-39.07835	
22.42816	2685.55		-39.03345	
22.48211	2683.419		-38.98668	
22.53606	2681.266		-38.93682	
22.59001	2679.089		-38.88261	
22.64396	2676.89		-38.82651	
22.69791	2674.673		-38.77251	
22.75186	2672.446		-38.72078	
22.80581	2670.221		-38.67142	
22.85976	2668.008		-38.6245	
22.91371	2665.816		-38.58003	
22.96766	2663.646		-38.53799	
23.02161	2661.5		-38.4983	
23.07556	2659.381		-38.46083	
23.12951	2657.292		-38.42543	
23.18346	2655.237		-38.39196	
23.23741	2653.219		-38.36028	
23.29136	2651.237		-38.33027	
23.34531	2649.286		-38.30182	
23.39926	2647.366		-38.27487	
23.45321	2645.481		-38.24936	
23.50716	2643.631		-38.22526	
23.56111	2641.816		-38.20259	
23.61506	2640.036		-38.18135	
23.669	2638.289		-38.16159	
23.72295	2636.564		-38.14334	
23.7769	2634.846		-38.12663	
23.83085	2633.111		-38.11147	
23.8848	2631.339		-38.09787	
23.93875	2629.518		-38.08578	
23.9927	2627.642		-38.07518	
24.04665	2625.712		-38.06601	
24.1006	2623.731		-38.05824	
24.15455	2621.705		-38.05187	
24.2085	2619.643		-38.04689	
24.26245	2617.553		-38.04332	
24.3164	2615.445		-38.04115	
24.37035	2613.333		-38.0404	
24.4243	2611.221		-38.0411	
24.47825	2609.107		-38.0433	
24.5322	2606.985		-38.04707	
24.58615	2604.848		-38.05247	
24.6401	2602.689		-38.05956	
24.69405	2600.504		-38.06834	
24.748	2598.291		-38.07879	
24.80194	2596.054		-38.09081	
24.8559	2593.803		-38.10428	
24.90985	2591.55		-38.11903	
24.96379	2589.305		-38.13486	
25.01774	2587.075		-38.15149	
25.07169	2584.864		-38.16865	
25.12564	2582.677		-38.18598	
25.17959	2580.523		-38.20315	
25.23354	2578.406		-38.2198	
25.28749	2576.323		-38.23557	
25.34144	2574.27		-38.25011	
25.39539	2572.235		-38.26307	
25.44934	2570.205		-38.27406	
25.50329	2568.165		-38.28277	
25.55724	2566.111		-38.28888	
25.61119	2564.043		-38.29216	
25.66514	2561.962		-38.29243	
25.71909	2559.867		-38.28959	
25.77304	2557.758		-38.2836	
25.82699	2555.636		-38.27444	
25.88094	2553.505		-38.26218	
25.93489	2551.376		-38.24688	
25.98884	2549.261		-38.22867	
26.04279	2547.17		-38.20771	
26.09674	2545.105		-38.18418	
26.15068	2543.061		-38.15828	
26.20463	2541.029		-38.13019	
26.25858	2538.998		-38.10014	
26.31253	2536.958		-38.06834	
26.36648	2534.91		-38.03506	
26.42043	2532.862		-38.00059	
26.47438	2530.826		-37.96527	
26.52833	2528.807		-37.92946	
26.58228	2526.808		-37.89353	
26.63623	2524.822		-37.85786	
26.69018	2522.841		-37.82277	
26.74413	2520.86		-37.78862	
26.79808	2518.875		-37.75568	
26.85203	2516.886		-37.72423	
26.90598	2514.893		-37.69453	
26.95993	2512.897		-37.66678	
27.01388	2510.898		-37.64115	
27.06783	2508.9		-37.61776	
27.12178	2506.901		-37.59666	
27.17573	2504.902		-37.57788	
27.22968	2502.903		-37.56136	
27.28363	2500.909		-37.54702	
27.33758	2498.925		-37.53477	
27.39153	2496.95		-37.52445	
27.44547	2494.978		-37.51591	
27.49942	2493.004		-37.50898	
27.55337	2491.027		-37.50348	
27.60732	2489.048		-37.49926	
27.66127	2487.068		-37.49617	
27.71522	2485.09		-37.49414	
27.76917	2483.109		-37.49305	
27.82312	2481.117		-37.49284	
27.87707	2479.105		-37.49342	
27.93102	2477.072		-37.49469	
27.98497	2475.023		-37.49652	
28.03892	2472.964		-37.49881	
28.09287	2470.903		-37.50141	
28.14682	2468.845		-37.50418	
28.20077	2466.795		-37.50693	
28.25472	2464.756		-37.50945	
28.30867	2462.724		-37.51146	
28.36262	2460.697		-37.5127	
28.41657	2458.67		-37.51287	
28.47052	2456.647		-37.51173	
28.52447	2454.626		-37.50903	
28.57842	2452.605		-37.50455	
28.63237	2450.579		-37.49809	
28.68632	2448.545		-37.4895	
28.74026	2446.508		-37.47865	
28.79421	2444.47		-37.46545	
28.84816	2442.427		-37.44989	
28.90211	2440.375		-37.43198	
28.95606	2438.309		-37.41179	
29.01001	2436.23		-37.38941	
29.06396	2434.142		-37.36495	
29.11791	2432.053		-37.3385	
29.17186	2429.969		-37.31012	
29.22581	2427.896		-37.27987	
29.27976	2425.841		-37.2478	
29.33371	2423.809		-37.21398	
29.38766	2421.798		-37.17847	
29.44161	2419.802		-37.14136	
29.49556	2417.806		-37.10271	
29.54951	2415.798		-37.0626	
29.60346	2413.774		-37.02115	
29.65741	2411.732		-36.97849	
29.71136	2409.671		-36.9348	
29.76531	2407.596		-36.89025	
29.81926	2405.513		-36.84506	
29.87321	2403.427		-36.7994	
29.92716	2401.344		-36.75344	
29.98111	2399.276		-36.70732	
30.03506	2397.229		-36.66116	
30.089	2395.207		-36.61508	
30.14295	2393.205		-36.56923	
30.1969	2391.219		-36.52377	
30.25085	2389.243		-36.47879	
30.3048	2387.273		-36.43438	
30.35875	2385.307		-36.39061	
30.4127	2383.345		-36.34755	
30.46665	2381.394		-36.30527	
30.5206	2379.46		-36.26391	
30.57455	2377.545		-36.22361	
30.6285	2375.645		-36.18455	
30.68245	2373.756		-36.14698	
30.7364	2371.877		-36.11116	
30.79035	2370.008		-36.0774	
30.8443	2368.155		-36.04603	
30.89825	2366.324		-36.01738	
30.9522	2364.515		-35.99178	
31.00615	2362.717		-35.96956	
31.0601	2360.923		-35.95103	
31.11405	2359.122		-35.93642	
31.168	2357.302		-35.92591	
31.22194	2355.453		-35.91961	
31.2759	2353.575		-35.91759	
31.32985	2351.669		-35.91987	
31.38379	2349.745		-35.92638	
31.43774	2347.815		-35.93697	
31.49169	2345.886		-35.95148	
31.54564	2343.964		-35.96964	
31.59959	2342.048		-35.99119	
31.65354	2340.135		-36.01581	
31.70749	2338.229		-36.04319	
31.76144	2336.333		-36.07296	
31.81539	2334.44		-36.10476	
31.86934	2332.54		-36.13816	
31.92329	2330.622		-36.17271	
31.97724	2328.684		-36.20789	
32.03119	2326.73		-36.24313	
32.08514	2324.77		-36.27787	
32.13909	2322.809		-36.31156	
32.19304	2320.847		-36.34367	
32.24699	2318.885		-36.3737	
32.30094	2316.929		-36.40115	
32.35489	2314.982		-36.42556	
32.40884	2313.047		-36.44652	
32.46279	2311.128		-36.46362	
32.51674	2309.233		-36.47655	
32.57069	2307.368		-36.48507	
32.62463	2305.528		-36.48901	
32.67859	2303.693		-36.48832	
32.73253	2301.839		-36.483	
32.78648	2299.948		-36.47316	
32.84043	2298.017		-36.45897	
32.89438	2296.045		-36.44069	
32.94833	2294.031		-36.41866	
33.00228	2291.973		-36.39331	
33.05623	2289.875		-36.36513	
33.11018	2287.739		-36.33464	
33.16413	2285.568		-36.30238	
33.21808	2283.372		-36.26888	
33.27203	2281.155		-36.23464	
33.32598	2278.924		-36.20017	
33.37993	2276.688		-36.16587	
33.43388	2274.463		-36.13209	
33.48783	2272.259		-36.09912	
33.54178	2270.073		-36.06714	
33.59573	2267.897		-36.03627	
33.64968	2265.729		-36.00658	
33.70362	2263.577		-35.97808	
33.75758	2261.446		-35.95073	
33.81153	2259.334		-35.92448	
33.86547	2257.242		-35.89922	
33.91943	2255.171		-35.8748	
33.97337	2253.127		-35.85103	
34.02732	2251.121		-35.82768	
34.08127	2249.163		-35.8045	
34.13522	2247.261		-35.78122	
34.18917	2245.419		-35.7576	
34.24312	2243.63		-35.7334	
34.29707	2241.884		-35.70843	
34.35102	2240.171		-35.68246	
34.40497	2238.482		-35.6553	
34.45892	2236.813		-35.62675	
34.51287	2235.162		-35.59668	
34.56682	2233.537		-35.56499	
34.62077	2231.934		-35.53167	
34.67472	2230.341		-35.49673	
34.72867	2228.738		-35.4603	
34.78262	2227.111		-35.42251	
34.83657	2225.45		-35.38362	
34.89052	2223.75		-35.34395	
34.94447	2222.013		-35.30389	
34.99842	2220.246		-35.26394	
35.05236	2218.462		-35.22461	
35.10632	2216.666		-35.18649	
35.16026	2214.861		-35.15011	
35.21421	2213.041		-35.11601	
35.26817	2211.199		-35.08469	
35.32211	2209.331		-35.0566	
35.37606	2207.44		-35.03217	
35.43001	2205.529		-35.01174	
35.48396	2203.598		-34.99554	
35.53791	2201.638		-34.98373	
35.59186	2199.645		-34.97631	
35.64581	2197.617		-34.97321	
35.69976	2195.562		-34.97427	
35.75371	2193.488		-34.97921	
35.80766	2191.404		-34.98767	
35.86161	2189.316		-34.99922	
35.91556	2187.235		-35.01338	
35.96951	2185.168		-35.0296	
36.02346	2183.123		-35.04729	
36.07741	2181.104		-35.06583	
36.13136	2179.116		-35.0846	
36.18531	2177.159		-35.10295	
36.23926	2175.23		-35.1203	
36.29321	2173.322		-35.13604	
36.34716	2171.428		-35.1496	
36.4011	2169.537		-35.1604	
36.45506	2167.642		-35.16792	
36.509	2165.743		-35.17166	
36.56295	2163.843		-35.17123	
36.61691	2161.947		-35.16631	
36.67085	2160.063		-35.15665	
36.7248	2158.193		-35.14211	
36.77875	2156.335		-35.12264	
36.8327	2154.484		-35.09828	
36.88665	2152.639		-35.06918	
36.9406	2150.798		-35.0356	
36.99455	2148.962		-34.99791	
37.0485	2147.125		-34.95652	
37.10245	2145.277		-34.91192	
37.1564	2143.408		-34.86463	
37.21035	2141.503		-34.81514	
37.2643	2139.555		-34.76397	
37.31825	2137.563		-34.71164	
37.3722	2135.541		-34.65865	
37.42615	2133.504		-34.60551	
37.48009	2131.467		-34.55275	
37.53405	2129.444		-34.50083	
37.588	2127.448		-34.45024	
37.64194	2125.485		-34.40141	
37.6959	2123.557		-34.3547	
37.74984	2121.667		-34.31042	
37.80379	2119.811		-34.26882	
37.85774	2117.982		-34.2301	
37.91169	2116.174		-34.19441	
37.96564	2114.382		-34.1618	
38.01959	2112.6		-34.13225	
38.07354	2110.825		-34.10569	
38.12749	2109.057		-34.08196	
38.18144	2107.291		-34.06089	
38.23539	2105.527		-34.04228	
38.28934	2103.763		-34.02588	
38.34329	2102.004		-34.01142	
38.39724	2100.256		-33.99862	
38.45119	2098.526		-33.98715	
38.50514	2096.821		-33.97673	
38.55909	2095.145		-33.96705	
38.61304	2093.494		-33.95783	
38.66699	2091.86		-33.9488	
38.72094	2090.229		-33.93972	
38.77489	2088.587		-33.93036	
38.82883	2086.916		-33.92056	
38.88279	2085.204		-33.91018	
38.93674	2083.449		-33.89914	
38.99068	2081.658		-33.88743	
39.04464	2079.842		-33.87506	
39.09858	2078.01		-33.86211	
39.15253	2076.166		-33.84865	
39.20648	2074.315		-33.83479	
39.26043	2072.463		-33.8206	
39.31438	2070.612		-33.80619	
39.36833	2068.764		-33.79167	
39.42228	2066.917		-33.77715	
39.47623	2065.067		-33.76277	
39.53018	2063.206		-33.74868	
39.58413	2061.336		-33.735	
39.63808	2059.455		-33.72183	
39.69203	2057.564		-33.70926	
39.74598	2055.661		-33.69735	
39.79993	2053.748		-33.68613	
39.85388	2051.831		-33.67566	
39.90783	2049.917		-33.66602	
39.96178	2048.008		-33.65722	
40.01573	2046.104		-33.6493	
40.06968	2044.205		-33.64225	
40.12363	2042.309		-33.63605	
40.17757	2040.417		-33.63065	
40.23153	2038.525		-33.62601	
40.28548	2036.635		-33.62205	
40.33942	2034.747		-33.61867	
40.39338	2032.857		-33.61575	
40.44732	2030.958		-33.61311	
40.50127	2029.054		-33.61055	
40.55522	2027.151		-33.60783	
40.60917	2025.253		-33.60469	
40.66312	2023.365		-33.60083	
40.71707	2021.49		-33.59598	
40.77102	2019.629		-33.58988	
40.82497	2017.785		-33.58231	
40.87892	2015.957		-33.57314	
40.93287	2014.15		-33.56227	
40.98682	2012.368		-33.54968	
41.04077	2010.615		-33.53542	
41.09472	2008.887		-33.51961	
41.14867	2007.18		-33.50239	
41.20262	2005.49		-33.48396	
41.25657	2003.812		-33.4645	
41.31052	2002.139		-33.44422	
41.36447	2000.468		-33.42334	
41.41842	1998.797		-33.40211	
41.47237	1997.125		-33.3808	
41.52631	1995.452		-33.35965	
41.58027	1993.778		-33.33889	
41.63422	1992.102		-33.3187	
41.68816	1990.416		-33.29924	
41.74212	1988.716		-33.28061	
41.79606	1987		-33.26294	
41.85001	1985.271		-33.2463	
41.90396	1983.528		-33.2308	
41.95791	1981.773		-33.21645	
42.01186	1980.003		-33.20329	
42.06581	1978.221		-33.19133	
42.11976	1976.423		-33.18055	
42.17371	1974.608		-33.17099	
42.22766	1972.774		-33.16266	
42.28161	1970.924		-33.15559	
42.33556	1969.06		-33.14978	
42.38951	1967.184		-33.14521	
42.44346	1965.299		-33.14182	
42.49741	1963.41		-33.1395	
42.55136	1961.529		-33.13801	
42.60531	1959.664		-33.13708	
42.65926	1957.82		-33.13633	
42.71321	1955.995		-33.13536	
42.76715	1954.184		-33.13371	
42.82111	1952.378		-33.13092	
42.87505	1950.571		-33.12649	
42.929	1948.761		-33.11993	
42.98295	1946.949		-33.11076	
43.0369	1945.14		-33.09858	
43.09085	1943.341		-33.083	
43.1448	1941.56		-33.06373	
43.19875	1939.799		-33.0405	
43.2527	1938.054		-33.01311	
43.30665	1936.32		-32.98143	
43.3606	1934.585		-32.94539	
43.41455	1932.842		-32.90501	
43.4685	1931.083		-32.86039	
43.52245	1929.303		-32.81171	
43.5764	1927.501		-32.75923	
43.63035	1925.671		-32.70324	
43.6843	1923.811		-32.64405	
43.73825	1921.928		-32.58206	
43.7922	1920.04		-32.51765	
43.84615	1918.164		-32.45126	
43.9001	1916.312		-32.3833	
43.95405	1914.481		-32.3142	
44.008	1912.665		-32.24438	
44.06195	1910.856		-32.17426	
44.11589	1909.049		-32.10427	
44.16985	1907.246		-32.03485	
44.22379	1905.446		-31.96646	
44.27774	1903.647		-31.89955	
44.33169	1901.846		-31.83458	
44.38564	1900.042		-31.772	
44.43959	1898.237		-31.71224	
44.49354	1896.438		-31.65573	
44.54749	1894.657		-31.60286	
44.60144	1892.906		-31.554	
44.65539	1891.193		-31.50948	
44.70934	1889.518		-31.46957	
44.76329	1887.874		-31.43447	
44.81724	1886.258		-31.40429	
44.87119	1884.665		-31.37905	
44.92514	1883.087		-31.35869	
44.97909	1881.514		-31.34303	
45.03304	1879.94		-31.33187	
45.08699	1878.362		-31.32495	
45.14094	1876.78		-31.32194	
45.19489	1875.197		-31.32249	
45.24884	1873.616		-31.32624	
45.30278	1872.04		-31.33284	
45.35674	1870.474		-31.34194	
45.41069	1868.922		-31.35323	
45.46463	1867.396		-31.36645	
45.51859	1865.9		-31.38137	
45.57253	1864.426		-31.3978	
45.62648	1862.958		-31.41558	
45.68043	1861.483		-31.43456	
45.73438	1859.991		-31.4546	
45.78833	1858.475		-31.47557	
45.84228	1856.937		-31.49732	
45.89623	1855.377		-31.51971	
45.95018	1853.799		-31.54258	
46.00413	1852.206		-31.56575	
46.05808	1850.6		-31.58907	
46.11203	1848.982		-31.61237	
46.16598	1847.353		-31.63546	
46.21993	1845.714		-31.65817	
46.27388	1844.058		-31.68029	
46.32783	1842.379		-31.70162	
46.38178	1840.668		-31.72199	
46.43573	1838.915		-31.74121	
46.48968	1837.117		-31.7591	
46.54362	1835.279		-31.7755	
46.59758	1833.411		-31.79027	
46.65152	1831.521		-31.80328	
46.70547	1829.61		-31.81442	
46.75943	1827.684		-31.8236	
46.81337	1825.749		-31.83066	
46.86732	1823.817		-31.83547	
46.92127	1821.891		-31.83788	
46.97522	1819.97		-31.83778	
47.02917	1818.053		-31.83502	
47.08312	1816.139		-31.82951	
47.13707	1814.226		-31.8211	
47.19102	1812.315		-31.8096	
47.24497	1810.409		-31.79482	
47.29892	1808.513		-31.77657	
47.35287	1806.627		-31.75469	
47.40682	1804.759		-31.72906	
47.46077	1802.913		-31.69958	
47.51472	1801.092		-31.66626	
47.56867	1799.293		-31.62911	
47.62262	1797.51		-31.58825	
47.67657	1795.744		-31.54382	
47.73052	1793.995		-31.49601	
47.78447	1792.263		-31.44506	
47.83842	1790.537		-31.39123	
47.89236	1788.81		-31.33483	
47.94632	1787.083		-31.27617	
48.00026	1785.361		-31.21561	
48.05421	1783.649		-31.15353	
48.10817	1781.954		-31.09031	
48.16211	1780.283		-31.02637	
48.21606	1778.642		-30.96213	
48.27001	1777.031		-30.89804	
48.32396	1775.449		-30.83457	
48.37791	1773.891		-30.77223	
48.43186	1772.356		-30.71151	
48.48581	1770.845		-30.65287	
48.53976	1769.354		-30.59676	
48.59371	1767.875		-30.54358	
48.64766	1766.395		-30.49368	
48.70161	1764.903		-30.44738	
48.75556	1763.396		-30.40491	
48.80951	1761.878		-30.36647	
48.86346	1760.356		-30.3322	
48.91741	1758.835		-30.30217	
48.97136	1757.317		-30.27645	
49.02531	1755.804		-30.25505	
49.07926	1754.297		-30.23792	
49.13321	1752.794		-30.22497	
49.18716	1751.293		-30.21604	
49.2411	1749.79		-30.2109	
49.29506	1748.281		-30.20929	
49.349	1746.766		-30.21087	
49.40295	1745.247		-30.21528	
49.45691	1743.727		-30.22213	
49.51085	1742.205		-30.23096	
49.5648	1740.673		-30.2413	
49.61875	1739.123		-30.25265	
49.6727	1737.558		-30.2645	
49.72665	1735.986		-30.27633	
49.7806	1734.41		-30.28765	
49.83455	1732.828		-30.29799	
49.8885	1731.234		-30.30691	
49.94245	1729.628		-30.31402	
49.9964	1728.004		-30.31893	
50.05035	1726.357		-30.32131	
50.1043	1724.685		-30.32081	
50.15825	1722.991		-30.31715	
50.2122	1721.277		-30.31009	
50.26615	1719.549		-30.29944	
50.3201	1717.807		-30.28509	
50.37405	1716.053		-30.26695	
50.428	1714.29		-30.24501	
50.48195	1712.518		-30.21933	
50.5359	1710.741		-30.18998	
50.58984	1708.958		-30.15711	
50.6438	1707.166		-30.12087	
50.69774	1705.365		-30.08145	
50.75169	1703.549		-30.03905	
50.80564	1701.722		-29.99389	
50.85959	1699.885		-29.94617	
50.91354	1698.04		-29.89612	
50.96749	1696.185		-29.84397	
51.02144	1694.325		-29.78995	
51.07539	1692.47		-29.7343	
51.12934	1690.629		-29.67724	
51.18329	1688.811		-29.61901	
51.23724	1687.022		-29.55986	
51.29119	1685.264		-29.50008	
51.34514	1683.541		-29.43998	
51.39909	1681.858		-29.37989	
51.45304	1680.218		-29.32013	
51.50699	1678.619		-29.261	
51.56094	1677.054		-29.20281	
51.61489	1675.514		-29.14586	
51.66883	1673.991		-29.0904	
51.72279	1672.481		-29.0367	
51.77674	1670.98		-28.98497	
51.83068	1669.487		-28.93543	
51.88464	1668.008		-28.88827	
51.93858	1666.551		-28.84365	
51.99253	1665.123		-28.80171	
52.04648	1663.73		-28.76255	
52.10043	1662.372		-28.72623	
52.15438	1661.046		-28.69278	
52.20833	1659.747		-28.6622	
52.26228	1658.474		-28.63452	
52.31623	1657.219		-28.60968	
52.37018	1655.973		-28.58764	
52.42413	1654.723		-28.56831	
52.47808	1653.456		-28.55161	
52.53203	1652.164		-28.53745	
52.58598	1650.844		-28.52571	
52.63993	1649.496		-28.51629	
52.69388	1648.122		-28.50912	
52.74783	1646.728		-28.50413	
52.80178	1645.321		-28.50126	
52.85573	1643.902		-28.50047	
52.90968	1642.476		-28.5017	
52.96363	1641.043		-28.50489	
53.01757	1639.604		-28.50997	
53.07153	1638.161		-28.51687	
53.12548	1636.714		-28.52548	
53.17942	1635.255		-28.53566	
53.23338	1633.779		-28.54725	
53.28732	1632.279		-28.5601	
53.34127	1630.75		-28.57403	
53.39522	1629.188		-28.58886	
53.44917	1627.596		-28.60441	
53.50312	1625.975		-28.62053	
53.55707	1624.327		-28.63707	
53.61102	1622.657		-28.65392	
53.66497	1620.972		-28.67099	
53.71892	1619.28		-28.68821	
53.77287	1617.581		-28.70554	
53.82682	1615.874		-28.72294	
53.88077	1614.152		-28.74042	
53.93472	1612.409		-28.75795	
53.98867	1610.641		-28.77554	
54.04262	1608.847		-28.79316	
54.09657	1607.028		-28.81075	
54.15052	1605.187		-28.82823	
54.20447	1603.337		-28.84552	
54.25842	1601.49		-28.86247	
54.31237	1599.66		-28.87893	
54.36631	1597.857		-28.89469	
54.42027	1596.088		-28.90952	
54.47421	1594.356		-28.92316	
54.52816	1592.66		-28.93535	
54.58212	1590.998		-28.94578	
54.63606	1589.366		-28.95415	
54.69001	1587.759		-28.96015	
54.74396	1586.176		-28.9635	
54.79791	1584.617		-28.9639	
54.85186	1583.079		-28.96109	
54.90581	1581.566		-28.95486	
54.95976	1580.075		-28.94499	
55.01371	1578.607		-28.9313	
55.06766	1577.162		-28.91368	
55.12161	1575.745		-28.89202	
55.17556	1574.359		-28.86625	
55.22951	1573.005		-28.83632	
55.28346	1571.674		-28.80223	
55.33741	1570.359		-28.76398	
55.39136	1569.052		-28.72163	
55.44531	1567.747		-28.67525	
55.49926	1566.434		-28.62498	
55.55321	1565.101		-28.57096	
55.60715	1563.739		-28.51342	
55.66111	1562.344		-28.45265	
55.71505	1560.918		-28.38898	
55.769	1559.466		-28.3228	
55.82295	1557.996		-28.25459	
55.8769	1556.517		-28.18483	
55.93085	1555.035		-28.11411	
55.9848	1553.554		-28.04301	
56.03875	1552.073		-27.97212	
56.0927	1550.59		-27.90205	
56.14665	1549.1		-27.83335	
56.2006	1547.6		-27.76661	
56.25455	1546.082		-27.70229	
56.3085	1544.538		-27.64087	
56.36245	1542.964		-27.58269	
56.4164	1541.359		-27.52806	
56.47035	1539.725		-27.47719	
56.5243	1538.066		-27.43021	
56.57825	1536.389		-27.38719	
56.6322	1534.704		-27.34809	
56.68615	1533.016		-27.31281	
56.7401	1531.331		-27.28118	
56.79404	1529.654		-27.25299	
56.848	1527.991		-27.22794	
56.90195	1526.348		-27.20577	
56.95589	1524.727		-27.18612	
57.00985	1523.127		-27.16863	
57.06379	1521.548		-27.15289	
57.11774	1519.987		-27.13844	
57.17169	1518.445		-27.12479	
57.22564	1516.923		-27.11145	
57.27959	1515.426		-27.09794	
57.33354	1513.952		-27.08378	
57.38749	1512.504		-27.06856	
57.44144	1511.081		-27.05189	
57.49539	1509.682		-27.03345	
57.54934	1508.309		-27.01296	
57.60329	1506.963		-26.99022	
57.65724	1505.645		-26.96506	
57.71119	1504.359		-26.93742	
57.76514	1503.102		-26.90725	
57.81909	1501.868		-26.8746	
57.87304	1500.644		-26.83954	
57.92699	1499.417		-26.80221	
57.98094	1498.18		-26.76279	
58.03489	1496.925		-26.72154	
58.08884	1495.647		-26.67872	
58.14278	1494.345		-26.63463	
58.19674	1493.018		-26.58957	
58.25069	1491.663		-26.54388	
58.30463	1490.282		-26.49789	
58.35859	1488.877		-26.45192	
58.41253	1487.453		-26.40631	
58.46648	1486.014		-26.36136	
58.52043	1484.562		-26.31737	
58.57438	1483.1		-26.27459	
58.62833	1481.633		-26.23325	
58.68228	1480.164		-26.1935	
58.73623	1478.691		-26.15544	
58.79018	1477.214		-26.11913	
58.84413	1475.732		-26.08455	
58.89808	1474.248		-26.05169	
58.95203	1472.762		-26.02045	
59.00598	1471.278		-25.99066	
59.05993	1469.795		-25.96211	
59.11388	1468.315		-25.93455	
59.16783	1466.842		-25.90769	
59.22178	1465.378		-25.88124	
59.27573	1463.928		-25.85486	
59.32968	1462.495		-25.82827	
59.38363	1461.078		-25.80118	
59.43758	1459.667		-25.77336	
59.49152	1458.251		-25.74463	
59.54548	1456.828		-25.71483	
59.59943	1455.401		-25.68385	
59.65337	1453.974		-25.65161	
59.70732	1452.554		-25.61811	
59.76127	1451.15		-25.58337	
59.81522	1449.765		-25.54742	
59.86917	1448.394		-25.51033	
59.92312	1447.033		-25.47219	
59.97707	1445.674		-25.43306	
60.03102	1444.309		-25.39302	
60.08497	1442.936		-25.35217	
60.13892	1441.553		-25.31059	
60.19287	1440.159		-25.26836	
60.24682	1438.755		-25.22554	
60.30077	1437.339		-25.18221	
60.35472	1435.914		-25.1384	
60.40867	1434.485		-25.09418	
60.46262	1433.06		-25.0496	
60.51657	1431.645		-25.00475	
60.57052	1430.242		-24.9597	
60.62447	1428.855		-24.91449	
60.67842	1427.49		-24.86914	
60.73236	1426.156		-24.82363	
60.78632	1424.856		-24.77789	
60.84026	1423.589		-24.73184	
60.89421	1422.345		-24.68533	
60.94817	1421.112		-24.63817	
61.00211	1419.876		-24.59013	
61.05606	1418.622		-24.54095	
61.11001	1417.344		-24.49032	
61.16396	1416.046		-24.43796	
61.21791	1414.738		-24.38355	
61.27186	1413.438		-24.32675	
61.32581	1412.163		-24.26725	
61.37976	1410.922		-24.20475	
61.43371	1409.71		-24.139	
61.48766	1408.523		-24.06977	
61.54161	1407.359		-23.99686	
61.59556	1406.214		-23.92014	
61.64951	1405.076		-23.83949	
61.70346	1403.928		-23.75489	
61.75741	1402.76		-23.66631	
61.81136	1401.566		-23.5738	
61.86531	1400.342		-23.47741	
61.91926	1399.085		-23.3772	
61.97321	1397.79		-23.27328	
62.02716	1396.454		-23.16569	
62.0811	1395.082		-23.05458	
62.13506	1393.683		-22.94005	
62.189	1392.262		-22.82225	
62.24295	1390.83		-22.70133	
62.2969	1389.396		-22.57739	
62.35085	1387.971		-22.4505	
62.4048	1386.562		-22.32071	
62.45875	1385.176		-22.18802	
62.5127	1383.814		-22.05239	
62.56665	1382.469		-21.91373	
62.6206	1381.133		-21.77195	
62.67455	1379.802		-21.62691	
62.7285	1378.471		-21.47844	
62.78245	1377.141		-21.32638	
62.8364	1375.813		-21.17051	
62.89035	1374.5		-21.01062	
62.9443	1373.212		-20.84647	
62.99825	1371.955		-20.67775	
63.0522	1370.728		-20.50421	
63.10615	1369.533		-20.3255	
63.1601	1368.377		-20.14133	
63.21405	1367.263		-19.95138	
63.268	1366.193		-19.75534	
63.32195	1365.165		-19.55289	
63.3759	1364.171		-19.34364	
63.42984	1363.204		-19.12723	
63.4838	1362.255		-18.90324	
63.53774	1361.322		-18.67129	
63.59169	1360.399		-18.43094	
63.64564	1359.476		-18.18183	
63.69959	1358.546		-17.92356	
63.75354	1357.609		-17.65582	
63.80749	1356.668		-17.37828	
63.86144	1355.731		-17.09062	
63.91539	1354.801		-16.7926	
63.96934	1353.878		-16.48391	
64.02329	1352.967		-16.16433	
64.07724	1352.073		-15.8337	
64.13119	1351.2		-15.4918	
64.18514	1350.351		-15.1384	
64.23909	1349.523		-14.77339	
64.29304	1348.715		-14.3965	
64.34698	1347.922		-14.00749	
64.40094	1347.136		-13.60601	
64.45489	1346.353		-13.19182	
64.50883	1345.572		-12.76442	
64.56278	1344.797		-12.32338	
64.61674	1344.035		-11.8681	
64.67068	1343.289		-11.39814	
64.72463	1342.559		-10.91285	
64.77859	1341.845		-10.41152	
64.83253	1341.151		-9.893649	
64.88648	1340.478		-9.358423	
64.94043	1339.827		-8.805138	
64.99438	1339.194		-8.232953	
65.04833	1338.578		-7.641236	
65.10228	1337.976		-7.029126	
65.15623	1337.385		-6.395775	
65.21018	1336.804		-5.740593	
65.26413	1336.229		-5.062687	
65.31808	1335.66		-4.361312	
65.37203	1335.1		-3.635557	
65.42598	1334.562		-2.884833	
65.47993	1334.057		-2.108172	
65.53387	1333.598		-1.304782	
65.58783	1333.192		-0.4737175	
65.64178	1332.841		0.3856217	
65.69572	1332.544		1.274131	
65.74968	1332.298		2.192662	
65.80363	1332.101		3.141677	
65.85757	1331.953		4.122048	
65.91152	1331.853		5.134379	
65.96548	1331.804		6.179434	
66.01942	1331.804		7.257518	
66.07337	1331.857		8.369308	
66.12733	1331.964		9.515443	
66.18127	1332.131		10.6961	
66.23522	1332.363		11.91199	
66.28917	1332.672		13.16355	
66.34312	1333.062		14.45147	
66.39707	1333.534		15.77597	
66.45102	1334.086		17.1378	
66.50497	1334.717		18.53773	
66.55892	1335.422		19.976	
66.61287	1336.196		21.45349	
66.66682	1337.04		22.97091	
66.72077	1337.955		24.52911	
66.77472	1338.943		26.12834	
66.82867	1340.008		27.76967	
66.88261	1341.147		29.45369	
66.93657	1342.365		31.1814	
66.99052	1343.665		32.95296	
67.04446	1345.052		34.7694	
67.09842	1346.538		36.63148	
67.15237	1348.134		38.53934	
67.20631	1349.849		40.49379	
67.26026	1351.687		42.49539	
67.31422	1353.647		44.54499	
67.36816	1355.725		46.64246	
67.42211	1357.919		48.78875	
67.47607	1360.225		50.9845	
67.53001	1362.645		53.22958	
67.58396	1365.181		55.52468	
67.63791	1367.836		57.87017	
67.69186	1370.61		60.26667	
67.74581	1373.504		62.71373	
67.79976	1376.52		65.21198	
67.85371	1379.661		67.76177	
67.90766	1382.927		70.36243	
67.96161	1386.325		73.01422	
68.01556	1389.858		75.71716	
68.06951	1393.528		78.47131	
68.12346	1397.334		81.27572	
68.17741	1401.275		84.13051	
68.23135	1405.352		87.03539	
68.28531	1409.564		89.99043	
68.33926	1413.912		92.99438	
68.3932	1418.396		96.04737	
68.44716	1423.02		99.14924	
68.50111	1427.785		102.2986	
68.55505	1432.695		105.4955	
68.609	1437.755		108.7392	
68.66296	1442.972		112.0296	
68.7169	1448.359		115.365	
68.77085	1453.931		118.7455	
68.82481	1459.703		122.1706	
68.87875	1465.689		125.6389	
68.9327	1471.908		129.1499	
68.98665	1478.371		132.7033	
69.0406	1485.085		136.2987	
69.09455	1492.049		139.9343	
69.1485	1499.257		143.6101	
69.20245	1506.7		147.325	
69.2564	1514.375		151.0787	
69.31035	1522.275		154.8691	
69.3643	1530.396		158.6956	
69.41825	1538.737		162.5573	
69.4722	1547.298		166.4515	
69.52615	1556.087		170.377	
69.58009	1565.109		174.3317	
69.63405	1574.368		178.3139	
69.688	1583.865		182.3196	
69.74194	1593.604		186.3466	
69.7959	1603.59		190.392	
69.84985	1613.822		194.4509	
69.90379	1624.306		198.5197	
69.95774	1635.043		202.5939	
70.0117	1646.033		206.6691	
70.06564	1657.265		210.7388	
70.11959	1668.732		214.7979	
70.17355	1680.427		218.8406	
70.22749	1692.344		222.8594	
70.28144	1704.482		226.8477	
70.33539	1716.841		230.7981	
70.38934	1729.423		234.7034	
70.44329	1742.229		238.5543	
70.49724	1755.272		242.3429	
70.55119	1768.563		246.0607	
70.60514	1782.113		249.6991	
70.65909	1795.931		253.2483	
70.71304	1810.029		256.6995	
70.76699	1824.408		260.0443	
70.82094	1839.053		263.2726	
70.87489	1853.951		266.376	
70.92883	1869.09		269.3458	
70.98279	1884.457		272.174	
71.03674	1900.037		274.8518	
71.09068	1915.825		277.3713	
71.14464	1931.818		279.7259	
71.19859	1948.009		281.908	
71.25253	1964.403		283.9113	
71.30648	1981.013		285.7299	
71.36044	1997.853		287.3586	
71.41438	2014.933		288.7921	
71.46833	2032.273		290.0259	
71.52228	2049.883		291.0566	
71.57623	2067.774		291.8809	
71.63018	2085.943		292.4962	
71.68413	2104.38		292.8999	
71.73808	2123.069		293.0912	
71.79203	2141.974		293.0689	
71.84598	2161.056		292.833	
71.89993	2180.274		292.3838	
71.95388	2199.594		291.7221	
72.00783	2218.974		290.8498	
72.06178	2238.381		289.7681	
72.11573	2257.787		288.4801	
72.16968	2277.162		286.9889	
72.22363	2296.493		285.2975	
72.27757	2315.764		283.4098	
72.33153	2334.953		281.3294	
72.38548	2354.023		279.0616	
72.43942	2372.939		276.6099	
72.49338	2391.667		273.9795	
72.54733	2410.151		271.1762	
72.60127	2428.339		268.2053	
72.65522	2446.184		265.0717	
72.70918	2463.638		261.7818	
72.76312	2480.644		258.3426	
72.81707	2497.16		254.7596	
72.87102	2513.15		251.04	
72.92497	2528.596		247.19	
72.97892	2543.488		243.218	
73.03287	2557.838		239.1303	
73.08682	2571.674		234.9342	
73.14077	2585.014		230.6385	
73.19472	2597.881		226.2505	
73.24866	2610.287		221.7782	
73.30262	2622.241		217.2293	
73.35657	2633.748		212.6134	
73.41051	2644.808		207.9387	
73.46447	2655.419		203.2133	
73.51842	2665.569		198.4475	
73.57236	2675.255		193.6499	
73.62631	2684.472		188.8296	
73.68027	2693.224		183.9953	
73.73421	2701.521		179.1577	
73.78816	2709.388		174.3257	
73.84212	2716.853		169.5076	
73.89606	2723.952		164.7142	
73.95001	2730.723		159.9537	
74.00396	2737.197		155.2352	
74.05791	2743.398		150.5664	
74.11186	2749.339		145.9568	
74.16581	2755.034		141.4139	
74.21976	2760.499		136.945	
74.27371	2765.752		132.5567	
74.32766	2770.808		128.2568	
74.38161	2775.676		124.0512	
74.43556	2780.361		119.9446	
74.48951	2784.862		115.9431	
74.54346	2789.184		112.0506	
74.5974	2793.34		108.2708	
74.65136	2797.355		104.6061	
74.70531	2801.254		101.0599	
74.75925	2805.064		97.63352	
74.81321	2808.808		94.32716	
74.86716	2812.498		91.14214	
74.9211	2816.137		88.0776	
74.97505	2819.717		85.1325	
75.02901	2823.234		82.30479	
75.08295	2826.688		79.59291	
75.1369	2830.084		76.99405	
75.19085	2833.426		74.50468	
75.2448	2836.715		72.12102	
75.29875	2839.941		69.83981	
75.3527	2843.097		67.65694	
75.40665	2846.175		65.56766	
75.4606	2849.173		63.56834	
75.51455	2852.087		61.65437	
75.5685	2854.912		59.82137	
75.62245	2857.642		58.06483	
75.6764	2860.272		56.381	
75.73035	2862.807		54.76577	
75.7843	2865.247		53.21491	
75.83825	2867.602		51.72527	
75.8922	2869.888		50.29317	
75.94614	2872.127		48.91536	
76.0001	2874.337		47.58862	
76.05405	2876.532		46.31043	
76.10799	2878.715		45.07806	
76.16195	2880.884		43.88889	
76.2159	2883.031		42.74112	
76.26984	2885.16		41.63264	
76.32379	2887.276		40.56183	
76.37775	2889.381		39.52694	
76.43169	2891.473		38.52693	
76.48564	2893.551		37.56054	
76.53959	2895.611		36.62669	
76.59354	2897.645		35.7244	
76.64749	2899.646		34.85314	
76.70144	2901.617		34.01211	
76.75539	2903.561		33.20046	
76.80934	2905.486		32.41771	
76.86329	2907.394		31.66302	
76.91724	2909.279		30.93559	
76.97119	2911.126		30.23446	
77.02514	2912.913		29.55886	
77.07909	2914.622		28.90774	
77.13304	2916.235		28.27987	
77.18699	2917.739		27.67432	
77.24094	2919.122		27.08985	
77.29488	2920.38		26.52533	
77.34884	2921.511		25.97954	
77.40279	2922.527		25.45153	
77.45673	2923.443		24.94028	
77.51069	2924.268		24.44467	
77.56464	2925.012		23.96396	
77.61858	2925.68		23.49723	
77.67253	2926.282		23.0438	
77.72649	2926.828		22.60294	
77.78043	2927.332		22.1743	
77.83438	2927.803		21.75749	
77.88833	2928.258		21.35231	
77.94228	2928.707		20.95869	
77.99623	2929.168		20.57684	
78.05018	2929.655		20.20703	
78.10413	2930.177		19.84961	
78.15808	2930.737		19.50527	
78.21203	2931.343		19.17468	
78.26598	2932.006		18.85863	
78.31993	2932.736		18.55792	
78.37388	2933.539		18.27347	
78.42783	2934.426		18.00612	
78.48178	2935.397		17.75663	
78.53573	2936.441		17.5259	
78.58968	2937.537		17.31465	
78.64362	2938.667		17.12365	
78.69758	2939.821		16.95345	
78.75153	2940.991		16.80461	
78.80547	2942.171		16.67747	
78.85942	2943.351		16.57219	
78.91338	2944.523		16.48876	
78.96732	2945.675		16.42704	
79.02127	2946.807		16.38671	
79.07523	2947.919		16.36725	
79.12917	2949.013		16.36797	
79.18312	2950.09		16.38799	
79.23707	2951.147		16.42627	
79.29102	2952.178		16.48161	
79.34497	2953.175		16.55262	
79.39892	2954.128		16.63792	
79.45287	2955.028		16.73602	
79.50682	2955.865		16.84538	
79.56077	2956.635		16.96454	
79.61472	2957.337		17.09199	
79.66867	2957.978		17.22632	
79.72262	2958.567		17.3661	
79.77657	2959.119		17.51006	
79.83052	2959.65		17.65696	
79.88447	2960.176		17.80566	
79.93842	2960.719		17.95518	
79.99236	2961.301		18.10468	
80.04632	2961.939		18.25351	
80.10027	2962.641		18.40111	
80.15421	2963.402		18.5472	
80.20816	2964.211		18.6916	
80.26212	2965.054		18.83429	
80.31606	2965.915		18.97533	
80.37001	2966.779		19.11496	
80.42397	2967.639		19.2535	
80.47791	2968.497		19.39133	
80.53186	2969.357		19.52891	
80.58581	2970.225		19.66673	
80.63976	2971.12		19.80526	
80.69371	2972.054		19.94484	
80.74766	2973.054		20.08582	
80.80161	2974.139		20.22838	
80.85556	2975.321		20.37255	
80.90951	2976.594		20.5183	
80.96346	2977.947		20.66545	
81.01741	2979.357		20.81371	
81.07136	2980.802		20.96261	
81.12531	2982.255		21.11164	
81.17925	2983.695		21.26011	
81.23321	2985.1		21.40725	
81.28716	2986.463		21.55211	
81.3411	2987.783		21.69366	
81.39506	2989.071		21.83087	
81.44901	2990.34		21.96254	
81.50295	2991.604		22.08749	
81.5569	2992.877		22.20451	
81.61086	2994.171		22.31239	
81.6648	2995.496		22.40986	
81.71875	2996.856		22.4957	
81.77271	2998.253		22.56874	
81.82665	2999.674		22.62781	
81.8806	3001.104		22.67185	
81.93455	3002.527		22.69992	
81.9885	3003.935		22.7112	
82.04245	3005.317		22.70499	
82.0964	3006.67		22.68066	
82.15035	3007.995		22.63782	
82.2043	3009.305		22.57611	
82.25825	3010.616		22.49533	
82.31219	3011.942		22.3953	
82.36615	3013.287		22.27604	
82.4201	3014.652		22.13765	
82.47404	3016.036		21.98029	
82.52799	3017.437		21.80427	
82.58195	3018.841		21.60996	
82.63589	3020.24		21.39787	
82.68984	3021.622		21.16845	
82.7438	3022.985		20.92228	
82.79774	3024.326		20.66002	
82.85169	3025.645		20.38222	
82.90564	3026.933		20.08946	
82.95959	3028.198		19.78222	
83.01354	3029.447		19.46106	
83.06749	3030.698		19.12621	
83.12144	3031.957		18.77788	
83.17539	3033.224		18.41627	
83.22934	3034.484		18.04133	
83.28329	3035.728		17.65296	
83.33724	3036.945		17.25094	
83.39119	3038.125		16.83517	
83.44514	3039.255		16.40529	
83.49909	3040.33		15.96097	
83.55304	3041.337		15.50199	
83.60699	3042.277		15.02794	
83.66093	3043.145		14.53841	
83.71489	3043.955		14.03295	
83.76884	3044.718		13.51127	
83.82278	3045.447		12.97287	
83.87673	3046.149		12.41734	
83.93069	3046.832		11.84423	
83.98463	3047.489		11.25343	
84.03858	3048.117		10.64457	
84.09254	3048.71		10.01744	
84.14648	3049.266		9.372112	
84.20043	3049.782		8.708465	
84.25438	3050.254		8.026559	
84.30833	3050.666		7.326427	
84.36228	3051.009		6.608509	
84.41623	3051.285		5.872968	
84.47018	3051.515		5.120138	
84.52413	3051.716		4.350691	
84.57808	3051.903		3.565135	
84.63203	3052.089		2.764144	
84.68598	3052.287		1.948513	
84.73993	3052.507		1.119471	
84.79388	3052.752		0.277998	
84.84782	3053.012		-0.5746003	
84.90178	3053.27		-1.437082	
84.95573	3053.506		-2.307747	
85.00967	3053.709		-3.185274	
85.06363	3053.871		-4.068278	
85.11758	3053.984		-4.955057	
85.17152	3054.037		-5.844334	
85.22547	3054.023		-6.734755	
85.27943	3053.944		-7.625175	
85.33337	3053.8		-8.514128	
85.38732	3053.596		-9.40063	
85.44128	3053.338		-10.28372	
85.49522	3053.029		-11.1622	
85.54917	3052.661		-12.0353	
85.60312	3052.226		-12.90221	
85.65707	3051.71		-13.76226	
85.71102	3051.106		-14.61446	
85.76497	3050.409		-15.45819	
85.81892	3049.621		-16.29292	
85.87287	3048.738		-17.11777	
85.92682	3047.76		-17.93229	
85.98077	3046.686		-18.73592	
86.03472	3045.521		-19.52831	
86.08867	3044.264		-20.30879	
86.14262	3042.928		-21.07709	
86.19656	3041.521		-21.83293	
86.25052	3040.049		-22.5762	
86.30447	3038.508		-23.30657	
86.35841	3036.891		-24.02397	
86.41237	3035.189		-24.72844	
86.46632	3033.405		-25.41972	
86.52026	3031.54		-26.09785	
86.57421	3029.605		-26.76285	
86.62817	3027.601		-27.41482	
86.68211	3025.538		-28.05366	
86.73606	3023.423		-28.67944	
86.79002	3021.276		-29.29236	
86.84396	3019.104		-29.89228	
86.89791	3016.917		-30.47929	
86.95186	3014.722		-31.05342	
87.00581	3012.529		-31.6148	
87.05976	3010.335		-32.16334	
87.11371	3008.147		-32.69912	
87.16766	3005.963		-33.2223	
87.22161	3003.791		-33.73308	
87.27556	3001.63		-34.23151	
87.32951	2999.484		-34.71782	
87.38346	2997.349		-35.19234	
87.43741	2995.23		-35.6552	
87.49136	2993.124		-36.10672	
87.5453	2991.035		-36.54726	
87.59926	2988.961		-36.97725	
87.65321	2986.906		-37.39699	
87.70715	2984.869		-37.80698	
87.76111	2982.85		-38.20773	
87.81506	2980.848		-38.59958	
87.869	2978.863		-38.98302	
87.92295	2976.894		-39.35851	
87.97691	2974.939		-39.72646	
88.03085	2972.996		-40.08714	
88.0848	2971.061		-40.44089	
88.13876	2969.13		-40.78801	
88.1927	2967.198		-41.12866	
88.24665	2965.265		-41.46311	
88.3006	2963.326		-41.79161	
88.35455	2961.375		-42.1144	
88.4085	2959.406		-42.43157	
88.46245	2957.412		-42.74338	
88.5164	2955.391		-43.04998	
88.57035	2953.337		-43.3516	
88.6243	2951.249		-43.6483	
88.67825	2949.125		-43.94034	
88.7322	2946.97		-44.22787	
88.78615	2944.78		-44.51093	
88.8401	2942.553		-44.78962	
88.89404	2940.298		-45.06393	
88.948	2938.021		-45.33389	
89.00195	2935.726		-45.59937	
89.05589	2933.406		-45.8604	
89.10985	2931.049		-46.11696	
89.1638	2928.643		-46.36893	
89.21774	2926.171		-46.61631	
89.27169	2923.621		-46.85901	
89.32565	2920.99		-47.097	
89.37959	2918.281		-47.33009	
89.43354	2915.502		-47.55815	
89.4875	2912.663		-47.78103	
89.54144	2909.779		-47.99849	
89.59539	2906.853		-48.21037	
89.64934	2903.884		-48.41646	
89.70329	2900.869		-48.6167	
89.75724	2897.812		-48.81087	
89.81119	2894.711		-48.9989	
89.86514	2891.579		-49.18065	
89.91909	2888.425		-49.35601	
89.97304	2885.27		-49.52478	
90.02699	2882.126		-49.68675	
90.08094	2879.008		-49.84183	
90.13489	2875.912		-49.98977	
90.18884	2872.831		-50.13041	
90.24278	2869.756		-50.26361	
90.29674	2866.692		-50.38926	
90.35069	2863.639		-50.50725	
90.40463	2860.602		-50.61752	
90.45859	2857.582		-50.72014	
90.51254	2854.591		-50.81515	
90.56648	2851.638		-50.90265	
90.62043	2848.742		-50.98281	
90.67439	2845.911		-51.05582	
90.72833	2843.147		-51.12193	
90.78228	2840.437		-51.18143	
90.83623	2837.772		-51.23471	
90.89018	2835.141		-51.28217	
90.94413	2832.535		-51.32424	
90.99808	2829.94		-51.36146	
91.05203	2827.349		-51.39442	
91.10598	2824.762		-51.42377	
91.15993	2822.183		-51.45025	
91.21387	2819.607		-51.47459	
91.26783	2817.029		-51.49757	
91.32178	2814.444		-51.51995	
91.37572	2811.851		-51.54256	
91.42968	2809.252		-51.56625	
91.48363	2806.66		-51.59185	
91.53757	2804.079		-51.62016	
91.59152	2801.514		-51.65192	
91.64548	2798.963		-51.68783	
91.69942	2796.429		-51.72851	
91.75337	2793.903		-51.77455	
91.80733	2791.375		-51.82643	
91.86127	2788.832		-51.88458	
91.91522	2786.257		-51.94937	
91.96917	2783.644		-52.02113	
92.02312	2781		-52.10006	
92.07707	2778.334		-52.18628	
92.13102	2775.648		-52.27989	
92.18497	2772.943		-52.38083	
92.23892	2770.224		-52.48903	
92.29287	2767.496		-52.60428	
92.34682	2764.761		-52.7264	
92.40077	2762.016		-52.85513	
92.45472	2759.258		-53.03418	
92.50867	2756.484		-53.20708	
92.56261	2753.688		-53.37497	
92.61657	2750.866		-53.53923	
92.67052	2748.007		-53.70103	
92.72446	2745.104		-53.86137	
92.77842	2742.153		-54.02098	
92.83237	2739.158		-54.18035	
92.88631	2736.127		-54.33984	
92.94026	2733.074		-54.49972	
92.99422	2729.999		-54.66018	
93.04816	2726.914		-54.82127	
93.10211	2723.826		-54.98309	
93.15607	2720.744		-55.14571	
93.21001	2717.671		-55.30909	
93.26396	2714.604		-55.47326	
93.31791	2711.534		-55.6382	
93.37186	2708.453		-55.80391	
93.42581	2705.358		-55.97032	
93.47976	2702.25		-56.1374	
93.53371	2699.129		-56.30512	
93.58766	2695.984		-56.47344	
93.64161	2692.811		-56.64226	
93.69556	2689.605		-56.81154	
93.74951	2686.364		-56.98125	
93.80346	2683.102		-57.15126	
93.85741	2679.831		-57.32154	
93.91135	2676.555		-57.49201	
93.96531	2673.277		-57.66261	
94.01926	2670.004		-57.83324	
94.0732	2666.754		-58.00383	
94.12716	2663.618		-58.17434	
94.18111	2660.552		-58.34466	
94.23505	2657.521		-58.51474	
94.289	2654.506		-58.68451	
94.34296	2651.498		-58.85395	
94.3969	2648.493		-59.02295	
94.45085	2645.488		-59.19148	
94.5048	2642.481		-59.3595	
94.55875	2639.472		-59.52699	
94.6127	2636.463		-59.69386	
94.66665	2633.453		-59.86009	
94.7206	2630.446		-60.0257	
94.77455	2627.443		-60.19059	
94.8285	2624.445		-60.35479	
94.88245	2621.454		-60.51828	
94.9364	2618.473		-60.68107	
94.99035	2615.505		-60.84312	
