T[Â°C]	330nm [counts / mm]	S.D.	First derivative	S.D. of first derivative
20.00037	5001.082		-67.10124	
20.05447	4997.342		-67.16955	
20.10858	4993.608		-67.23693	
20.16269	4989.88		-67.30336	
20.21679	4986.159		-67.3688	
20.2709	4982.441		-67.43322	
20.325	4978.728		-67.49657	
20.37911	4975.017		-67.55884	
20.43322	4971.308		-67.61997	
20.48732	4967.6		-67.67996	
20.54143	4963.892		-67.73877	
20.59553	4960.183		-67.79636	
20.64964	4956.471		-67.85274	
20.70375	4952.758		-67.90786	
20.75785	4949.044		-67.96172	
20.81196	4945.331		-68.01429	
20.86606	4941.627		-68.06557	
20.92017	4937.952		-68.11556	
20.97428	4934.384		-68.16426	
21.02838	4930.854		-68.21165	
21.08249	4927.34		-68.25777	
21.13659	4923.817		-68.30261	
21.1907	4920.264		-68.34619	
21.24481	4916.66		-68.38853	
21.29891	4912.995		-68.42966	
21.35302	4909.267		-68.4696	
21.40712	4905.479		-68.50838	
21.46123	4901.637		-68.54605	
21.51534	4897.75		-68.58263	
21.56944	4893.839		-68.61816	
21.62355	4889.926		-68.65271	
21.67765	4886.025		-68.68631	
21.73176	4882.148		-68.71903	
21.78587	4878.294		-68.75095	
21.83997	4874.458		-68.78212	
21.89408	4870.621		-68.81264	
21.94818	4866.769		-68.84263	
22.00229	4862.904		-68.87215	
22.0564	4859.029		-68.90136	
22.1105	4855.142		-68.93034	
22.16461	4851.246		-68.95924	
22.21871	4847.34		-68.98815	
22.27282	4843.43		-69.01712	
22.32693	4839.522		-69.0461	
22.38103	4835.625		-69.07481	
22.43514	4831.744		-69.10267	
22.48924	4827.889		-69.12856	
22.54335	4824.065		-69.1508	
22.59746	4820.278		-69.16727	
22.65156	4816.528		-69.10723	
22.70567	4812.814		-69.04118	
22.75977	4809.122		-68.96964	
22.81388	4805.44		-68.8932	
22.86799	4801.75		-68.81248	
22.92209	4798.032		-68.72817	
22.9762	4794.274		-68.64093	
23.0303	4790.479		-68.55143	
23.08441	4786.655		-68.46035	
23.13852	4782.811		-68.36837	
23.19262	4778.954		-68.27616	
23.24673	4775.09		-68.18437	
23.30083	4771.222		-68.09359	
23.35494	4767.356		-68.00437	
23.40905	4763.504		-67.9172	
23.46315	4759.678		-67.83247	
23.51726	4755.885		-67.75055	
23.57136	4752.129		-67.67167	
23.62547	4748.405		-67.59602	
23.67957	4744.708		-67.52367	
23.73368	4741.032		-67.45457	
23.78779	4737.379		-67.3886	
23.84189	4733.75		-67.32551	
23.896	4730.145		-67.26508	
23.95011	4726.573		-67.20702	
24.00421	4723.04		-67.15105	
24.05832	4719.544		-67.09687	
24.11242	4716.088		-67.04418	
24.16653	4712.67		-66.99272	
24.22064	4709.297		-66.94222	
24.27474	4705.978		-66.89248	
24.32885	4702.721		-66.84333	
24.38295	4699.523		-66.79467	
24.43706	4696.358		-66.74644	
24.49117	4693.191		-66.69858	
24.54527	4689.992		-66.65113	
24.59938	4686.739		-66.60419	
24.65348	4683.426		-66.55788	
24.70759	4680.055		-66.51241	
24.7617	4676.638		-66.46799	
24.8158	4673.19		-66.42489	
24.86991	4669.715		-66.38341	
24.92401	4666.206		-66.34384	
24.97812	4662.659		-66.30649	
25.03223	4659.072		-66.2716	
25.08633	4655.444		-66.23939	
25.14044	4651.774		-66.21003	
25.19454	4648.067		-66.18366	
25.24865	4644.326		-66.16035	
25.30276	4640.542		-66.14008	
25.35686	4636.705		-66.12275	
25.41097	4632.813		-66.10819	
25.46507	4628.876		-66.09615	
25.51918	4624.92		-66.08628	
25.57329	4620.98		-66.07819	
25.62739	4617.09		-66.0714	
25.6815	4613.265		-66.0654	
25.7356	4609.504		-66.05959	
25.78971	4605.799		-66.05334	
25.84381	4602.138		-66.04598	
25.89792	4598.511		-66.03687	
25.95203	4594.915		-66.02533	
26.00613	4591.341		-66.01076	
26.06024	4587.783		-65.99257	
26.11435	4584.227		-65.97024	
26.16845	4580.659		-65.94328	
26.22256	4577.073		-65.91126	
26.27666	4573.479		-65.87385	
26.33077	4569.896		-65.83078	
26.38488	4566.338		-65.78189	
26.43898	4562.812		-65.72712	
26.49309	4559.318		-65.66653	
26.54719	4555.85		-65.60029	
26.6013	4552.4		-65.52869	
26.65541	4548.953		-65.45215	
26.70951	4545.494		-65.37114	
26.76362	4542.011		-65.28625	
26.81772	4538.493		-65.19817	
26.87183	4534.936		-65.10765	
26.92594	4531.344		-65.01552	
26.98004	4527.726		-64.92262	
27.03415	4524.102		-64.82985	
27.08825	4520.481		-64.73809	
27.14236	4516.866		-64.64822	
27.19647	4513.263		-64.56109	
27.25057	4509.678		-64.47743	
27.30468	4506.117		-64.39787	
27.35878	4502.583		-64.32291	
27.41289	4499.07		-64.25285	
27.467	4495.565		-64.18789	
27.5211	4492.059		-64.12811	
27.57521	4488.548		-64.07349	
27.62931	4485.04		-64.02396	
27.68342	4481.543		-63.97932	
27.73753	4478.079		-63.93939	
27.79163	4474.667		-63.90391	
27.84574	4471.322		-63.8726	
27.89984	4468.053		-63.84517	
27.95395	4464.853		-63.82129	
28.00805	4461.704		-63.80066	
28.06216	4458.588		-63.78294	
28.11627	4455.485		-63.76778	
28.17037	4452.377		-63.75482	
28.22448	4449.252		-63.7437	
28.27859	4446.1		-63.73402	
28.33269	4442.91		-63.7254	
28.3868	4439.678		-63.71745	
28.4409	4436.397		-63.70979	
28.49501	4433.066		-63.70205	
28.54912	4429.697		-63.69383	
28.60322	4426.304		-63.68476	
28.65733	4422.899		-63.67445	
28.71143	4419.498		-63.66255	
28.76554	4416.1		-63.64871	
28.81964	4412.688		-63.63266	
28.87375	4409.246		-63.61417	
28.92786	4405.76		-63.59306	
28.98196	4402.229		-63.56921	
29.03607	4398.657		-63.54259	
29.09018	4395.045		-63.51322	
29.14428	4391.4		-63.4812	
29.19839	4387.728		-63.44667	
29.25249	4384.041		-63.40979	
29.3066	4380.355		-63.37072	
29.36071	4376.687		-63.32959	
29.41481	4373.047		-63.28655	
29.46892	4369.443		-63.24172	
29.52302	4365.874		-63.19523	
29.57713	4362.333		-63.14718	
29.63124	4358.809		-63.09764	
29.68534	4355.292		-63.04666	
29.73945	4351.778		-62.99425	
29.79355	4348.269		-62.94044	
29.84766	4344.773		-62.88522	
29.90177	4341.302		-62.82864	
29.95587	4337.854		-62.77075	
30.00998	4334.42		-62.71164	
30.06408	4330.989		-62.65149	
30.11819	4327.547		-62.59053	
30.17229	4324.088		-62.52909	
30.2264	4320.608		-62.46746	
30.28051	4317.102		-62.40599	
30.33461	4313.574		-62.34502	
30.38872	4310.034		-62.28492	
30.44283	4306.493		-62.22602	
30.49693	4302.969		-62.16863	
30.55104	4299.477		-62.11295	
30.60514	4296.02		-62.05912	
30.65925	4292.603		-62.00717	
30.71336	4289.231		-61.95705	
30.76746	4285.906		-61.9086	
30.82157	4282.625		-61.86165	
30.87567	4279.384		-61.81596	
30.92978	4276.176		-61.77129	
30.98388	4272.994		-61.72742	
31.03799	4269.833		-61.68413	
31.0921	4266.694		-61.64128	
31.1462	4263.578		-61.5988	
31.20031	4260.484		-61.55667	
31.25442	4257.417		-61.51499	
31.30852	4254.381		-61.47393	
31.36263	4251.381		-61.43375	
31.41673	4248.415		-61.39478	
31.47084	4245.471		-61.3574	
31.52495	4242.533		-61.32201	
31.57905	4239.587		-61.28903	
31.63316	4236.617		-61.2588	
31.68726	4233.611		-61.23163	
31.74137	4230.557		-61.20779	
31.79548	4227.441		-61.18747	
31.84958	4224.265		-61.17081	
31.90369	4221.032		-61.1579	
31.95779	4217.75		-61.14878	
32.0119	4214.426		-61.14346	
32.06601	4211.07		-61.14187	
32.12011	4207.692		-61.14393	
32.17422	4204.302		-61.14951	
32.22832	4200.9		-61.15846	
32.28243	4197.479		-61.17065	
32.33654	4194.024		-61.18599	
32.39064	4190.523		-61.20438	
32.44475	4186.971		-61.22572	
32.49885	4183.372		-61.24987	
32.55296	4179.736		-61.27662	
32.60707	4176.076		-61.30565	
32.66117	4172.409		-61.33654	
32.71528	4168.759		-61.36874	
32.76938	4165.15		-61.40162	
32.82349	4161.602		-61.43446	
32.87759	4158.122		-61.46646	
32.9317	4154.703		-61.4968	
32.98581	4151.333		-61.52458	
33.03991	4147.996		-61.54893	
33.09402	4144.681		-61.569	
33.14812	4141.383		-61.584	
33.20223	4138.096		-61.5932	
33.25634	4134.823		-61.59606	
33.31044	4131.563		-61.59212	
33.36455	4128.319		-61.58109	
33.41866	4125.089		-61.56284	
33.47276	4121.864		-61.53736	
33.52687	4118.641		-61.50483	
33.58097	4115.417		-61.4655	
33.63508	4112.185		-61.41977	
33.68919	4108.935		-61.36814	
33.74329	4105.654		-61.31122	
33.7974	4102.337		-61.24965	
33.8515	4098.981		-61.1841	
33.90561	4095.583		-61.11523	
33.95972	4092.148		-61.04364	
34.01382	4088.69		-60.96986	
34.06793	4085.219		-60.89436	
34.12203	4081.745		-60.81752	
34.17614	4078.273		-60.7397	
34.23024	4074.812		-60.66122	
34.28435	4071.37		-60.58237	
34.33846	4067.958		-60.50342	
34.39256	4064.588		-60.42466	
34.44667	4061.258		-60.34636	
34.50077	4057.962		-60.26883	
34.55488	4054.689		-60.19229	
34.60899	4051.426		-60.11695	
34.66309	4048.171		-60.04295	
34.7172	4044.933		-59.97036	
34.77131	4041.723		-59.89922	
34.82541	4038.551		-59.82946	
34.87952	4035.423		-59.76103	
34.93362	4032.342		-59.69376	
34.98773	4029.299		-59.62745	
35.04184	4026.279		-59.56182	
35.09594	4023.275		-59.49658	
35.15005	4020.279		-59.43138	
35.20415	4017.287		-59.36591	
35.25826	4014.292		-59.29987	
35.31237	4011.283		-59.23305	
35.36647	4008.25		-59.16526	
35.42058	4005.187		-59.09639	
35.47468	4002.089		-59.02636	
35.52879	3998.961		-58.95514	
35.58289	3995.813		-58.88279	
35.637	3992.652		-58.80947	
35.69111	3989.477		-58.73546	
35.74521	3986.286		-58.66115	
35.79932	3983.075		-58.58699	
35.85342	3979.836		-58.51351	
35.90753	3976.566		-58.44115	
35.96164	3973.269		-58.37036	
36.01574	3969.954		-58.30148	
36.06985	3966.631		-58.23479	
36.12395	3963.315		-58.17048	
36.17806	3960.02		-58.10862	
36.23217	3956.746		-58.04922	
36.28627	3953.491		-57.99222	
36.34038	3950.255		-57.93754	
36.39449	3947.042		-57.88508	
36.44859	3943.856		-57.83477	
36.5027	3940.698		-57.78656	
36.5568	3937.562		-57.74041	
36.61091	3934.436		-57.69632	
36.66502	3931.315		-57.65425	
36.71912	3928.202		-57.61422	
36.77323	3925.103		-57.57621	
36.82733	3922.017		-57.54017	
36.88144	3918.948		-57.50606	
36.93555	3915.889		-57.4738	
36.98965	3912.828		-57.44329	
37.04376	3909.756		-57.41439	
37.09786	3906.673		-57.38701	
37.15197	3903.588		-57.36103	
37.20607	3900.514		-57.33637	
37.26018	3897.461		-57.31299	
37.31429	3894.428		-57.29084	
37.36839	3891.412		-57.26988	
37.4225	3888.401		-57.25	
37.4766	3885.385		-57.23111	
37.53071	3882.358		-57.21311	
37.58482	3879.325		-57.19595	
37.63892	3876.283		-57.17961	
37.69303	3873.231		-57.16415	
37.74714	3870.17		-57.14967	
37.80124	3867.097		-57.13633	
37.85535	3864.009		-57.12431	
37.90945	3860.906		-57.11382	
37.96356	3857.795		-57.10501	
38.01767	3854.683		-57.09806	
38.07177	3851.581		-57.09307	
38.12588	3848.5		-57.09014	
38.17998	3845.454		-57.08925	
38.23409	3842.44		-57.09032	
38.2882	3839.449		-57.09322	
38.3423	3836.47		-57.09771	
38.39641	3833.497		-57.10351	
38.45051	3830.529		-57.11028	
38.50462	3827.564		-57.11768	
38.55872	3824.604		-57.12537	
38.61283	3821.643		-57.13305	
38.66694	3818.676		-57.14043	
38.72104	3815.696		-57.14725	
38.77515	3812.695		-57.15323	
38.82925	3809.67		-57.15812	
38.88336	3806.622		-57.16167	
38.93747	3803.545		-57.1636	
38.99157	3800.432		-57.16371	
39.04568	3797.28		-57.16177	
39.09978	3794.086		-57.15759	
39.15389	3790.854		-57.15101	
39.208	3787.591		-57.14188	
39.2621	3784.309		-57.13008	
39.31621	3781.024		-57.11548	
39.37032	3777.751		-57.09797	
39.42442	3774.498		-57.0774	
39.47853	3771.27		-57.05367	
39.53263	3768.072		-57.02667	
39.58674	3764.897		-56.99631	
39.64085	3761.733		-56.96253	
39.69495	3758.573		-56.92535	
39.74906	3755.415		-56.88482	
39.80316	3752.257		-56.84106	
39.85727	3749.095		-56.79421	
39.91137	3745.929		-56.74443	
39.96548	3742.764		-56.69196	
40.01959	3739.6		-56.63705	
40.07369	3736.436		-56.58004	
40.1278	3733.285		-56.52124	
40.1819	3730.164		-56.46094	
40.23601	3727.085		-56.39943	
40.29012	3724.048		-56.33698	
40.34422	3721.041		-56.27377	
40.39833	3718.05		-56.21	
40.45243	3715.056		-56.14586	
40.50654	3712.043		-56.08148	
40.56065	3708.998		-56.01704	
40.61475	3705.913		-55.95269	
40.66886	3702.801		-55.8886	
40.72297	3699.678		-55.82491	
40.77707	3696.559		-55.76174	
40.83118	3693.454		-55.6992	
40.88528	3690.377		-55.63736	
40.93939	3687.339		-55.57632	
40.9935	3684.34		-55.51617	
41.0476	3681.386		-55.45701	
41.10171	3678.47		-55.3989	
41.15581	3675.582		-55.34188	
41.20992	3672.708		-55.28596	
41.26403	3669.835		-55.23113	
41.31813	3666.961		-55.17731	
41.37224	3664.086		-55.12441	
41.42634	3661.217		-55.07228	
41.48045	3658.359		-55.0208	
41.53455	3655.521		-54.96986	
41.58866	3652.708		-54.91941	
41.64277	3649.924		-54.86952	
41.69687	3647.16		-54.82024	
41.75098	3644.41		-54.77171	
41.80508	3641.66		-54.72404	
41.85919	3638.901		-54.67736	
41.9133	3636.13		-54.63178	
41.9674	3633.342		-54.58744	
42.02151	3630.526		-54.54448	
42.07561	3627.672		-54.50303	
42.12972	3624.772		-54.46324	
42.18383	3621.827		-54.42522	
42.23793	3618.844		-54.38905	
42.29204	3615.831		-54.35484	
42.34615	3612.8		-54.32264	
42.40025	3609.764		-54.29255	
42.45436	3606.735		-54.26461	
42.50846	3603.718		-54.23884	
42.56257	3600.708		-54.21521	
42.61668	3597.702		-54.1936	
42.67078	3594.696		-54.17387	
42.72489	3591.683		-54.15579	
42.77899	3588.652		-54.13915	
42.8331	3585.591		-54.1237	
42.8872	3582.506		-54.10917	
42.94131	3579.4		-54.09526	
42.99542	3576.285		-54.08171	
43.04952	3573.174		-54.06821	
43.10363	3570.079		-54.05444	
43.15773	3567.011		-54.04007	
43.21184	3563.973		-54.02473	
43.26595	3560.966		-54.00804	
43.32005	3557.988		-53.98964	
43.37416	3555.035		-53.96918	
43.42826	3552.106		-53.94638	
43.48237	3549.196		-53.92103	
43.53648	3546.307		-53.89297	
43.59058	3543.443		-53.86209	
43.64469	3540.604		-53.82835	
43.6988	3537.791		-53.7917	
43.7529	3535.004		-53.75212	
43.80701	3532.233		-53.70961	
43.86111	3529.473		-53.66421	
43.91522	3526.714		-53.61603	
43.96933	3523.942		-53.56525	
44.02343	3521.145		-53.51213	
44.07754	3518.312		-53.45697	
44.13164	3515.431		-53.40017	
44.18575	3512.503		-53.34209	
44.23985	3509.536		-53.28314	
44.29396	3506.547		-53.22374	
44.34807	3503.559		-53.16433	
44.40217	3500.594		-53.10534	
44.45628	3497.662		-53.04718	
44.51038	3494.761		-52.99025	
44.56449	3491.879		-52.93484	
44.6186	3489.002		-52.88124	
44.6727	3486.121		-52.82964	
44.72681	3483.24		-52.78022	
44.78091	3480.356		-52.73312	
44.83502	3477.471		-52.68847	
44.88913	3474.578		-52.64634	
44.94323	3471.676		-52.6068	
44.99734	3468.765		-52.56985	
45.05145	3465.862		-52.53547	
45.10555	3462.987		-52.50358	
45.15966	3460.159		-52.47409	
45.21376	3457.391		-52.44687	
45.26787	3454.69		-52.42184	
45.32198	3452.048		-52.39889	
45.37608	3449.445		-52.37794	
45.43019	3446.861		-52.35893	
45.48429	3444.276		-52.34182	
45.5384	3441.671		-52.32654	
45.59251	3439.032		-52.313	
45.64661	3436.346		-52.30107	
45.70072	3433.611		-52.29057	
45.75482	3430.823		-52.2813	
45.80893	3427.984		-52.27304	
45.86303	3425.103		-52.26563	
45.91714	3422.193		-52.2589	
45.97124	3419.271		-52.25274	
46.02535	3416.351		-52.24704	
46.07946	3413.439		-52.24172	
46.13356	3410.541		-52.2367	
46.18767	3407.654		-52.23188	
46.24178	3404.776		-52.22713	
46.29588	3401.905		-52.22231	
46.34999	3399.045		-52.21725	
46.40409	3396.196		-52.21173	
46.4582	3393.356		-52.20551	
46.51231	3390.528		-52.19828	
46.56641	3387.701		-52.18971	
46.62052	3384.865		-52.17945	
46.67463	3382.019		-52.16716	
46.72873	3379.17		-52.15252	
46.78284	3376.326		-52.13528	
46.83694	3373.492		-52.11525	
46.89105	3370.669		-52.09232	
46.94516	3367.854		-52.06639	
46.99926	3365.043		-52.03744	
47.05337	3362.236		-52.00538	
47.10747	3359.437		-51.9702	
47.16158	3356.644		-51.93184	
47.21568	3353.86		-51.8903	
47.26979	3351.079		-51.84558	
47.3239	3348.293		-51.79774	
47.378	3345.494		-51.74684	
47.43211	3342.672		-51.69297	
47.48621	3339.819		-51.63626	
47.54032	3336.931		-51.57684	
47.59443	3334.01		-51.51487	
47.64853	3331.062		-51.45052	
47.70264	3328.104		-51.38398	
47.75674	3325.154		-51.31542	
47.81085	3322.228		-51.24504	
47.86496	3319.333		-51.17308	
47.91906	3316.468		-51.09976	
47.97317	3313.628		-51.02536	
48.02728	3310.805		-50.95012	
48.08138	3307.993		-50.87434	
48.13549	3305.185		-50.79831	
48.18959	3302.378		-50.72234	
48.2437	3299.571		-50.64674	
48.29781	3296.766		-50.57181	
48.35191	3293.969		-50.49776	
48.40602	3291.178		-50.42476	
48.46012	3288.392		-50.35286	
48.51423	3285.618		-50.28207	
48.56833	3282.864		-50.21231	
48.62244	3280.143		-50.14352	
48.67655	3277.464		-50.07562	
48.73065	3274.828		-50.00863	
48.78476	3272.237		-49.94262	
48.83886	3269.682		-49.87773	
48.89297	3267.16		-49.81417	
48.94707	3264.667		-49.75217	
49.00118	3262.194		-49.69194	
49.05529	3259.729		-49.63369	
49.10939	3257.26		-49.57763	
49.1635	3254.778		-49.52396	
49.21761	3252.275		-49.47294	
49.27171	3249.748		-49.42479	
49.32582	3247.196		-49.37973	
49.37992	3244.621		-49.33795	
49.43403	3242.029		-49.29959	
49.48814	3239.428		-49.26478	
49.54224	3236.822		-49.23361	
49.59635	3234.203		-49.20615	
49.65046	3231.566		-49.18241	
49.70456	3228.91		-49.16235	
49.75867	3226.238		-49.14589	
49.81277	3223.558		-49.13288	
49.86688	3220.875		-49.12309	
49.92099	3218.192		-49.11626	
49.97509	3215.507		-49.11206	
50.0292	3212.811		-49.11015	
50.0833	3210.104		-49.11016	
50.13741	3207.391		-49.11177	
50.19151	3204.686		-49.11467	
50.24562	3202.006		-49.11853	
50.29972	3199.364		-49.12305	
50.35383	3196.763		-49.12791	
50.40794	3194.197		-49.13272	
50.46204	3191.654		-49.13706	
50.51615	3189.118		-49.14047	
50.57026	3186.583		-49.14251	
50.62436	3184.037		-49.14275	
50.67847	3181.467		-49.14083	
50.73257	3178.864		-49.13645	
50.78668	3176.218		-49.12936	
50.84079	3173.528		-49.11937	
50.89489	3170.8		-49.1063	
50.949	3168.047		-49.08997	
51.00311	3165.284		-49.07026	
51.05721	3162.528		-49.04704	
51.11132	3159.787		-49.02028	
51.16542	3157.063		-48.99002	
51.21953	3154.348		-48.95635	
51.27364	3151.628		-48.91946	
51.32774	3148.889		-48.87953	
51.38185	3146.115		-48.8368	
51.43595	3143.3		-48.79153	
51.49006	3140.451		-48.74402	
51.54416	3137.581		-48.69456	
51.59827	3134.701		-48.64343	
51.65238	3131.823		-48.5909	
51.70648	3128.958		-48.53719	
51.76059	3126.118		-48.48251	
51.81469	3123.313		-48.42699	
51.8688	3120.556		-48.3707	
51.9229	3117.86		-48.31369	
51.97701	3115.222		-48.25596	
52.03112	3112.634		-48.19749	
52.08522	3110.078		-48.13825	
52.13933	3107.545		-48.07821	
52.19344	3105.023		-48.01735	
52.24754	3102.502		-47.9556	
52.30165	3099.974		-47.89297	
52.35575	3097.434		-47.82941	
52.40986	3094.887		-47.76491	
52.46397	3092.34		-47.69944	
52.51807	3089.805		-47.63304	
52.57218	3087.294		-47.56578	
52.62629	3084.814		-47.49775	
52.68039	3082.365		-47.42915	
52.7345	3079.945		-47.3602	
52.7886	3077.549		-47.29115	
52.84271	3075.168		-47.22224	
52.89681	3072.79		-47.15373	
52.95092	3070.406		-47.08583	
53.00503	3068.008		-47.01873	
53.05913	3065.593		-46.95269	
53.11324	3063.155		-46.88795	
53.16734	3060.696		-46.82479	
53.22145	3058.215		-46.76348	
53.27555	3055.718		-46.70436	
53.32966	3053.205		-46.64774	
53.38377	3050.677		-46.59399	
53.43787	3048.14		-46.54347	
53.49198	3045.606		-46.49653	
53.54609	3043.084		-46.45352	
53.60019	3040.579		-46.4147	
53.6543	3038.091		-46.38031	
53.7084	3035.619		-46.35045	
53.76251	3033.154		-46.32515	
53.81662	3030.686		-46.30434	
53.87072	3028.212		-46.28783	
53.92483	3025.729		-46.27538	
53.97894	3023.234		-46.26668	
54.03304	3020.726		-46.26136	
54.08715	3018.212		-46.25903	
54.14125	3015.694		-46.25922	
54.19536	3013.175		-46.26144	
54.24947	3010.655		-46.26514	
54.30357	3008.133		-46.2698	
54.35768	3005.611		-46.27487	
54.41178	3003.093		-46.27984	
54.46589	3000.578		-46.28423	
54.51999	2998.07		-46.28761	
54.5741	2995.568		-46.28955	
54.6282	2993.067		-46.28972	
54.68231	2990.561		-46.28784	
54.73642	2988.049		-46.28369	
54.79052	2985.528		-46.27713	
54.84463	2982.998		-46.26805	
54.89874	2980.457		-46.25639	
54.95284	2977.91		-46.24214	
55.00695	2975.369		-46.22537	
55.06105	2972.838		-46.2062	
55.11516	2970.323		-46.18474	
55.16927	2967.824		-46.16117	
55.22337	2965.34		-46.13563	
55.27748	2962.865		-46.10826	
55.33158	2960.395		-46.0792	
55.38569	2957.92		-46.0486	
55.4398	2955.437		-46.01654	
55.4939	2952.942		-45.98315	
55.54801	2950.431		-45.94849	
55.60212	2947.898		-45.91262	
55.65622	2945.344		-45.87554	
55.71033	2942.772		-45.8372	
55.76443	2940.181		-45.79757	
55.81854	2937.571		-45.75657	
55.87264	2934.946		-45.71415	
55.92675	2932.313		-45.67028	
55.98086	2929.683		-45.62494	
56.03496	2927.067		-45.57817	
56.08907	2924.472		-45.52998	
56.14317	2921.908		-45.48039	
56.19728	2919.387		-45.42938	
56.25138	2916.909		-45.37696	
56.30549	2914.469		-45.32312	
56.3596	2912.068		-45.26791	
56.4137	2909.693		-45.21134	
56.46781	2907.337		-45.15345	
56.52192	2904.994		-45.09433	
56.57602	2902.659		-45.03406	
56.63013	2900.326		-44.97277	
56.68423	2897.993		-44.91062	
56.73834	2895.659		-44.84777	
56.79245	2893.329		-44.78444	
56.84655	2890.999		-44.72087	
56.90066	2888.664		-44.65736	
56.95477	2886.327		-44.59426	
57.00887	2883.991		-44.53195	
57.06298	2881.659		-44.47083	
57.11708	2879.333		-44.4113	
57.17119	2877.01		-44.35375	
57.22529	2874.68		-44.29852	
57.2794	2872.333		-44.24587	
57.33351	2869.96		-44.19603	
57.38761	2867.553		-44.14914	
57.44172	2865.108		-44.10526	
57.49582	2862.626		-44.06439	
57.54993	2860.109		-44.02644	
57.60403	2857.565		-43.99128	
57.65814	2855.007		-43.9587	
57.71225	2852.454		-43.92843	
57.76635	2849.928		-43.90014	
57.82046	2847.448		-43.8735	
57.87457	2845.023		-43.84817	
57.92867	2842.665		-43.82378	
57.98278	2840.375		-43.80003	
58.03688	2838.143		-43.7766	
58.09099	2835.952		-43.75317	
58.1451	2833.79		-43.72944	
58.1992	2831.64		-43.70511	
58.25331	2829.482		-43.67992	
58.30742	2827.301		-43.65359	
58.36152	2825.086		-43.62585	
58.41563	2822.829		-43.59643	
58.46973	2820.53		-43.56507	
58.52384	2818.197		-43.53156	
58.57794	2815.84		-43.49571	
58.63205	2813.477		-43.45738	
58.68616	2811.128		-43.41645	
58.74026	2808.803		-43.37285	
58.79437	2806.501		-43.32658	
58.84847	2804.216		-43.27767	
58.90258	2801.937		-43.22621	
58.95668	2799.655		-43.17234	
59.01079	2797.354		-43.11625	
59.0649	2795.016		-43.05816	
59.119	2792.625		-42.99834	
59.17311	2790.173		-42.93703	
59.22721	2787.661		-42.87453	
59.28132	2785.098		-42.8111	
59.33543	2782.501		-42.74706	
59.38953	2779.89		-42.68269	
59.44364	2777.288		-42.61832	
59.49775	2774.715		-42.55427	
59.55185	2772.188		-42.49085	
59.60596	2769.716		-42.42836	
59.66006	2767.294		-42.36702	
59.71417	2764.917		-42.30697	
59.76828	2762.586		-42.24829	
59.82238	2760.294		-42.19098	
59.87649	2758.028		-42.13498	
59.9306	2755.779		-42.08018	
59.9847	2753.538		-42.02644	
60.03881	2751.296		-41.9736	
60.09291	2749.046		-41.92149	
60.14702	2746.791		-41.86993	
60.20112	2744.541		-41.81881	
60.25523	2742.314		-41.76797	
60.30933	2740.123		-41.71735	
60.36344	2737.969		-41.66684	
60.41755	2735.853		-41.61639	
60.47165	2733.77		-41.56595	
60.52576	2731.699		-41.5155	
60.57986	2729.624		-41.465	
60.63397	2727.534		-41.41443	
60.68808	2725.424		-41.36376	
60.74218	2723.284		-41.31291	
60.79629	2721.111		-41.26178	
60.8504	2718.907		-41.21022	
60.9045	2716.688		-41.15802	
60.95861	2714.468		-41.105	
61.01271	2712.258		-41.0509	
61.06682	2710.062		-40.99551	
61.12093	2707.887		-40.93856	
61.17503	2705.738		-40.87975	
61.22914	2703.614		-40.8188	
61.28325	2701.509		-40.75542	
61.33735	2699.417		-40.68933	
61.39146	2697.33		-40.62025	
61.44556	2695.234		-40.54788	
61.49967	2693.118		-40.47193	
61.55377	2690.98		-40.39212	
61.60788	2688.818		-40.30812	
61.66199	2686.637		-40.21962	
61.71609	2684.445		-40.12627	
61.7702	2682.253		-40.02771	
61.8243	2680.064		-39.92355	
61.87841	2677.877		-39.81345	
61.93251	2675.691		-39.69704	
61.98662	2673.507		-39.57399	
62.04073	2671.322		-39.44399	
62.09483	2669.132		-39.30676	
62.14894	2666.925		-39.16206	
62.20304	2664.695		-39.00965	
62.25715	2662.442		-38.84935	
62.31126	2660.163		-38.68106	
62.36536	2657.855		-38.5047	
62.41947	2655.528		-38.32019	
62.47358	2653.187		-38.12751	
62.52768	2650.842		-37.92669	
62.58179	2648.504		-37.71777	
62.63589	2646.183		-37.50074	
62.69	2643.884		-37.27561	
62.74411	2641.606		-37.0423	
62.79821	2639.348		-36.80077	
62.85232	2637.113		-36.55089	
62.90642	2634.907		-36.29247	
62.96053	2632.74		-36.02525	
63.01464	2630.605		-35.74891	
63.06874	2628.496		-35.46307	
63.12285	2626.406		-35.16722	
63.17695	2624.335		-34.86082	
63.23106	2622.287		-34.54322	
63.28516	2620.267		-34.21378	
63.33927	2618.283		-33.87176	
63.39338	2616.344		-33.51643	
63.44748	2614.454		-33.14708	
63.50159	2612.605		-32.76292	
63.55569	2610.796		-32.36326	
63.6098	2609.021		-31.9473	
63.66391	2607.283		-31.51431	
63.71801	2605.591		-31.06346	
63.77212	2603.958		-30.59408	
63.82623	2602.386		-30.10534	
63.88033	2600.872		-29.59658	
63.93444	2599.409		-29.06713	
63.98854	2597.991		-28.51631	
64.04265	2596.612		-27.94358	
64.09676	2595.262		-27.34834	
64.15086	2593.926		-26.73006	
64.20496	2592.593		-26.0884	
64.25907	2591.259		-25.42273	
64.31318	2589.925		-24.73274	
64.36729	2588.588		-24.01805	
64.42139	2587.246		-23.2782	
64.47549	2585.895		-22.51289	
64.5296	2584.532		-21.72144	
64.58371	2583.158		-20.90347	
64.63782	2581.778		-20.0584	
64.69193	2580.404		-19.18573	
64.74603	2579.04		-18.28498	
64.80013	2577.691		-17.35529	
64.85424	2576.366		-16.39612	
64.90835	2575.078		-15.40665	
64.96245	2573.836		-14.38619	
65.01656	2572.644		-13.33345	
65.07066	2571.499		-12.24742	
65.12477	2570.399		-11.12677	
65.17888	2569.349		-9.97008	
65.23298	2568.352		-8.776018	
65.28709	2567.406		-7.542593	
65.34119	2566.514		-6.268294	
65.3953	2565.681		-4.951307	
65.4494	2564.917		-3.590116	
65.50351	2564.233		-2.182492	
65.55762	2563.637		-0.7267471	
65.61172	2563.14		0.7790151	
65.66583	2562.749		2.336826	
65.71993	2562.466		3.948352	
65.77404	2562.29		5.616068	
65.82815	2562.218		7.341711	
65.88226	2562.239		9.127341	
65.93636	2562.344		10.97455	
65.99046	2562.531		12.88578	
66.04457	2562.794		14.86259	
66.09868	2563.135		16.90668	
66.15279	2563.557		19.01974	
66.20689	2564.066		21.2028	
66.26099	2564.677		23.45783	
66.3151	2565.411		25.7857	
66.36921	2566.286		28.18765	
66.42332	2567.308		30.66458	
66.47742	2568.478		33.21711	
66.53152	2569.791		35.84682	
66.58563	2571.241		38.55413	
66.63974	2572.824		41.33995	
66.69384	2574.536		44.20454	
66.74795	2576.368		47.14953	
66.80206	2578.313		50.1753	
66.85616	2580.372		53.28268	
66.91027	2582.555		56.4725	
66.96437	2584.876		59.7452	
67.01848	2587.346		63.10263	
67.07259	2589.974		66.5453	
67.12669	2592.78		70.07422	
67.18079	2595.778		73.68989	
67.2349	2598.984		77.39436	
67.28901	2602.403		81.18816	
67.34312	2606.035		85.07235	
67.39722	2609.882		89.048	
67.45132	2613.941		93.11563	
67.50543	2618.214		97.2775	
67.55954	2622.709		101.5342	
67.61365	2627.432		105.8868	
67.66775	2632.391		110.3361	
67.72186	2637.596		114.8843	
67.77596	2643.06		119.532	
67.83007	2648.794		124.2803	
67.88418	2654.809		129.1305	
67.93828	2661.109		134.0828	
67.99239	2667.699		139.1396	
68.04649	2674.581		144.301	
68.1006	2681.758		149.5678	
68.15471	2689.228		154.9404	
68.20881	2696.983		160.4183	
68.26292	2705.029		166.0034	
68.31702	2713.372		171.6946	
68.37113	2722.019		177.4919	
68.42523	2730.974		183.3936	
68.47934	2740.242		189.401	
68.53345	2749.823		195.5122	
68.58755	2759.722		201.7262	
68.64166	2769.939		208.0418	
68.69576	2780.472		214.4566	
68.74987	2791.332		220.971	
68.80398	2802.523		227.5826	
68.85809	2814.055		234.2896	
68.91219	2825.938		241.0895	
68.96629	2838.182		247.9823	
69.0204	2850.791		254.9655	
69.07451	2863.779		262.0373	
69.12862	2877.168		269.1959	
69.18272	2890.978		276.4385	
69.23682	2905.228		283.7653	
69.29093	2919.927		291.1732	
69.34504	2935.083		298.6599	
69.39914	2950.7		306.222	
69.45325	2966.777		313.8589	
69.50735	2983.305		321.5663	
69.56146	3000.278		329.3408	
69.61557	3017.695		337.1785	
69.66967	3035.56		345.0737	
69.72378	3053.887		353.0237	
69.77789	3072.688		361.0218	
69.83199	3091.976		369.0618	
69.8861	3111.765		377.1366	
69.9402	3132.064		385.2376	
69.99431	3152.889		393.3584	
70.04842	3174.243		401.4887	
70.10252	3196.129		409.6182	
70.15662	3218.542		417.7347	
70.21073	3241.48		425.8286	
70.26484	3264.932		433.8857	
70.31895	3288.889		441.8925	
70.37305	3313.348		449.8342	
70.42715	3338.298		457.6945	
70.48126	3363.742		465.4593	
70.53537	3389.677		473.1107	
70.58948	3416.097		480.6312	
70.64358	3442.996		488.0015	
70.69769	3470.384		495.2052	
70.75179	3498.259		502.2222	
70.8059	3526.615		509.0332	
70.86001	3555.454		515.6189	
70.91411	3584.775		521.9592	
70.96822	3614.585		528.0368	
71.02232	3644.875		533.8322	
71.07643	3675.636		539.3276	
71.13053	3706.863		544.5049	
71.18464	3738.567		549.3492	
71.23875	3770.742		553.8442	
71.29285	3803.389		557.9756	
71.34696	3836.514		561.73	
71.40106	3870.124		565.095	
71.45517	3904.237		568.0604	
71.50928	3938.859		570.6162	
71.56339	3973.998		572.754	
71.61749	4009.661		574.4667	
71.67159	4045.831		575.7484	
71.7257	4082.495		576.5949	
71.77981	4119.612		577.0029	
71.83392	4157.14		576.9705	
71.88802	4195.018		576.4973	
71.94212	4233.198		575.5836	
71.99623	4271.607		574.2314	
72.05034	4310.181		572.4437	
72.10445	4348.856		570.2248	
72.15855	4387.559		567.5803	
72.21265	4426.227		564.5155	
72.26676	4464.786		561.038	
72.32087	4503.17		557.1557	
72.37497	4541.305		552.8779	
72.42908	4579.117		548.2127	
72.48318	4616.519		543.1707	
72.53729	4653.418		537.7623	
72.5914	4689.724		531.9988	
72.6455	4725.342		525.8924	
72.69961	4760.209		519.4534	
72.75372	4794.254		512.6949	
72.80782	4827.4		505.6299	
72.86192	4859.575		498.2725	
72.91603	4890.744		490.6341	
72.97014	4920.876		482.7297	
73.02425	4949.957		474.5736	
73.07835	4977.974		466.1805	
73.13245	5004.922		457.5666	
73.18656	5030.81		448.7449	
73.24067	5055.638		439.7326	
73.29478	5079.412		430.5459	
73.34888	5102.145		421.2016	
73.40298	5123.847		411.7184	
73.45709	5144.541		402.1114	
73.5112	5164.241		392.3998	
73.56531	5182.976		382.6023	
73.61941	5200.771		372.739	
73.67352	5217.668		362.8263	
73.72762	5233.698		352.8848	
73.78173	5248.9		342.934	
73.83584	5263.327		332.9933	
73.88994	5277.028		323.0836	
73.94405	5290.048		313.2213	
73.99815	5302.419		303.4268	
74.05226	5314.169		293.7189	
74.10636	5325.322		284.1171	
74.16047	5335.912		274.6361	
74.21458	5345.966		265.2943	
74.26868	5355.525		256.1077	
74.32279	5364.642		247.0914	
74.37689	5373.358		238.2608	
74.431	5381.715		229.6265	
74.48511	5389.758		221.2018	
74.53922	5397.532		212.9974	
74.59332	5405.071		205.0242	
74.64742	5412.399		197.2882	
74.70153	5419.537		189.7977	
74.75564	5426.486		182.5583	
74.80975	5433.241		175.5743	
74.86385	5439.785		168.8495	
74.91795	5446.108		162.3837	
74.97206	5452.202		156.1778	
75.02617	5458.069		150.2308	
75.08028	5463.734		144.54	
75.13438	5469.225		139.1027	
75.18848	5474.577		133.9125	
75.24259	5479.816		128.9644	
75.2967	5484.961		124.2517	
75.3508	5490.025		119.7675	
75.40491	5495.017		115.5027	
75.45901	5499.931		111.4491	
75.51312	5504.751		107.5979	
75.56723	5509.447		103.9395	
75.62133	5513.987		100.465	
75.67544	5518.343		97.16377	
75.72955	5522.502		94.02668	
75.78365	5526.459		91.04424	
75.83775	5530.221		88.20749	
75.89186	5533.802		85.50645	
75.94597	5537.233		82.93259	
76.00008	5540.553		80.47726	
76.05418	5543.799		78.13208	
76.10828	5547.006		75.88936	
76.16239	5550.203		73.74088	
76.2165	5553.407		71.67981	
76.27061	5556.63		69.69953	
76.32471	5559.87		67.79417	
76.37881	5563.106		65.9576	
76.43292	5566.301		64.18503	
76.48703	5569.428		62.47198	
76.54114	5572.471		60.81449	
76.59524	5575.427		59.20937	
76.64935	5578.297		57.65319	
76.70345	5581.088		56.14367	
76.75756	5583.804		54.67863	
76.81167	5586.468		53.25626	
76.86577	5589.109		51.87519	
76.91988	5591.752		50.5337	
76.97398	5594.412		49.23088	
77.02809	5597.097		47.96578	
77.08219	5599.809		46.73773	
77.1363	5602.538		45.54561	
77.19041	5605.25		44.38888	
77.24451	5607.9		43.26684	
77.29862	5610.449		42.17884	
77.35272	5612.864		41.12447	
77.40683	5615.138		40.10283	
77.46094	5617.273		39.11347	
77.51505	5619.27		38.1557	
77.56915	5621.127		37.22893	
77.62325	5622.857		36.33215	
77.67736	5624.481		35.46466	
77.73147	5626.026		34.62559	
77.78558	5627.514		33.814	
77.83968	5628.972		33.02901	
77.89378	5630.428		32.26939	
77.94789	5631.89		31.53422	
78.002	5633.343		30.82253	
78.0561	5634.76		30.13353	
78.11021	5636.112		29.46626	
78.16431	5637.377		28.82019	
78.21842	5638.539		28.19482	
78.27253	5639.589		27.58975	
78.32663	5640.529		27.00476	
78.38074	5641.356		26.43953	
78.43484	5642.076		25.89405	
78.48895	5642.714		25.3684	
78.54306	5643.299		24.86274	
78.59716	5643.865		24.37742	
78.65127	5644.451		23.91271	
78.70538	5645.092		23.46918	
78.75948	5645.814		23.04744	
78.81358	5646.625		22.64818	
78.86769	5647.511		22.27198	
78.9218	5648.439		21.91956	
78.97591	5649.38		21.59156	
79.03001	5650.308		21.28859	
79.08411	5651.217		21.01121	
79.13822	5652.11		20.75977	
79.19233	5652.995		20.53469	
79.24644	5653.88		20.33628	
79.30054	5654.779		20.16482	
79.35464	5655.709		20.02036	
79.40875	5656.682		19.90297	
79.46286	5657.709		19.81252	
79.51697	5658.799		19.7488	
79.57107	5659.954		19.71142	
79.62518	5661.166		19.69978	
79.67928	5662.417		19.71308	
79.73339	5663.669		19.75029	
79.78749	5664.885		19.81024	
79.8416	5666.048		19.89164	
79.89571	5667.161		19.99313	
79.94981	5668.222		20.11326	
80.00392	5669.233		20.25061	
80.05802	5670.2		20.40375	
80.11213	5671.134		20.57129	
80.16624	5672.048		20.75177	
80.22034	5672.959		20.94373	
80.27445	5673.878		21.14572	
80.32855	5674.816		21.35629	
80.38266	5675.775		21.57411	
80.43677	5676.768		21.79777	
80.49088	5677.792		22.02589	
80.54498	5678.847		22.25713	
80.59908	5679.92		22.49034	
80.65319	5681.005		22.72438	
80.7073	5682.084		22.95821	
80.76141	5683.162		23.1909	
80.81551	5684.244		23.42154	
80.86961	5685.348		23.64938	
80.92372	5686.487		23.87364	
80.97783	5687.675		24.09361	
81.03193	5688.917		24.3086	
81.08604	5690.214		24.51796	
81.14014	5691.568		24.72101	
81.19425	5692.98		24.91702	
81.24836	5694.455		25.10526	
81.30246	5695.99		25.28491	
81.35657	5697.573		25.45521	
81.41068	5699.178		25.61528	
81.46478	5700.776		25.76427	
81.51888	5702.351		25.90128	
81.57299	5703.9		26.02538	
81.6271	5705.427		26.13548	
81.68121	5706.945		26.2304	
81.73531	5708.468		26.30889	
81.78941	5710.009		26.36962	
81.84352	5711.578		26.41126	
81.89763	5713.179		26.43247	
81.95174	5714.818		26.43189	
82.00584	5716.508		26.4082	
82.05994	5718.249		26.36008	
82.11405	5720.041		26.28615	
82.16816	5721.865		26.18507	
82.22227	5723.691		26.05552	
82.27637	5725.485		25.89626	
82.33047	5727.228		25.706	
82.38458	5728.909		25.48354	
82.43869	5730.54		25.22767	
82.4928	5732.136		24.93728	
82.5469	5733.724		24.61142	
82.60101	5735.322		24.2491	
82.65511	5736.94		23.84964	
82.70922	5738.573		23.41246	
82.76332	5740.234		22.93723	
82.81743	5741.928		22.4236	
82.87154	5743.658		21.87155	
82.92564	5745.409		21.28117	
82.97975	5747.158		20.65262	
83.03385	5748.873		19.9862	
83.08796	5750.524		19.28199	
83.14207	5752.088		18.54033	
83.19617	5753.563		17.76152	
83.25027	5754.952		16.94595	
83.30438	5756.273		16.09371	
83.35849	5757.544		15.20524	
83.4126	5758.781		14.28086	
83.46671	5759.988		13.32093	
83.52081	5761.173		12.32597	
83.57491	5762.324		11.29608	
83.62902	5763.433		10.23178	
83.68313	5764.479		9.133485	
83.73724	5765.452		8.001634	
83.79134	5766.329		6.836877	
83.84544	5767.098		5.63944	
83.89955	5767.734		4.410124	
83.95366	5768.237		3.149688	
84.00776	5768.612		1.859165	
84.06187	5768.879		0.5391337	
84.11597	5769.048		-0.8092124	
84.17008	5769.125		-2.18477	
84.22419	5769.103		-3.586365	
84.27829	5768.983		-5.01256	
84.3324	5768.757		-6.462473	
84.38651	5768.427		-7.934575	
84.44061	5767.997		-9.4275	
84.49471	5767.478		-10.93965	
84.54882	5766.875		-12.47003	
84.60293	5766.184		-14.01693	
84.65704	5765.388		-15.57871	
84.71114	5764.486		-17.15358	
84.76524	5763.476		-18.73933	
84.81935	5762.362		-20.33427	
84.87346	5761.144		-21.93596	
84.92757	5759.827		-23.5421	
84.98167	5758.41		-25.15019	
85.03577	5756.897		-26.75835	
85.08988	5755.291		-28.36406	
85.14399	5753.605		-29.96504	
85.1981	5751.856		-31.55903	
85.2522	5750.055		-33.14363	
85.3063	5748.198		-34.7172	
85.36041	5746.276		-36.27763	
85.41452	5744.274		-37.82322	
85.46863	5742.186		-39.35242	
85.52273	5740		-40.86364	
85.57684	5737.71		-42.35609	
85.63094	5735.308		-43.82852	
85.68505	5732.779		-45.28004	
85.73915	5730.11		-46.70975	
85.79326	5727.296		-48.11757	
85.84737	5724.333		-49.50293	
85.90147	5721.223		-50.86567	
85.95558	5717.974		-52.20569	
86.00968	5714.609		-53.5229	
86.06379	5711.159		-54.81787	
86.1179	5707.639		-56.09076	
86.172	5704.063		-57.34198	
86.2261	5700.438		-58.57193	
86.28021	5696.764		-59.78156	
86.33432	5693.032		-60.97141	
86.38843	5689.23		-62.14223	
86.44254	5685.347		-63.29481	
86.49664	5681.385		-64.42984	
86.55074	5677.336		-65.54845	
86.60485	5673.209		-66.65119	
86.65896	5669.013		-67.73864	
86.71306	5664.77		-68.81106	
86.76717	5660.494		-69.86897	
86.82127	5656.198		-70.91236	
86.87538	5651.894		-71.94124	
86.92949	5647.592		-72.95559	
86.98359	5643.292		-73.95518	
87.0377	5638.978		-74.94012	
87.0918	5634.635		-75.91003	
87.14591	5630.265		-76.86459	
87.20002	5625.868		-77.80337	
87.25412	5621.462		-78.72581	
87.30823	5617.052		-79.63172	
87.36234	5612.65		-80.52048	
87.41644	5608.259		-81.39163	
87.47054	5603.882		-82.24459	
87.52465	5599.508		-83.07919	
87.57876	5595.133		-83.89495	
87.63287	5590.748		-84.69164	
87.68697	5586.347		-85.46915	
87.74107	5581.922		-86.22743	
87.79518	5577.481		-86.96689	
87.84929	5573.021		-87.68774	
87.9034	5568.536		-88.39046	
87.9575	5564.01		-89.07551	
88.0116	5559.44		-89.74372	
88.06571	5554.824		-90.39568	
88.11982	5550.166		-91.03215	
88.17393	5545.465		-91.65388	
88.22803	5540.724		-92.2616	
88.28214	5535.935		-92.85633	
88.33624	5531.083		-93.43887	
88.39035	5526.146		-94.0101	
88.44445	5521.112		-94.57084	
88.49856	5515.962		-95.12208	
88.55267	5510.681		-95.66456	
88.60677	5505.25		-96.19897	
88.66088	5499.667		-96.72592	
88.71498	5493.936		-97.24583	
88.76909	5488.071		-97.75924	
88.8232	5482.099		-98.26639	
88.8773	5476.066		-98.76749	
88.93141	5470.016		-99.26267	
88.98551	5463.985		-99.75185	
89.03962	5457.986		-100.2351	
89.09373	5452.035		-100.712	
89.14783	5446.136		-101.1825	
89.20193	5440.293		-101.646	
89.25604	5434.496		-102.1021	
89.31015	5428.739		-102.5503	
89.36426	5423.006		-102.9898	
89.41837	5417.282		-103.4199	
89.47247	5411.546		-103.8397	
89.52657	5405.787		-104.2484	
89.58068	5400.007		-104.6453	
89.63479	5394.213		-105.0294	
89.68889	5388.404		-105.4002	
89.743	5382.591		-105.757	
89.7971	5376.791		-106.0995	
89.85121	5371.023		-106.4273	
89.90532	5365.294		-106.74	
89.95942	5359.59		-107.0374	
90.01353	5353.891		-107.3196	
90.06763	5348.178		-107.5866	
90.12174	5342.436		-107.8383	
90.17584	5336.651		-108.075	
90.22995	5330.809		-108.297	
90.28406	5324.899		-108.5045	
90.33817	5318.92		-108.698	
90.39227	5312.875		-108.8782	
90.44637	5306.781		-109.0457	
90.50048	5300.66		-109.2013	
90.55459	5294.544		-109.3459	
90.6087	5288.462		-109.4806	
90.6628	5282.44		-109.6062	
90.7169	5276.485		-109.724	
90.77101	5270.589		-109.8349	
90.82512	5264.734		-109.9401	
90.87923	5258.903		-110.0405	
90.93333	5253.072		-110.1371	
90.98743	5247.221		-110.2306	
91.04154	5241.321		-110.3218	
91.09565	5235.369		-110.4113	
91.14976	5229.364		-110.4997	
91.20386	5223.318		-110.5875	
91.25797	5217.241		-110.6751	
91.31207	5211.152		-110.763	
91.36618	5205.061		-110.8515	
91.42028	5198.984		-110.9409	
91.47439	5192.928		-111.0318	
91.5285	5186.9		-111.1244	
91.5826	5180.889		-111.2193	
91.63671	5174.885		-111.3167	
91.69081	5168.868		-111.417	
91.74492	5162.818		-111.5205	
91.79903	5156.723		-111.6275	
91.85313	5150.586		-111.738	
91.90723	5144.415		-111.8523	
91.96134	5138.228		-111.9703	
92.01545	5132.038		-112.092	
92.06956	5125.858		-112.2174	
92.12366	5119.695		-112.3462	
92.17776	5113.564		-112.4783	
92.23187	5107.473		-112.6135	
92.28598	5101.439		-112.7516	
92.34009	5095.462		-112.8925	
92.3942	5089.535		-113.0359	
92.4483	5083.631		-113.215	
92.5024	5077.721		-113.3962	
92.55651	5071.772		-113.5779	
92.61062	5065.77		-113.7589	
92.66472	5059.713		-113.9388	
92.71883	5053.618		-114.1174	
92.77293	5047.498		-114.2947	
92.82704	5041.37		-114.4708	
92.88115	5035.24		-114.6459	
92.93525	5029.118		-114.8201	
92.98936	5022.994		-114.9938	
93.04346	5016.865		-115.1669	
93.09757	5010.734		-115.3398	
93.15167	5004.61		-115.5125	
93.20578	4998.492		-115.6851	
93.25989	4992.379		-115.8578	
93.314	4986.255		-116.0306	
93.3681	4980.105		-116.2037	
93.4222	4973.919		-116.3772	
93.47631	4967.708		-116.551	
93.53042	4961.477		-116.7254	
93.58453	4955.235		-116.9003	
93.63863	4948.988		-117.0758	
93.69273	4942.73		-117.2521	
93.74684	4936.457		-117.4291	
93.80095	4930.164		-117.6069	
93.85506	4923.832		-117.7855	
93.90916	4917.456		-117.965	
93.96326	4911.024		-118.1455	
94.01737	4904.524		-118.3269	
94.07148	4897.947		-118.5093	
94.12559	4891.096		-118.6927	
94.17969	4884.295		-118.8771	
94.2338	4877.543		-119.0624	
94.2879	4870.825		-119.2487	
94.34201	4864.127		-119.4359	
94.39611	4857.442		-119.624	
94.45022	4850.761		-119.813	
94.50433	4844.078		-120.0029	
94.55843	4837.389		-120.1936	
94.61254	4830.69		-120.3852	
94.66664	4823.982		-120.5775	
94.72075	4817.259		-120.7705	
94.77486	4810.522		-120.9642	
94.82896	4803.771		-121.1586	
94.88306	4797.007		-121.3537	
94.93717	4790.231		-121.5493	
94.99128	4783.449		-121.7455	
