T[Â°C]	350nm [counts / mm]	S.D.	First derivative	S.D. of first derivative
20.00049	4376.807		-68.7921	
20.0546	4373.279		-68.66443	
20.10871	4369.75		-68.53629	
20.16281	4366.221		-68.40769	
20.21692	4362.69		-68.27862	
20.27103	4359.159		-68.14908	
20.32513	4355.625		-68.0191	
20.37924	4352.09		-67.88867	
20.43335	4348.553		-67.75782	
20.48746	4345.013		-67.62657	
20.54156	4341.468		-67.49493	
20.59567	4337.918		-67.36294	
20.64978	4334.362		-67.2306	
20.70388	4330.799		-67.09796	
20.75799	4327.228		-66.96503	
20.8121	4323.646		-66.83188	
20.86621	4320.054		-66.69849	
20.92031	4316.448		-66.56493	
20.97442	4312.761		-66.43124	
21.02853	4309.08		-66.29742	
21.08263	4305.404		-66.16354	
21.13674	4301.736		-66.02962	
21.19085	4298.083		-65.89569	
21.24496	4294.451		-65.7618	
21.29906	4290.837		-65.62796	
21.35317	4287.237		-65.49422	
21.40728	4283.646		-65.36061	
21.46138	4280.059		-65.22717	
21.51549	4276.47		-65.09391	
21.5696	4272.876		-64.96088	
21.62371	4269.282		-64.8281	
21.67781	4265.693		-64.69563	
21.73192	4262.115		-64.56346	
21.78603	4258.557		-64.43165	
21.84014	4255.029		-64.3002	
21.89424	4251.54		-64.16915	
21.94835	4248.084		-64.0385	
22.00246	4244.658		-63.90825	
22.05656	4241.248		-63.77839	
22.11067	4237.84		-63.64889	
22.16478	4234.424		-63.51968	
22.21889	4230.987		-63.39064	
22.27299	4227.52		-63.26159	
22.3271	4224.028		-63.13226	
22.38121	4220.515		-63.00227	
22.43531	4216.989		-62.87106	
22.48942	4213.471		-62.73797	
22.54353	4209.979		-62.60225	
22.59764	4206.529		-62.4633	
22.65174	4203.122		-62.35054	
22.70585	4199.754		-62.24073	
22.75996	4196.421		-62.13375	
22.81406	4193.118		-62.0295	
22.86817	4189.833		-61.92787	
22.92228	4186.561		-61.82874	
22.97639	4183.3		-61.73204	
23.03049	4180.054		-61.63773	
23.0846	4176.821		-61.5458	
23.13871	4173.604		-61.45633	
23.19282	4170.413		-61.36941	
23.24692	4167.261		-61.28518	
23.30103	4164.16		-61.20382	
23.35514	4161.111		-61.12557	
23.40924	4158.109		-61.05066	
23.46335	4155.143		-60.97931	
23.51746	4152.191		-60.91171	
23.57157	4149.237		-60.84805	
23.62567	4146.264		-60.7885	
23.67978	4143.247		-60.73322	
23.73389	4140.167		-60.68236	
23.78799	4137.012		-60.63605	
23.8421	4133.782		-60.59443	
23.89621	4130.478		-60.55756	
23.95032	4127.115		-60.52549	
24.00442	4123.714		-60.49823	
24.05853	4120.295		-60.47579	
24.11264	4116.879		-60.45813	
24.16674	4113.479		-60.44522	
24.22085	4110.099		-60.43701	
24.27496	4106.741		-60.43345	
24.32907	4103.401		-60.43441	
24.38317	4100.074		-60.43968	
24.43728	4096.758		-60.44901	
24.49139	4093.448		-60.46206	
24.5455	4090.138		-60.47845	
24.5996	4086.821		-60.49771	
24.65371	4083.486		-60.51933	
24.70782	4080.13		-60.54269	
24.76192	4076.754		-60.56712	
24.81603	4073.37		-60.59195	
24.87014	4069.999		-60.6165	
24.92425	4066.663		-60.64012	
24.97835	4063.377		-60.66219	
25.03246	4060.144		-60.68216	
25.08657	4056.949		-60.69955	
25.14067	4053.783		-60.71395	
25.19478	4050.637		-60.72502	
25.24889	4047.51		-60.73253	
25.303	4044.391		-60.7363	
25.3571	4041.265		-60.73621	
25.41121	4038.111		-60.73218	
25.46532	4034.913		-60.7242	
25.51942	4031.658		-60.71228	
25.57353	4028.341		-60.69651	
25.62764	4024.959		-60.67703	
25.68175	4021.519		-60.65401	
25.73585	4018.035		-60.62768	
25.78996	4014.528		-60.59833	
25.84407	4011.014		-60.56623	
25.89817	4007.51		-60.5317	
25.95228	4004.03		-60.49501	
26.00639	4000.585		-60.45642	
26.0605	3997.19		-60.4162	
26.1146	3993.847		-60.37464	
26.16871	3990.547		-60.33203	
26.22282	3987.28		-60.28868	
26.27693	3984.026		-60.2449	
26.33103	3980.766		-60.20099	
26.38514	3977.486		-60.15725	
26.43925	3974.18		-60.11393	
26.49335	3970.856		-60.07119	
26.54746	3967.531		-60.02913	
26.60157	3964.223		-59.98777	
26.65568	3960.947		-59.94705	
26.70978	3957.706		-59.90684	
26.76389	3954.491		-59.86697	
26.818	3951.295		-59.82722	
26.8721	3948.116		-59.78733	
26.92621	3944.958		-59.74702	
26.98032	3941.818		-59.70599	
27.03443	3938.689		-59.66399	
27.08853	3935.561		-59.62079	
27.14264	3932.426		-59.57618	
27.19675	3929.287		-59.52998	
27.25085	3926.149		-59.48208	
27.30496	3923.015		-59.43245	
27.35907	3919.886		-59.38112	
27.41318	3916.762		-59.32828	
27.46728	3913.643		-59.27419	
27.52139	3910.528		-59.21919	
27.5755	3907.412		-59.1637	
27.62961	3904.289		-59.10821	
27.68371	3901.157		-59.05322	
27.73782	3898.01		-58.99924	
27.79193	3894.844		-58.94681	
27.84604	3891.663		-58.89633	
27.90014	3888.469		-58.84816	
27.95425	3885.267		-58.80252	
28.00836	3882.061		-58.75957	
28.06246	3878.857		-58.71937	
28.11657	3875.655		-58.68192	
28.17068	3872.456		-58.64715	
28.22478	3869.262		-58.61496	
28.27889	3866.073		-58.58525	
28.333	3862.889		-58.55786	
28.38711	3859.711		-58.53262	
28.44121	3856.533		-58.50937	
28.49532	3853.345		-58.48792	
28.54943	3850.142		-58.46809	
28.60353	3846.919		-58.44972	
28.65764	3843.677		-58.43268	
28.71175	3840.421		-58.41681	
28.76586	3837.157		-58.40199	
28.81996	3833.891		-58.38804	
28.87407	3830.633		-58.37477	
28.92818	3827.4		-58.36197	
28.98229	3824.209		-58.34933	
29.03639	3821.071		-58.33657	
29.0905	3817.985		-58.32332	
29.14461	3814.944		-58.30925	
29.19872	3811.931		-58.29403	
29.25282	3808.927		-58.27738	
29.30693	3805.913		-58.25909	
29.36104	3802.882		-58.23903	
29.41514	3799.829		-58.21712	
29.46925	3796.757		-58.19343	
29.52336	3793.67		-58.16805	
29.57747	3790.573		-58.14118	
29.63157	3787.464		-58.11308	
29.68568	3784.338		-58.08408	
29.73979	3781.185		-58.05453	
29.79389	3778.001		-58.02479	
29.848	3774.788		-57.99517	
29.90211	3771.552		-57.96595	
29.95621	3768.306		-57.93735	
30.01032	3765.062		-57.90952	
30.06443	3761.827		-57.8826	
30.11854	3758.607		-57.85668	
30.17264	3755.397		-57.83185	
30.22675	3752.193		-57.80814	
30.28086	3748.994		-57.78556	
30.33497	3745.805		-57.76413	
30.38907	3742.631		-57.74384	
30.44318	3739.473		-57.72471	
30.49729	3736.336		-57.70679	
30.5514	3733.225		-57.69011	
30.6055	3730.137		-57.67471	
30.65961	3727.068		-57.66062	
30.71372	3724.012		-57.64787	
30.76782	3720.963		-57.63651	
30.82193	3717.913		-57.62653	
30.87604	3714.853		-57.61787	
30.93015	3711.78		-57.61045	
30.98425	3708.691		-57.60408	
31.03836	3705.594		-57.59854	
31.09247	3702.505		-57.59355	
31.14657	3699.439		-57.58878	
31.20068	3696.399		-57.58385	
31.25479	3693.378		-57.57835	
31.3089	3690.364		-57.57183	
31.363	3687.347		-57.56385	
31.41711	3684.319		-57.55399	
31.47122	3681.275		-57.54185	
31.52532	3678.211		-57.52715	
31.57943	3675.127		-57.50962	
31.63354	3672.02		-57.48909	
31.68764	3668.893		-57.46542	
31.74175	3665.75		-57.4385	
31.79586	3662.586		-57.40823	
31.84997	3659.403		-57.37453	
31.90408	3656.202		-57.33739	
31.95818	3652.994		-57.29679	
32.01229	3649.793		-57.2528	
32.06639	3646.616		-57.20553	
32.1205	3643.471		-57.15512	
32.17461	3640.359		-57.10176	
32.22872	3637.279		-57.0456	
32.28283	3634.232		-56.98683	
32.33693	3631.223		-56.92565	
32.39104	3628.236		-56.86227	
32.44515	3625.256		-56.79697	
32.49925	3622.268		-56.73006	
32.55336	3619.252		-56.66192	
32.60747	3616.193		-56.59299	
32.66158	3613.08		-56.52378	
32.71568	3609.907		-56.45483	
32.76979	3606.681		-56.38668	
32.8239	3603.419		-56.31991	
32.87801	3600.143		-56.25505	
32.93211	3596.87		-56.19263	
32.98622	3593.608		-56.13308	
33.04033	3590.37		-56.07679	
33.09443	3587.166		-56.02401	
33.14854	3584.004		-55.97493	
33.20265	3580.881		-55.92962	
33.25676	3577.788		-55.88807	
33.31086	3574.712		-55.85023	
33.36497	3571.642		-55.816	
33.41908	3568.571		-55.78526	
33.47318	3565.504		-55.75787	
33.52729	3562.448		-55.73375	
33.5814	3559.409		-55.71277	
33.63551	3556.396		-55.69481	
33.68961	3553.419		-55.67973	
33.74372	3550.483		-55.66742	
33.79782	3547.588		-55.65774	
33.85193	3544.733		-55.65055	
33.90604	3541.92		-55.64572	
33.96015	3539.15		-55.64314	
34.01426	3536.417		-55.64271	
34.06836	3533.707		-55.64429	
34.12247	3531.005		-55.64773	
34.17658	3528.296		-55.65282	
34.23069	3525.567		-55.65928	
34.28479	3522.812		-55.66682	
34.3389	3520.032		-55.67512	
34.39301	3517.231		-55.68386	
34.44711	3514.419		-55.69275	
34.50122	3511.606		-55.70156	
34.55533	3508.793		-55.71011	
34.60944	3505.977		-55.7183	
34.66354	3503.146		-55.7261	
34.71765	3500.289		-55.73351	
34.77176	3497.395		-55.74058	
34.82586	3494.459		-55.74744	
34.87997	3491.478		-55.75425	
34.93408	3488.451		-55.76117	
34.98819	3485.378		-55.76833	
35.04229	3482.263		-55.77586	
35.0964	3479.107		-55.78389	
35.15051	3475.913		-55.79244	
35.20461	3472.686		-55.80152	
35.25872	3469.435		-55.81107	
35.31283	3466.173		-55.821	
35.36694	3462.914		-55.83115	
35.42104	3459.663		-55.84138	
35.47515	3456.427		-55.85148	
35.52926	3453.21		-55.8612	
35.58336	3450.011		-55.87029	
35.63747	3446.831		-55.87847	
35.69158	3443.672		-55.88553	
35.74569	3440.528		-55.89124	
35.79979	3437.389		-55.8954	
35.8539	3434.246		-55.89788	
35.90801	3431.098		-55.89853	
35.96212	3427.946		-55.89727	
36.01622	3424.791		-55.89406	
36.07033	3421.639		-55.88882	
36.12444	3418.5		-55.8815	
36.17854	3415.38		-55.87202	
36.23265	3412.281		-55.86029	
36.28676	3409.2		-55.84618	
36.34087	3406.133		-55.82952	
36.39497	3403.076		-55.81013	
36.44908	3400.033		-55.78779	
36.50319	3397.001		-55.76227	
36.55729	3393.972		-55.73333	
36.6114	3390.942		-55.70073	
36.66551	3387.909		-55.66426	
36.71962	3384.871		-55.62379	
36.77372	3381.826		-55.57926	
36.82783	3378.776		-55.5307	
36.88194	3375.725		-55.47822	
36.93604	3372.689		-55.42199	
36.99015	3369.682		-55.36228	
37.04426	3366.722		-55.29943	
37.09837	3363.815		-55.23383	
37.15247	3360.961		-55.16589	
37.20658	3358.159		-55.09605	
37.26069	3355.402		-55.02475	
37.3148	3352.677		-54.9524	
37.3689	3349.973		-54.87943	
37.42301	3347.282		-54.80621	
37.47712	3344.595		-54.73306	
37.53122	3341.894		-54.66026	
37.58533	3339.156		-54.58802	
37.63944	3336.368		-54.51657	
37.69355	3333.53		-54.44605	
37.74765	3330.649		-54.37662	
37.80176	3327.736		-54.30843	
37.85587	3324.801		-54.24166	
37.90997	3321.851		-54.1765	
37.96408	3318.888		-54.11318	
38.01819	3315.913		-54.05192	
38.0723	3312.932		-53.99295	
38.1264	3309.947		-53.93649	
38.18051	3306.953		-53.88273	
38.23462	3303.942		-53.83179	
38.28872	3300.912		-53.78377	
38.34283	3297.86		-53.73864	
38.39694	3294.79		-53.69636	
38.45105	3291.705		-53.65675	
38.50515	3288.615		-53.61956	
38.55926	3285.527		-53.58447	
38.61337	3282.449		-53.5511	
38.66748	3279.392		-53.51905	
38.72158	3276.364		-53.48792	
38.77569	3273.372		-53.45732	
38.8298	3270.422		-53.4269	
38.8839	3267.515		-53.39633	
38.93801	3264.648		-53.36538	
38.99212	3261.821		-53.33388	
39.04623	3259.031		-53.30171	
39.10033	3256.27		-53.26882	
39.15444	3253.529		-53.23518	
39.20855	3250.794		-53.20082	
39.26265	3248.048		-53.16584	
39.31676	3245.269		-53.13036	
39.37087	3242.45		-53.09448	
39.42498	3239.602		-53.05835	
39.47908	3236.738		-53.02208	
39.53319	3233.865		-52.98583	
39.5873	3230.988		-52.94975	
39.6414	3228.108		-52.91399	
39.69551	3225.232		-52.87873	
39.74962	3222.364		-52.84416	
39.80373	3219.5		-52.81055	
39.85783	3216.643		-52.77816	
39.91194	3213.791		-52.74729	
39.96605	3210.944		-52.71826	
40.02016	3208.106		-52.69135	
40.07426	3205.275		-52.66685	
40.12837	3202.445		-52.64495	
40.18248	3199.606		-52.62579	
40.23658	3196.755		-52.60945	
40.29069	3193.889		-52.59597	
40.3448	3191.007		-52.58533	
40.39891	3188.111		-52.57748	
40.45301	3185.211		-52.57235	
40.50712	3182.317		-52.56982	
40.56123	3179.444		-52.56979	
40.61533	3176.608		-52.57214	
40.66944	3173.818		-52.57671	
40.72355	3171.078		-52.58336	
40.77766	3168.391		-52.59188	
40.83176	3165.745		-52.6021	
40.88587	3163.123		-52.61381	
40.93998	3160.507		-52.62682	
40.99408	3157.885		-52.64092	
41.04819	3155.244		-52.65586	
41.1023	3152.578		-52.67142	
41.15641	3149.883		-52.68734	
41.21051	3147.155		-52.70337	
41.26462	3144.388		-52.7193	
41.31873	3141.58		-52.73489	
41.37283	3138.727		-52.7499	
41.42694	3135.833		-52.7641	
41.48105	3132.901		-52.77726	
41.53516	3129.941		-52.78912	
41.58926	3126.962		-52.79948	
41.64337	3123.976		-52.80816	
41.69748	3120.993		-52.81496	
41.75159	3118.015		-52.81975	
41.80569	3115.044		-52.82236	
41.8598	3112.077		-52.82264	
41.91391	3109.112		-52.82043	
41.96801	3106.155		-52.81558	
42.02212	3103.207		-52.80796	
42.07623	3100.265		-52.79742	
42.13034	3097.323		-52.78377	
42.18444	3094.377		-52.76682	
42.23855	3091.425		-52.74638	
42.29266	3088.465		-52.72232	
42.34676	3085.5		-52.69453	
42.40087	3082.533		-52.66295	
42.45498	3079.571		-52.62757	
42.50909	3076.619		-52.58846	
42.56319	3073.68		-52.54571	
42.6173	3070.759		-52.49945	
42.67141	3067.867		-52.44982	
42.72551	3065.016		-52.39701	
42.77962	3062.21		-52.34119	
42.83373	3059.445		-52.28259	
42.88784	3056.706		-52.22145	
42.94194	3053.977		-52.15805	
42.99605	3051.232		-52.09266	
43.05016	3048.452		-52.02557	
43.10427	3045.627		-51.95707	
43.15837	3042.753		-51.88751	
43.21248	3039.833		-51.81725	
43.26659	3036.877		-51.74666	
43.32069	3033.902		-51.67611	
43.3748	3030.925		-51.60594	
43.42891	3027.958		-51.53646	
43.48302	3025.013		-51.46793	
43.53712	3022.106		-51.40056	
43.59123	3019.248		-51.33455	
43.64534	3016.441		-51.27004	
43.69944	3013.68		-51.2071	
43.75355	3010.954		-51.14577	
43.80766	3008.244		-51.08599	
43.86177	3005.541		-51.02763	
43.91587	3002.84		-50.97052	
43.96998	3000.147		-50.91451	
44.02409	2997.467		-50.85941	
44.07819	2994.81		-50.80509	
44.1323	2992.176		-50.75142	
44.18641	2989.57		-50.69836	
44.24052	2986.996		-50.6459	
44.29462	2984.456		-50.59409	
44.34873	2981.946		-50.54303	
44.40284	2979.467		-50.49287	
44.45695	2977.017		-50.44376	
44.51105	2974.584		-50.39594	
44.56516	2972.147		-50.34958	
44.61927	2969.691		-50.30486	
44.67337	2967.205		-50.26193	
44.72748	2964.68		-50.22089	
44.78159	2962.108		-50.1818	
44.8357	2959.486		-50.14473	
44.8898	2956.816		-50.1097	
44.94391	2954.1		-50.07674	
44.99802	2951.338		-50.04588	
45.05212	2948.538		-50.01716	
45.10623	2945.709		-49.99068	
45.16034	2942.862		-49.96655	
45.21445	2939.999		-49.94488	
45.26855	2937.124		-49.9258	
45.32266	2934.242		-49.9094	
45.37677	2931.351		-49.8957	
45.43087	2928.45		-49.88467	
45.48498	2925.549		-49.87619	
45.53909	2922.662		-49.87006	
45.5932	2919.802		-49.86598	
45.6473	2916.972		-49.86354	
45.70141	2914.175		-49.86226	
45.75552	2911.409		-49.86152	
45.80963	2908.672		-49.86067	
45.86373	2905.956		-49.85897	
45.91784	2903.259		-49.85567	
45.97195	2900.581		-49.85002	
46.02605	2897.93		-49.84135	
46.08016	2895.302		-49.82901	
46.13427	2892.687		-49.81249	
46.18838	2890.079		-49.79132	
46.24249	2887.473		-49.76514	
46.29659	2884.866		-49.73363	
46.3507	2882.254		-49.6966	
46.4048	2879.64		-49.65391	
46.45891	2877.022		-49.60558	
46.51302	2874.388		-49.55173	
46.56713	2871.722		-49.49259	
46.62123	2869.023		-49.42842	
46.67534	2866.299		-49.35955	
46.72945	2863.557		-49.28633	
46.78355	2860.8		-49.20913	
46.83766	2858.037		-49.12836	
46.89177	2855.275		-49.0445	
46.94588	2852.52		-48.95806	
46.99998	2849.77		-48.86963	
47.05409	2847.022		-48.77984	
47.1082	2844.283		-48.68935	
47.1623	2841.554		-48.59882	
47.21641	2838.839		-48.50896	
47.27052	2836.144		-48.42043	
47.32463	2833.469		-48.3339	
47.37873	2830.806		-48.24994	
47.43284	2828.149		-48.16911	
47.48695	2825.493		-48.09184	
47.54106	2822.84		-48.01853	
47.59516	2820.185		-47.94945	
47.64927	2817.53		-47.88482	
47.70338	2814.881		-47.82475	
47.75748	2812.246		-47.76931	
47.81159	2809.633		-47.71848	
47.8657	2807.047		-47.67223	
47.91981	2804.492		-47.63046	
47.97392	2801.974		-47.59308	
48.02802	2799.49		-47.55994	
48.08213	2797.042		-47.5309	
48.13623	2794.628		-47.50578	
48.19034	2792.246		-47.48438	
48.24445	2789.883		-47.46645	
48.29856	2787.53		-47.45172	
48.35266	2785.177		-47.43991	
48.40677	2782.817		-47.43076	
48.46088	2780.441		-47.42408	
48.51498	2778.045		-47.4197	
48.56909	2775.626		-47.41748	
48.6232	2773.187		-47.41735	
48.67731	2770.729		-47.41917	
48.73141	2768.254		-47.42282	
48.78552	2765.774		-47.42817	
48.83963	2763.299		-47.43511	
48.89374	2760.836		-47.44354	
48.94784	2758.389		-47.45335	
49.00195	2755.952		-47.46442	
49.05606	2753.518		-47.47663	
49.11016	2751.074		-47.48981	
49.16427	2748.611		-47.50377	
49.21838	2746.122		-47.51831	
49.27249	2743.6		-47.53328	
49.3266	2741.042		-47.54845	
49.3807	2738.45		-47.56364	
49.43481	2735.824		-47.57867	
49.48891	2733.172		-47.59334	
49.54302	2730.493		-47.60748	
49.59713	2727.796		-47.62094	
49.65124	2725.094		-47.63361	
49.70535	2722.398		-47.64539	
49.75945	2719.715		-47.65621	
49.81356	2717.046		-47.66602	
49.86766	2714.397		-47.67479	
49.92177	2711.766		-47.68247	
49.97588	2709.144		-47.68903	
50.02999	2706.519		-47.69438	
50.0841	2703.881		-47.69845	
50.1382	2701.22		-47.70115	
50.19231	2698.529		-47.70239	
50.24642	2695.806		-47.7021	
50.30052	2693.055		-47.7002	
50.35463	2690.278		-47.69667	
50.40874	2687.482		-47.69147	
50.46284	2684.677		-47.68463	
50.51695	2681.878		-47.6762	
50.57106	2679.101		-47.66625	
50.62517	2676.354		-47.65487	
50.67928	2673.632		-47.64215	
50.73338	2670.933		-47.6282	
50.78749	2668.258		-47.61309	
50.84159	2665.612		-47.59687	
50.8957	2663		-47.57956	
50.94981	2660.419		-47.56109	
51.00392	2657.856		-47.54134	
51.05803	2655.295		-47.52015	
51.11213	2652.726		-47.49731	
51.16624	2650.15		-47.47259	
51.22034	2647.574		-47.44577	
51.27445	2645.014		-47.41664	
51.32856	2642.484		-47.38504	
51.38267	2639.989		-47.35087	
51.43678	2637.536		-47.31404	
51.49088	2635.128		-47.27452	
51.54499	2632.759		-47.23233	
51.5991	2630.422		-47.18751	
51.6532	2628.104		-47.14016	
51.70731	2625.799		-47.09042	
51.76142	2623.493		-47.03847	
51.81553	2621.171		-46.98451	
51.86963	2618.824		-46.92876	
51.92374	2616.448		-46.87141	
51.97785	2614.043		-46.81268	
52.03196	2611.613		-46.75276	
52.08606	2609.159		-46.69186	
52.14017	2606.679		-46.6302	
52.19427	2604.174		-46.56802	
52.24838	2601.65		-46.50559	
52.30249	2599.118		-46.44321	
52.3566	2596.586		-46.38115	
52.41071	2594.053		-46.31971	
52.46481	2591.519		-46.25914	
52.51892	2588.982		-46.19972	
52.57302	2586.441		-46.14167	
52.62713	2583.894		-46.08522	
52.68124	2581.329		-46.03055	
52.73535	2578.739		-45.97781	
52.78946	2576.119		-45.92704	
52.84356	2573.479		-45.87822	
52.89767	2570.83		-45.83122	
52.95177	2568.187		-45.78587	
53.00588	2565.557		-45.74194	
53.05999	2562.942		-45.69915	
53.1141	2560.337		-45.65717	
53.16821	2557.739		-45.61565	
53.22231	2555.151		-45.57418	
53.27642	2552.575		-45.53238	
53.33053	2550.013		-45.48989	
53.38463	2547.468		-45.44645	
53.43874	2544.943		-45.40177	
53.49285	2542.443		-45.35562	
53.54696	2539.969		-45.30778	
53.60106	2537.517		-45.25802	
53.65517	2535.088		-45.20614	
53.70928	2532.682		-45.15198	
53.76339	2530.296		-45.09538	
53.81749	2527.918		-45.03625	
53.8716	2525.539		-44.97453	
53.9257	2523.15		-44.91019	
53.97981	2520.755		-44.84322	
54.03392	2518.361		-44.77369	
54.08803	2515.979		-44.70171	
54.14214	2513.611		-44.62746	
54.19624	2511.257		-44.55119	
54.25035	2508.919		-44.4732	
54.30445	2506.595		-44.39385	
54.35856	2504.282		-44.31353	
54.41267	2501.971		-44.23268	
54.46678	2499.656		-44.15178	
54.52089	2497.328		-44.0713	
54.57499	2494.987		-43.99171	
54.6291	2492.632		-43.91347	
54.68321	2490.266		-43.83694	
54.73731	2487.888		-43.76247	
54.79142	2485.49		-43.69033	
54.84553	2483.074		-43.62078	
54.89964	2480.644		-43.55407	
54.95374	2478.211		-43.49039	
55.00785	2475.784		-43.42997	
55.06196	2473.377		-43.37297	
55.11607	2471		-43.31955	
55.17017	2468.66		-43.26984	
55.22428	2466.355		-43.22393	
55.27839	2464.083		-43.18189	
55.33249	2461.842		-43.14382	
55.3866	2459.624		-43.10978	
55.44071	2457.421		-43.07985	
55.49482	2455.222		-43.05402	
55.54892	2453.014		-43.03225	
55.60303	2450.791		-43.01441	
55.65714	2448.551		-43.00031	
55.71124	2446.302		-42.98971	
55.76535	2444.049		-42.98236	
55.81946	2441.792		-42.97794	
55.87357	2439.522		-42.97612	
55.92767	2437.233		-42.97654	
55.98178	2434.919		-42.97883	
56.03589	2432.583		-42.98262	
56.08999	2430.229		-42.98753	
56.1441	2427.867		-42.99316	
56.19821	2425.508		-42.99915	
56.25232	2423.154		-43.00511	
56.30642	2420.812		-43.01068	
56.36053	2418.485		-43.0155	
56.41464	2416.174		-43.01921	
56.46875	2413.877		-43.02147	
56.52285	2411.593		-43.02191	
56.57696	2409.314		-43.0202	
56.63107	2407.033		-43.01598	
56.68517	2404.744		-43.00899	
56.73928	2402.441		-42.99894	
56.79339	2400.12		-42.98563	
56.8475	2397.786		-42.96888	
56.9016	2395.443		-42.94853	
56.95571	2393.096		-42.92448	
57.00982	2390.751		-42.89661	
57.06392	2388.416		-42.86484	
57.11803	2386.086		-42.8291	
57.17214	2383.76		-42.78938	
57.22625	2381.439		-42.74569	
57.28035	2379.123		-42.69812	
57.33446	2376.813		-42.6468	
57.38857	2374.506		-42.59193	
57.44267	2372.191		-42.53368	
57.49678	2369.855		-42.47231	
57.55089	2367.478		-42.40805	
57.605	2365.054		-42.34118	
57.6591	2362.583		-42.27197	
57.71321	2360.076		-42.20072	
57.76732	2357.55		-42.12775	
57.82143	2355.017		-42.0534	
57.87553	2352.49		-41.97805	
57.92964	2349.982		-41.90204	
57.98375	2347.502		-41.82571	
58.03785	2345.058		-41.7494	
58.09196	2342.654		-41.67339	
58.14607	2340.296		-41.59794	
58.20018	2337.98		-41.5233	
58.25428	2335.701		-41.44966	
58.30839	2333.453		-41.37718	
58.3625	2331.228		-41.30592	
58.4166	2329.016		-41.23589	
58.47071	2326.808		-41.16701	
58.52482	2324.603		-41.09919	
58.57893	2322.401		-41.03231	
58.63303	2320.202		-40.96629	
58.68714	2318.01		-40.90106	
58.74125	2315.834		-40.83659	
58.79535	2313.684		-40.77284	
58.84946	2311.564		-40.70979	
58.90357	2309.478		-40.64739	
58.95768	2307.427		-40.58558	
59.01178	2305.418		-40.52423	
59.06589	2303.448		-40.46327	
59.12	2301.51		-40.4026	
59.1741	2299.59		-40.34214	
59.22821	2297.671		-40.28186	
59.28232	2295.733		-40.22173	
59.33643	2293.766		-40.16176	
59.39053	2291.765		-40.102	
59.44464	2289.734		-40.04252	
59.49875	2287.677		-39.98344	
59.55286	2285.603		-39.9249	
59.60696	2283.517		-39.86708	
59.66107	2281.429		-39.81025	
59.71518	2279.347		-39.75466	
59.76928	2277.267		-39.70063	
59.82339	2275.182		-39.64845	
59.8775	2273.087		-39.59844	
59.93161	2270.981		-39.55086	
59.98571	2268.864		-39.50593	
60.03982	2266.731		-39.46382	
60.09393	2264.583		-39.42463	
60.14803	2262.418		-39.38836	
60.20214	2260.231		-39.35494	
60.25625	2258.019		-39.32418	
60.31036	2255.783		-39.29579	
60.36446	2253.531		-39.26936	
60.41857	2251.268		-39.24438	
60.47268	2249.005		-39.22028	
60.52678	2246.748		-39.19645	
60.58089	2244.497		-39.17224	
60.635	2242.254		-39.14699	
60.68911	2240.021		-39.12004	
60.74321	2237.795		-39.09073	
60.79732	2235.576		-39.05839	
60.85143	2233.36		-39.02235	
60.90554	2231.14		-38.98196	
60.95964	2228.917		-38.93657	
61.01375	2226.696		-38.88556	
61.06786	2224.483		-38.82835	
61.12196	2222.288		-38.76443	
61.17607	2220.114		-38.69335	
61.23018	2217.963		-38.61469	
61.28429	2215.834		-38.52812	
61.33839	2213.726		-38.43338	
61.3925	2211.638		-38.33033	
61.44661	2209.569		-38.21885	
61.50071	2207.523		-38.09899	
61.55482	2205.5		-37.97085	
61.60893	2203.489		-37.83465	
61.66304	2201.489		-37.69066	
61.71714	2199.493		-37.53922	
61.77125	2197.498		-37.38066	
61.82536	2195.491		-37.2154	
61.87946	2193.466		-37.04383	
61.93357	2191.419		-36.86634	
61.98768	2189.351		-36.68339	
62.04179	2187.265		-36.49539	
62.09589	2185.17		-36.30277	
62.15	2183.075		-36.1059	
62.20411	2180.984		-35.90511	
62.25822	2178.904		-35.7006	
62.31232	2176.836		-35.49253	
62.36643	2174.779		-35.28092	
62.42054	2172.736		-35.06574	
62.47464	2170.702		-34.84687	
62.52875	2168.674		-34.62414	
62.58286	2166.655		-34.39727	
62.63697	2164.652		-34.16592	
62.69107	2162.676		-33.92963	
62.74518	2160.737		-33.68793	
62.79929	2158.842		-33.4402	
62.85339	2156.994		-33.18586	
62.9075	2155.194		-32.92429	
62.96161	2153.441		-32.65481	
63.01572	2151.736		-32.37678	
63.06982	2150.081		-32.08953	
63.12393	2148.476		-31.7924	
63.17804	2146.914		-31.48475	
63.23214	2145.386		-31.16587	
63.28625	2143.88		-30.83517	
63.34036	2142.381		-30.492	
63.39447	2140.875		-30.13581	
63.44857	2139.36		-29.76605	
63.50268	2137.84		-29.38224	
63.55679	2136.315		-28.98392	
63.6109	2134.779		-28.57068	
63.665	2133.228		-28.14212	
63.71911	2131.668		-27.69777	
63.77322	2130.106		-27.23725	
63.82732	2128.546		-26.76016	
63.88143	2126.986		-26.26616	
63.93554	2125.422		-25.75492	
63.98965	2123.848		-25.22613	
64.04375	2122.265		-24.67951	
64.09786	2120.674		-24.11473	
64.15197	2119.079		-23.5314	
64.20608	2117.482		-22.92903	
64.26019	2115.895		-22.30702	
64.31429	2114.333		-21.66474	
64.36839	2112.81		-21.00128	
64.4225	2111.336		-20.31578	
64.47661	2109.915		-19.60734	
64.53072	2108.543		-18.8749	
64.58482	2107.212		-18.11735	
64.63893	2105.915		-17.33349	
64.69304	2104.65		-16.52202	
64.74715	2103.424		-15.6816	
64.80125	2102.25		-14.81081	
64.85536	2101.137		-13.90819	
64.90947	2100.09		-12.97224	
64.96358	2099.109		-12.00149	
65.01768	2098.197		-10.99441	
65.07179	2097.357		-9.949481	
65.1259	2096.586		-8.865246	
65.18	2095.889		-7.740412	
65.23411	2095.269		-6.573322	
65.28822	2094.724		-5.362835	
65.34232	2094.24		-4.107608	
65.39643	2093.809		-2.806493	
65.45054	2093.423		-1.458372	
65.50465	2093.083		-0.062207	
65.55875	2092.79		1.382951	
65.61286	2092.545		2.877964	
65.66697	2092.35		4.423589	
65.72108	2092.211		6.020486	
65.77518	2092.135		7.669238	
65.82929	2092.134		9.370264	
65.8834	2092.218		11.12399	
65.93751	2092.392		12.93077	
65.99162	2092.659		14.79097	
66.04572	2093.024		16.70497	
66.09982	2093.493		18.67295	
66.15393	2094.064		20.6959	
66.20804	2094.727		22.77431	
66.26215	2095.47		24.90884	
66.31625	2096.287		27.10027	
66.37036	2097.177		29.34949	
66.42447	2098.148		31.65745	
66.47858	2099.218		34.02518	
66.53268	2100.406		36.45381	
66.58679	2101.73		38.94457	
66.6409	2103.206		41.49873	
66.69501	2104.847		44.11761	
66.74911	2106.67		46.80262	
66.80322	2108.685		49.5552	
66.85733	2110.894		52.37682	
66.91144	2113.289		55.26905	
66.96554	2115.858		58.23286	
67.01965	2118.595		61.27064	
67.07375	2121.488		64.38335	
67.12786	2124.528		67.57254	
67.18197	2127.715		70.83947	
67.23608	2131.053		74.18535	
67.29018	2134.552		77.61127	
67.34429	2138.225		81.11816	
67.3984	2142.089		84.70684	
67.45251	2146.158		88.37796	
67.50661	2150.441		92.132	
67.56072	2154.939		95.96924	
67.61483	2159.654		99.88977	
67.66894	2164.584		103.8935	
67.72305	2169.735		107.9802	
67.77715	2175.104		112.1497	
67.83126	2180.691		116.4011	
67.88536	2186.491		120.7335	
67.93947	2192.499		125.1473	
67.99358	2198.703		129.6414	
68.04768	2205.094		134.215	
68.10179	2211.668		138.8675	
68.1559	2218.433		143.598	
68.21001	2225.404		148.4057	
68.26411	2232.602		153.2899	
68.31822	2240.048		158.2496	
68.37233	2247.762		163.284	
68.42644	2255.762		168.3921	
68.48055	2264.065		173.573	
68.53465	2272.683		178.8257	
68.58876	2281.624		184.1493	
68.64287	2290.893		189.5428	
68.69698	2300.493		195.0052	
68.75108	2310.431		200.5346	
68.80518	2320.72		206.1314	
68.85929	2331.361		211.7937	
68.9134	2342.352		217.5203	
68.96751	2353.693		223.31	
69.02161	2365.39		229.1611	
69.07572	2377.453		235.0719	
69.12983	2389.899		241.0405	
69.18394	2402.731		247.0644	
69.23804	2415.952		253.1411	
69.29215	2429.563		259.2672	
69.34626	2443.568		265.4394	
69.40037	2457.974		271.6536	
69.45448	2472.787		277.9054	
69.50858	2488.004		284.1897	
69.56269	2503.609		290.501	
69.6168	2519.584		296.8332	
69.6709	2535.913		303.1786	
69.72501	2552.586		309.5319	
69.77911	2569.585		315.8843	
69.83322	2586.9		322.2274	
69.88733	2604.537		328.5525	
69.94144	2622.506		334.8499	
69.99554	2640.82		341.1096	
70.04965	2659.488		347.3214	
70.10376	2678.517		353.474	
70.15787	2697.921		359.5562	
70.21198	2717.711		365.5561	
70.26608	2737.897		371.4615	
70.32019	2758.487		377.2597	
70.3743	2779.482		382.938	
70.42841	2800.882		388.4835	
70.48251	2822.689		393.8827	
70.53661	2844.906		399.1221	
70.59072	2867.547		404.1901	
70.64483	2890.61		409.0726	
70.69894	2914.089		413.7569	
70.75304	2937.977		418.2304	
70.80715	2962.266		422.4811	
70.86126	2986.947		426.4969	
70.91537	3012.011		430.2667	
70.96947	3037.453		433.7795	
71.02358	3063.27		437.025	
71.07769	3089.466		439.9937	
71.1318	3116.036		442.6766	
71.18591	3142.972		445.0655	
71.24001	3170.26		447.1529	
71.29412	3197.893		448.9322	
71.34823	3225.864		450.3973	
71.40234	3254.161		451.5439	
71.45644	3282.764		452.3675	
71.51054	3311.65		452.8657	
71.56465	3340.773		453.0352	
71.61876	3370.088		452.8751	
71.67287	3399.55		452.3848	
71.72697	3429.114		451.5645	
71.78108	3458.738		450.4155	
71.83519	3488.383		448.9395	
71.8893	3518.013		447.1394	
71.94341	3547.594		445.0183	
71.99751	3577.09		442.5805	
72.05162	3606.459		439.8306	
72.10573	3635.658		436.7741	
72.15984	3664.646		433.4171	
72.21394	3693.381		429.7663	
72.26805	3721.821		425.8285	
72.32215	3749.913		421.6131	
72.37626	3777.611		417.1274	
72.43037	3804.849		412.3804	
72.48447	3831.563		407.3819	
72.53858	3857.698		402.142	
72.59269	3883.206		396.6712	
72.6468	3908.051		390.9806	
72.7009	3932.205		385.0814	
72.75501	3955.644		378.9853	
72.80912	3978.351		372.7042	
72.86323	4000.313		366.2503	
72.91734	4021.526		359.6362	
72.97144	4041.99		352.8746	
73.02555	4061.702		345.9787	
73.07966	4080.671		338.9616	
73.13377	4098.899		331.8369	
73.18787	4116.373		324.6195	
73.24197	4133.085		317.3213	
73.29608	4149.025		309.9573	
73.35019	4164.193		302.5418	
73.4043	4178.597		295.0892	
73.4584	4192.262		287.6141	
73.51251	4205.227		280.1308	
73.56662	4217.538		272.6538	
73.62073	4229.238		265.1972	
73.67484	4240.367		257.7751	
73.72894	4250.964		250.4013	
73.78305	4261.067		243.0889	
73.83716	4270.708		235.851	
73.89127	4279.917		228.6999	
73.94537	4288.73		221.6475	
73.99948	4297.185		214.705	
74.05359	4305.313		207.8832	
74.10769	4313.13		201.1926	
74.1618	4320.649		194.6406	
74.2159	4327.875		188.237	
74.27001	4334.818		181.9892	
74.32412	4341.493		175.9043	
74.37823	4347.915		169.9881	
74.43233	4354.108		164.2461	
74.48644	4360.096		158.6823	
74.54055	4365.901		153.3003	
74.59466	4371.537		148.1026	
74.64877	4377.02		143.0907	
74.70287	4382.363		138.2653	
74.75698	4387.585		133.6261	
74.81109	4392.704		129.172	
74.8652	4397.732		124.901	
74.9193	4402.675		120.8106	
74.9734	4407.52		116.8973	
75.02751	4412.251		113.1563	
75.08162	4416.862		109.583	
75.13573	4421.354		106.1726	
75.18983	4425.735		102.919	
75.24394	4430.018		99.81628	
75.29805	4434.219		96.85787	
75.35216	4438.352		94.03716	
75.40627	4442.424		91.34737	
75.46037	4446.444		88.78158	
75.51448	4450.423		86.33282	
75.56859	4454.375		83.99416	
75.6227	4458.312		81.75867	
75.6768	4462.243		79.61956	
75.73091	4466.175		77.57016	
75.78502	4470.103		75.60404	
75.83913	4474.008		73.71481	
75.89323	4477.866		71.89677	
75.94733	4481.661		70.14359	
76.00144	4485.381		68.45013	
76.05555	4489.021		66.81115	
76.10966	4492.576		65.22179	
76.16376	4496.04		63.67753	
76.21787	4499.416		62.17419	
76.27198	4502.713		60.70795	
76.32609	4505.938		59.27533	
76.3802	4509.103		57.87323	
76.4343	4512.222		56.49887	
76.48841	4515.311		55.14983	
76.54252	4518.372		53.82397	
76.59663	4521.396		52.51945	
76.65073	4524.367		51.23467	
76.70484	4527.261		49.96833	
76.75894	4530.059		48.71953	
76.81305	4532.75		47.48709	
76.86716	4535.33		46.27058	
76.92126	4537.804		45.06962	
76.97537	4540.184		43.88405	
77.02948	4542.483		42.71392	
77.08359	4544.708		41.55947	
77.1377	4546.865		40.42115	
77.1918	4548.943		39.29956	
77.24591	4550.933		38.19547	
77.30002	4552.832		37.1098	
77.35413	4554.64		36.04361	
77.40823	4556.362		34.99806	
77.46234	4558.004		33.97442	
77.51645	4559.569		32.97403	
77.57056	4561.063		31.99838	
77.62466	4562.487		31.0489	
77.67876	4563.84		30.12727	
77.73287	4565.118		29.23469	
77.78698	4566.319		28.37289	
77.84109	4567.451		27.54334	
77.8952	4568.523		26.74753	
77.9493	4569.543		25.98684	
78.00341	4570.51		25.26261	
78.05752	4571.424		24.5761	
78.11163	4572.287		23.92854	
78.16573	4573.1		23.32112	
78.21984	4573.859		22.75496	
78.27395	4574.556		22.23112	
78.32806	4575.183		21.7506	
78.38216	4575.74		21.31422	
78.43627	4576.229		20.92274	
78.49038	4576.654		20.57677	
78.54448	4577.022		20.27665	
78.59859	4577.354		20.02261	
78.65269	4577.678		19.81474	
78.7068	4578.016		19.65308	
78.76091	4578.387		19.53731	
78.81502	4578.792		19.46699	
78.86913	4579.219		19.44147	
78.92323	4579.654		19.45996	
78.97734	4580.092		19.52149	
79.03145	4580.536		19.62498	
79.08556	4580.989		19.76926	
79.13966	4581.455		19.95305	
79.19377	4581.932		20.17502	
79.24788	4582.419		20.43374	
79.30199	4582.918		20.72776	
79.35609	4583.432		21.05563	
79.4102	4583.967		21.41575	
79.4643	4584.536		21.80656	
79.51841	4585.157		22.22655	
79.57252	4585.858		22.67414	
79.62663	4586.662		23.14762	
79.68073	4587.58		23.64528	
79.73484	4588.61		24.16538	
79.78895	4589.75		24.70617	
79.84306	4591.002		25.2658	
79.89716	4592.367		25.84239	
79.95127	4593.826		26.43394	
80.00538	4595.352		27.03845	
80.05949	4596.925		27.65383	
80.11359	4598.537		28.278	
80.1677	4600.177		28.90882	
80.22181	4601.838		29.54422	
80.27592	4603.523		30.18212	
80.33002	4605.252		30.82041	
80.38412	4607.048		31.45732	
80.43823	4608.933		32.09082	
80.49234	4610.91		32.71908	
80.54645	4612.984		33.34028	
80.60056	4615.153		33.95264	
80.65466	4617.419		34.55444	
80.70877	4619.781		35.14393	
80.76288	4622.232		35.71941	
80.81699	4624.757		36.27916	
80.87109	4627.329		36.82148	
80.9252	4629.924		37.34468	
80.97931	4632.524		37.84712	
81.03342	4635.113		38.32714	
81.08752	4637.682		38.78313	
81.14163	4640.229		39.2134	
81.19574	4642.758		39.61638	
81.24984	4645.275		39.99036	
81.30395	4647.791		40.33391	
81.35806	4650.313		40.64543	
81.41216	4652.852		40.9236	
81.46627	4655.411		41.16722	
81.52038	4658.001		41.37518	
81.57449	4660.627		41.54651	
81.62859	4663.286		41.68045	
81.6827	4665.956		41.77638	
81.73681	4668.612		41.83386	
81.79092	4671.236		41.85257	
81.84502	4673.824		41.83222	
81.89913	4676.375		41.77261	
81.95324	4678.889		41.67351	
82.00735	4681.373		41.53473	
82.06145	4683.833		41.35603	
82.11555	4686.278		41.13736	
82.16966	4688.714		40.87854	
82.22377	4691.148		40.57944	
82.27788	4693.582		40.24016	
82.33199	4696.024		39.86079	
82.38609	4698.473		39.44155	
82.4402	4700.924		38.9828	
82.49431	4703.371		38.48503	
82.54842	4705.805		37.94888	
82.60252	4708.209		37.37514	
82.65663	4710.574		36.76475	
82.71074	4712.899		36.11874	
82.76485	4715.187		35.43832	
82.81895	4717.439		34.72475	
82.87306	4719.66		33.97939	
82.92717	4721.85		33.20353	
82.98127	4724.011		32.39868	
83.03538	4726.134		31.56585	
83.08949	4728.208		30.70634	
83.14359	4730.22		29.82114	
83.1977	4732.169		28.91114	
83.25181	4734.055		27.97708	
83.30592	4735.875		27.01959	
83.36002	4737.621		26.03928	
83.41413	4739.298		25.03672	
83.46824	4740.904		24.01246	
83.52235	4742.444		22.9671	
83.57645	4743.922		21.90127	
83.63056	4745.343		20.81565	
83.68467	4746.702		19.71101	
83.73878	4747.994		18.58813	
83.79288	4749.208		17.44784	
83.84699	4750.341		16.2909	
83.90109	4751.396		15.11829	
83.9552	4752.379		13.93036	
84.00931	4753.284		12.72787	
84.06342	4754.1		11.51133	
84.11752	4754.817		10.28116	
84.17163	4755.439		9.037683	
84.22574	4755.96		7.781139	
84.27985	4756.375		6.511692	
84.33395	4756.672		5.229432	
84.38806	4756.836		3.934424	
84.44217	4756.855		2.626745	
84.49628	4756.735		1.306528	
84.55038	4756.489		-0.02601325	
84.60449	4756.138		-1.370571	
84.6586	4755.699		-2.726743	
84.71271	4755.188		-4.094028	
84.76681	4754.618		-5.471648	
84.82092	4753.995		-6.859356	
84.87502	4753.32		-8.256274	
84.92913	4752.612		-9.661669	
84.98324	4751.889		-11.07476	
85.03735	4751.159		-12.49474	
85.09145	4750.41		-13.92078	
85.14556	4749.63		-15.35205	
85.19967	4748.803		-16.78769	
85.25378	4747.912		-18.22683	
85.30788	4746.939		-19.66859	
85.36199	4745.878		-21.11209	
85.4161	4744.726		-22.55638	
85.47021	4743.487		-24.00049	
85.52431	4742.178		-25.4434	
85.57842	4740.812		-26.88402	
85.63253	4739.398		-28.32117	
85.68663	4737.935		-29.75338	
85.74074	4736.409		-31.17972	
85.79485	4734.812		-32.59859	
85.84895	4733.136		-34.0085	
85.90306	4731.377		-35.40793	
85.95717	4729.534		-36.79536	
86.01128	4727.596		-38.1693	
86.06538	4725.557		-39.52831	
86.11949	4723.418		-40.87106	
86.1736	4721.184		-42.1963	
86.22771	4718.862		-43.50291	
86.28181	4716.466		-44.78991	
86.33592	4714.003		-46.05647	
86.39003	4711.476		-47.30193	
86.44414	4708.875		-48.52575	
86.49825	4706.19		-49.72749	
86.55235	4703.405		-50.90666	
86.60645	4700.514		-52.06332	
86.66056	4697.514		-53.19715	
86.71467	4694.416		-54.30796	
86.76878	4691.224		-55.39569	
86.82288	4687.937		-56.46023	
86.87699	4684.55		-57.50144	
86.9311	4681.073		-58.51917	
86.98521	4677.512		-59.51325	
87.03931	4673.875		-60.48351	
87.09342	4670.166		-61.42981	
87.14753	4666.38		-62.35206	
87.20164	4662.506		-63.25021	
87.25574	4658.534		-64.12428	
87.30985	4654.45		-64.97431	
87.36396	4650.249		-65.80037	
87.41807	4645.92		-66.60262	
87.47217	4641.469		-67.3811	
87.52628	4636.908		-68.13625	
87.58038	4632.273		-68.86811	
87.63449	4627.601		-69.57691	
87.6886	4622.923		-70.26282	
87.74271	4618.273		-70.92599	
87.79681	4613.681		-71.56654	
87.85092	4609.158		-72.18449	
87.90503	4604.712		-72.77984	
87.95914	4600.333		-73.35247	
88.01324	4596.013		-73.90224	
88.06735	4591.736		-74.42896	
88.12146	4587.486		-74.93245	
88.17557	4583.247		-75.41257	
88.22968	4579.016		-75.8692	
88.28378	4574.789		-76.30235	
88.33788	4570.571		-76.71207	
88.39199	4566.37		-77.09879	
88.4461	4562.207		-77.46282	
88.50021	4558.086		-77.80481	
88.55431	4554.009		-78.12555	
88.60842	4549.961		-78.42601	
88.66253	4545.93		-78.70729	
88.71664	4541.902		-78.9706	
88.77074	4537.866		-79.21719	
88.82485	4533.802		-79.4483	
88.87896	4529.694		-79.6652	
88.93307	4525.533		-79.86914	
88.98717	4521.317		-80.06139	
89.04128	4517.052		-80.24323	
89.09539	4512.751		-80.41597	
89.1495	4508.422		-80.58099	
89.20361	4504.073		-80.73965	
89.25771	4499.72		-80.89336	
89.31181	4495.384		-81.0435	
89.36592	4491.076		-81.19143	
89.42003	4486.8		-81.33849	
89.47414	4482.546		-81.48598	
89.52824	4478.293		-81.63517	
89.58235	4474.017		-81.78722	
89.63646	4469.694		-81.94321	
89.69057	4465.313		-82.10409	
89.74467	4460.863		-82.27059	
89.79878	4456.345		-82.44329	
89.85289	4451.773		-82.62254	
89.907	4447.172		-82.80847	
89.96111	4442.563		-83.00101	
90.01521	4437.957		-83.19987	
90.06932	4433.362		-83.40463	
90.12342	4428.779		-83.61467	
90.17753	4424.208		-83.82934	
90.23164	4419.641		-84.04784	
90.28574	4415.063		-84.26929	
90.33985	4410.461		-84.49284	
90.39396	4405.828		-84.71758	
90.44807	4401.171		-84.94263	
90.50217	4396.502		-85.16719	
90.55628	4391.837		-85.39049	
90.61039	4387.185		-85.61187	
90.6645	4382.551		-85.83075	
90.71861	4377.93		-86.04662	
90.77271	4373.318		-86.25914	
90.82682	4368.705		-86.46802	
90.88093	4364.085		-86.67309	
90.93504	4359.455		-86.87424	
90.98914	4354.818		-87.07145	
91.04324	4350.174		-87.26473	
91.09735	4345.523		-87.45408	
91.15146	4340.855		-87.63949	
91.20557	4336.161		-87.82097	
91.25967	4331.434		-87.99857	
91.31378	4326.672		-88.17234	
91.36789	4321.87		-88.34242	
91.422	4317.033		-88.509	
91.4761	4312.162		-88.67237	
91.53021	4307.258		-88.83289	
91.58432	4302.318		-88.99095	
91.63843	4297.347		-89.14691	
91.69254	4292.343		-89.30112	
91.74664	4287.302		-89.45387	
91.80075	4282.218		-89.60539	
91.85486	4277.104		-89.75592	
91.90896	4271.968		-89.90561	
91.96307	4266.83		-90.0546	
92.01717	4261.708		-90.2029	
92.07128	4256.622		-90.3505	
92.12539	4251.58		-90.49729	
92.1795	4246.591		-90.64312	
92.2336	4241.657		-90.7878	
92.28771	4236.782		-90.93108	
92.34182	4231.954		-91.07269	
92.39593	4227.161		-91.21234	
92.45004	4222.382		-91.33446	
92.50414	4217.605		-91.45357	
92.55825	4212.816		-91.56992	
92.61236	4208.01		-91.68394	
92.66647	4203.177		-91.79604	
92.72057	4198.316		-91.90657	
92.77467	4193.423		-92.01577	
92.82878	4188.501		-92.12389	
92.88289	4183.556		-92.23109	
92.937	4178.6		-92.3375	
92.9911	4173.632		-92.44323	
93.04521	4168.654		-92.54837	
93.09932	4163.662		-92.65301	
93.15343	4158.654		-92.7572	
93.20753	4153.629		-92.86103	
93.26164	4148.587		-92.96454	
93.31575	4143.519		-93.06778	
93.36986	4138.424		-93.17078	
93.42397	4133.304		-93.27361	
93.47807	4128.17		-93.37627	
93.53218	4123.025		-93.4788	
93.58629	4117.881		-93.58122	
93.6404	4112.748		-93.68357	
93.6945	4107.628		-93.78584	
93.7486	4102.526		-93.88807	
93.80271	4097.448		-93.99027	
93.85682	4092.384		-94.09247	
93.91093	4087.319		-94.19465	
93.96503	4082.235		-94.29684	
94.01914	4077.12		-94.39903	
94.07325	4071.975		-94.50123	
94.12736	4066.713		-94.60342	
94.18147	4061.483		-94.70559	
94.23557	4056.288		-94.80774	
94.28968	4051.117		-94.90985	
94.34379	4045.963		-95.01192	
94.3979	4040.82		-95.11392	
94.452	4035.684		-95.21586	
94.50611	4030.549		-95.31771	
94.56021	4025.415		-95.41945	
94.61432	4020.276		-95.5211	
94.66843	4015.132		-95.62263	
94.72253	4009.982		-95.72404	
94.77664	4004.824		-95.82532	
94.83075	3999.657		-95.92645	
94.88486	3994.482		-96.02744	
94.93896	3989.301		-96.12827	
94.99307	3984.117		-96.22896	
