T[Â°C]	330nm [counts / mm]	S.D.
20.00049	5004.644	
20.00066	5002.125	
20.00393	4997.673	
20.00711	5005.5	
20.018	4994.3	
20.02441	5002.361	
20.04451	4989.906	
20.05334	5002.894	
20.07739	4997.49	
20.08927	4995.985	
20.12101	5001.571	
20.13425	4987.348	
20.17005	4987.991	
20.1864	5000.704	
20.22899	4987.317	
20.24706	4990.462	
20.29489	4987.885	
20.3152	4989.812	
20.36734	4985.271	
20.38981	4978.22	
20.44622	4971.718	
20.46983	4979.567	
20.53317	4966.424	
20.55885	4960.474	
20.62278	4958.18	
20.65009	4971.488	
20.71779	4943.33	
20.74589	4952.602	
20.81898	4927.011	
20.84905	4937.134	
20.92307	4933.022	
20.95287	4929.417	
21.0278	4920.641	
21.05799	4929.408	
21.13617	4920.941	
21.16779	4917.092	
21.24558	4911.924	
21.27673	4905.67	
21.35343	4906.427	
21.3852	4901.8	
21.46551	4888.13	
21.49789	4890.648	
21.57413	4875.503	
21.6053	4879.932	
21.68278	4892.181	
21.71636	4883.361	
21.79325	4880.078	
21.82496	4878.18	
21.90043	4865.598	
21.93182	4872.335	
22.01213	4856.489	
22.04432	4869.187	
22.12264	4855.289	
22.15325	4851.703	
22.23158	4852.723	
22.26352	4840.951	
22.34044	4838.167	
22.37217	4838.073	
22.451	4817.562	
22.48338	4832.504	
22.55791	4804.652	
22.58917	4811.827	
22.66824	4806.345	
22.6992	4811.118	
22.77797	4807.224	
22.8097	4802.06	
22.88771	4795.762	
22.9185	4778.823	
22.99779	4776.771	
23.03003	4786.622	
23.1067	4772.35	
23.13723	4780.777	
23.216	4782.302	
23.24864	4777.574	
23.32754	4770.492	
23.35859	4777.1	
23.43468	4764.639	
23.46642	4757.756	
23.54503	4748.425	
23.57661	4750.069	
23.65357	4740.941	
23.68497	4755.209	
23.76483	4747.749	
23.79658	4733.979	
23.87312	4736.056	
23.90528	4722.165	
23.98239	4732.872	
24.01509	4721.989	
24.09283	4728.644	
24.124	4729.974	
24.1995	4719.185	
24.23126	4705.23	
24.31053	4691.892	
24.3419	4706.195	
24.42068	4688.335	
24.45211	4689.456	
24.53	4676.399	
24.56092	4686.423	
24.63789	4685.271	
24.67057	4673.825	
24.7499	4662.36	
24.78127	4665.552	
24.85916	4665.234	
24.89147	4658.329	
24.96768	4664.938	
24.99916	4644.715	
25.07598	4646.529	
25.1096	4642.553	
25.18643	4647.897	
25.22021	4640.079	
25.2953	4635.784	
25.32706	4634.879	
25.40486	4632.328	
25.43842	4629.637	
25.51521	4625.27	
25.54686	4612.192	
25.62446	4610.185	
25.65675	4611.556	
25.73326	4618.195	
25.76552	4619.79	
25.84464	4599.175	
25.87528	4599.725	
25.95329	4590.827	
25.98466	4591.707	
26.06215	4580.618	
26.09355	4586.648	
26.17178	4570.439	
26.20428	4570.613	
26.282	4579.409	
26.31478	4557.389	
26.39217	4553.097	
26.42422	4554.943	
26.49959	4541.951	
26.53017	4550.042	
26.61251	4543.496	
26.64731	4536.04	
26.7285	4547.517	
26.76001	4537.636	
26.8353	4526.024	
26.86735	4536.176	
26.9456	4530.289	
26.97718	4528.257	
27.05617	4510.928	
27.08784	4535.899	
27.16486	4511.137	
27.19552	4507.319	
27.27312	4501.413	
27.30494	4506.533	
27.38367	4500.829	
27.41517	4490.961	
27.49307	4486.396	
27.52426	4501.808	
27.60318	4489.261	
27.63529	4480.937	
27.71425	4480.142	
27.74581	4474.661	
27.82054	4468.034	
27.85252	4475.186	
27.93028	4466.829	
27.96199	4460.61	
28.04129	4451.266	
28.07469	4468.946	
28.15051	4444.33	
28.18186	4448.153	
28.259	4441.568	
28.2903	4446.611	
28.3664	4422.324	
28.3986	4432.958	
28.47929	4428.753	
28.51223	4433.558	
28.58862	4424.788	
28.61926	4408.369	
28.69742	4421.181	
28.72891	4411.199	
28.80816	4408.873	
28.84069	4405.43	
28.91674	4410.761	
28.94781	4402.297	
29.02508	4407.506	
29.05723	4406.125	
29.13624	4377.996	
29.16842	4378.374	
29.24504	4387.621	
29.27581	4378.282	
29.35289	4377.016	
29.38475	4377.619	
29.46393	4369.9	
29.49597	4363.982	
29.57548	4362.839	
29.60669	4360.77	
29.68304	4350.815	
29.71415	4350.259	
29.79116	4347.506	
29.82326	4342.883	
29.90135	4345.582	
29.93314	4330.549	
30.00984	4333.633	
30.04123	4340.566	
30.12019	4322.593	
30.15213	4317.027	
30.22917	4309.837	
30.26007	4319.844	
30.33747	4317.942	
30.36912	4307.479	
30.44678	4309.716	
30.47967	4290.814	
30.55708	4289.526	
30.58867	4285.886	
30.66811	4287.877	
30.69993	4290.6	
30.77679	4285.146	
30.80893	4281.788	
30.88573	4277.392	
30.91823	4271.137	
30.99519	4282.977	
31.02711	4263.374	
31.10505	4268.142	
31.13984	4275.044	
31.21856	4253.724	
31.25174	4269.134	
31.32732	4232.853	
31.36205	4250.802	
31.44	4246.966	
31.47166	4233.952	
31.54868	4229.492	
31.58008	4235.353	
31.66128	4227.712	
31.69292	4232.262	
31.76936	4215.569	
31.80168	4208.514	
31.87828	4223.53	
31.9103	4219.012	
31.98939	4213.06	
32.02065	4199.767	
32.10119	4207.004	
32.13415	4196.858	
32.21258	4193.588	
32.24328	4192.852	
32.31886	4181.651	
32.35201	4202.951	
32.43032	4179.396	
32.46195	4178.195	
32.53856	4178.011	
32.57156	4181.306	
32.6486	4158.023	
32.68043	4164.807	
32.75979	4168.415	
32.79409	4164.763	
32.87234	4161.934	
32.90411	4146.707	
32.97893	4144.715	
33.01165	4144.178	
33.08799	4148.422	
33.11968	4132.393	
33.20061	4139.762	
33.23373	4138.29	
33.31083	4135.158	
33.3424	4115.745	
33.41809	4120.487	
33.45221	4107.423	
33.52999	4111.697	
33.5625	4099.958	
33.64191	4108.344	
33.67545	4103.382	
33.75059	4103.581	
33.78073	4103.985	
33.86026	4103.424	
33.89289	4100.416	
33.9702	4081.275	
34.00142	4094.572	
34.08084	4076.281	
34.11251	4077.565	
34.18878	4067.305	
34.21936	4078.696	
34.29803	4069.878	
34.33104	4066.028	
34.4078	4067.744	
34.43858	4060.573	
34.51626	4050.874	
34.54971	4069.016	
34.62387	4049.676	
34.6553	4042.114	
34.73521	4036.624	
34.76668	4048.544	
34.8455	4036.915	
34.87622	4031.303	
34.95411	4027.777	
34.98556	4023.793	
35.06276	4020.684	
35.0934	4019.863	
35.17183	4021.045	
35.20381	4020.175	
35.28572	4012.977	
35.3181	3998.763	
35.39487	4009.312	
35.42616	4004.103	
35.50482	4003.414	
35.53675	4003.149	
35.61408	3988.461	
35.64577	3987.104	
35.72477	3990.389	
35.75737	3971.123	
35.83338	3982.436	
35.8658	3977.008	
35.94226	3976.301	
35.97344	3960.1	
36.05155	3955.453	
36.08402	3960.36	
36.16055	3960.521	
36.19093	3947.393	
36.26839	3954.211	
36.29927	3951.312	
36.37748	3952.56	
36.41335	3941.709	
36.49113	3937.551	
36.52235	3938.069	
36.60032	3931.817	
36.6323	3929.676	
36.70821	3914.437	
36.74004	3913.29	
36.81914	3922.73	
36.85101	3912.408	
36.92735	3914.629	
36.95906	3903.625	
37.03751	3896.017	
37.07039	3899.626	
37.1475	3898.887	
37.17891	3891.781	
37.25634	3893.092	
37.2881	3889.686	
37.36652	3894.772	
37.40162	3882.343	
37.47762	3883.193	
37.50847	3880.009	
37.59265	3869.956	
37.62497	3876.843	
37.70141	3869.911	
37.73349	3865.666	
37.8084	3869.935	
37.84119	3859.009	
37.92422	3867.122	
37.95606	3858.959	
38.03418	3859.481	
38.06534	3856.841	
38.14169	3840.708	
38.17303	3850.846	
38.25274	3841.369	
38.28453	3844.623	
38.36104	3831.452	
38.39374	3831.381	
38.47156	3836.221	
38.50292	3817.346	
38.57928	3815.795	
38.61039	3821.477	
38.69022	3807.222	
38.72176	3804.092	
38.79847	3811.706	
38.83059	3795.685	
38.9099	3804.302	
38.94079	3798.004	
39.01766	3793.958	
39.04921	3785.678	
39.12711	3780.03	
39.15844	3785.567	
39.23569	3777.958	
39.2687	3767.646	
39.34519	3772.204	
39.37627	3775.259	
39.45597	3763.925	
39.48691	3762.239	
39.56469	3757.183	
39.59685	3754.667	
39.67568	3766.408	
39.70691	3759.036	
39.78405	3753.429	
39.8158	3741.199	
39.89491	3746.702	
39.92546	3738.79	
40.00216	3739.17	
40.0373	3733.569	
40.11728	3732.563	
40.14817	3727.141	
40.22784	3718.64	
40.25934	3722.472	
40.33813	3712.63	
40.37329	3715.441	
40.45166	3703.158	
40.48302	3706.403	
40.56462	3705.019	
40.59666	3706.907	
40.67491	3705.049	
40.70892	3694.999	
40.78732	3694.395	
40.81905	3693.535	
40.89616	3703.394	
40.92757	3678.285	
41.00641	3688.361	
41.04081	3678.483	
41.12038	3684.374	
41.15153	3667.738	
41.22712	3679.745	
41.25855	3665.811	
41.33754	3675.533	
41.36957	3669.078	
41.44746	3667.873	
41.47874	3667.921	
41.55688	3653.614	
41.59135	3664.502	
41.66959	3648.965	
41.70283	3657.88	
41.77904	3638.857	
41.81091	3640.111	
41.88806	3638.599	
41.9186	3628.824	
41.99876	3627.657	
42.03069	3621.072	
42.10789	3618.445	
42.14028	3610.671	
42.21768	3613.355	
42.25037	3613.066	
42.32642	3614.219	
42.35734	3606.108	
42.43393	3608.926	
42.4655	3597.893	
42.54398	3600.32	
42.57638	3587.122	
42.65572	3591.844	
42.68675	3586.648	
42.76414	3590.6	
42.79626	3594.012	
42.87355	3583.184	
42.90514	3580.668	
42.98197	3570.292	
43.01414	3562.127	
43.09103	3558.831	
43.12322	3560.432	
43.19935	3557.544	
43.23257	3570.223	
43.31126	3559.802	
43.3436	3546.567	
43.42195	3553.381	
43.45213	3550.134	
43.528	3539.771	
43.56018	3537.08	
43.63927	3545.689	
43.67102	3534.091	
43.75023	3531.819	
43.78133	3528.279	
43.85757	3515.027	
43.89006	3522.918	
43.96721	3515.041	
44.00103	3519.976	
44.07685	3516.534	
44.10777	3513.04	
44.18658	3502.506	
44.21767	3513.841	
44.2956	3491.313	
44.3283	3498.131	
44.40546	3501.144	
44.43729	3492.337	
44.51517	3487.234	
44.54617	3479.635	
44.62399	3489.924	
44.65571	3477.951	
44.73228	3487.126	
44.76396	3485.79	
44.84148	3473.274	
44.87453	3484.586	
44.95182	3480.693	
44.98327	3466.969	
45.06116	3466.451	
45.09212	3473.772	
45.17083	3460.347	
45.20177	3459.182	
45.28122	3447.858	
45.3145	3454.644	
45.39106	3451.4	
45.42339	3441.842	
45.49924	3443.065	
45.53131	3438.319	
45.60898	3433.957	
45.64018	3421.139	
45.71804	3418.17	
45.74997	3421.881	
45.82827	3423.536	
45.85989	3410.329	
45.93768	3415.678	
45.96893	3415.283	
46.04666	3420.101	
46.07826	3413.287	
46.15607	3409.469	
46.18734	3400.932	
46.26536	3395.581	
46.29595	3387.514	
46.37333	3391.33	
46.40499	3400.448	
46.48267	3395.586	
46.51417	3372.562	
46.59199	3384.04	
46.62419	3377.983	
46.70443	3374.542	
46.73567	3377.53	
46.81206	3372.606	
46.84426	3358.303	
46.92178	3372.489	
46.95385	3368.108	
47.03188	3349.244	
47.06295	3351.515	
47.14081	3361.282	
47.17303	3347.372	
47.24897	3354.315	
47.28194	3337.453	
47.35932	3338.485	
47.39141	3333.679	
47.46849	3335.136	
47.50042	3332.211	
47.5774	3323.862	
47.60961	3315.25	
47.68913	3322.86	
47.72058	3316.165	
47.79688	3320.162	
47.83023	3320.812	
47.90704	3324.018	
47.93954	3318.469	
48.01586	3316.146	
48.04764	3300.644	
48.12523	3315.418	
48.15746	3297.295	
48.2355	3298.43	
48.26698	3293.304	
48.34437	3288.544	
48.37625	3285.36	
48.45279	3273.011	
48.48419	3281.198	
48.56262	3283.452	
48.59513	3275.676	
48.67269	3284.557	
48.70445	3275.982	
48.78036	3277.968	
48.81202	3278.438	
48.89102	3260.989	
48.92255	3260.942	
49.00116	3265.532	
49.03268	3269.333	
49.11035	3255.91	
49.14237	3251.263	
49.22052	3247.518	
49.25214	3246.593	
49.3303	3246.968	
49.36236	3247.416	
49.43867	3239.477	
49.47063	3239.585	
49.5481	3232.202	
49.5793	3224.17	
49.65722	3237.155	
49.69062	3230.405	
49.7679	3220.479	
49.79987	3220.646	
49.87823	3226.7	
49.90926	3212.988	
49.98706	3220.81	
50.01876	3213.861	
50.09776	3209.478	
50.12886	3201.322	
50.20509	3205.425	
50.23703	3202.001	
50.31648	3204.025	
50.34803	3192.262	
50.42472	3191.135	
50.45612	3182.495	
50.53415	3183.824	
50.56552	3185.601	
50.64451	3178.09	
50.67701	3179.414	
50.75335	3176.89	
50.78485	3170.246	
50.86456	3162.614	
50.89637	3166.548	
50.97366	3164.378	
51.00478	3143.941	
51.08146	3162.761	
51.11448	3158.133	
51.19312	3166.437	
51.22448	3147.943	
51.30327	3146.909	
51.33446	3137.476	
51.41204	3136.328	
51.44379	3142.525	
51.51983	3140.524	
51.55039	3127.128	
51.63033	3146.549	
51.66238	3125.197	
51.74066	3121.15	
51.77216	3124.166	
51.85061	3120.998	
51.88296	3111.349	
51.96022	3113.551	
51.99027	3110.042	
52.06766	3112.753	
52.09965	3114.5	
52.17704	3112.92	
52.20873	3103.836	
52.29199	3108.094	
52.32361	3089.581	
52.4035	3098.892	
52.43485	3092.009	
52.51146	3091.498	
52.54678	3088.272	
52.62815	3077.682	
52.6594	3087.298	
52.73631	3081.78	
52.77002	3075.801	
52.848	3082.027	
52.87989	3070.085	
52.95847	3070.335	
52.98957	3068.939	
53.06853	3060.396	
53.10006	3054.979	
53.18089	3064.947	
53.21217	3049.859	
53.29395	3059.855	
53.32656	3048.77	
53.40334	3051.14	
53.43504	3043.169	
53.51345	3039.725	
53.54563	3044.9	
53.62357	3032.582	
53.65422	3015.124	
53.73585	3041.913	
53.76805	3027.374	
53.85057	3030.421	
53.88345	3021.442	
53.95864	3018.486	
53.98943	3014.307	
54.06938	3012.773	
54.10522	3010.5	
54.18317	3006.118	
54.21769	3008.033	
54.29614	3012.13	
54.3296	2998.041	
54.40535	3005.002	
54.44107	2991.722	
54.5186	2996.627	
54.55054	2992.263	
54.62803	2993.831	
54.66008	2984.85	
54.73792	2986.543	
54.77047	2981.179	
54.84746	2987.979	
54.87879	2979.767	
54.95742	2973.383	
54.98833	2971.503	
55.06536	2959.521	
55.09846	2965.258	
55.17563	2961.74	
55.20872	2958.881	
55.28666	2960.139	
55.31886	2958.806	
55.39341	2960.935	
55.42478	2944.348	
55.50414	2941.717	
55.53638	2945.77	
55.6141	2947.31	
55.64579	2944.151	
55.7237	2947.46	
55.75878	2941.632	
55.83659	2947.471	
55.87097	2935.584	
55.94859	2940.319	
55.98071	2928.463	
56.06417	2928.248	
56.09509	2919.998	
56.17505	2919.162	
56.20776	2926.161	
56.28624	2919.812	
56.31676	2911.824	
56.39738	2906.788	
56.42933	2903.527	
56.51307	2905.491	
56.54479	2892.646	
56.62184	2896.844	
56.65599	2893.767	
56.73319	2897.636	
56.766	2883.552	
56.84375	2895.86	
56.87606	2894.053	
56.95596	2888.167	
56.98629	2877.966	
57.06498	2890.567	
57.09558	2880.47	
57.1737	2875.787	
57.20889	2871.199	
57.28632	2860.921	
57.32096	2867.229	
57.40013	2869.34	
57.43201	2854.846	
57.50796	2859.722	
57.53925	2851.995	
57.61875	2857.99	
57.65025	2851.015	
57.72803	2843.257	
57.75926	2838.477	
57.83749	2855.614	
57.8718	2838.285	
57.95109	2846.533	
57.98214	2835.031	
58.06287	2830.167	
58.09531	2832.121	
58.17582	2837.74	
58.20723	2826.437	
58.28353	2827.916	
58.31676	2815.761	
58.39367	2830.651	
58.42522	2818.026	
58.50189	2817.465	
58.53342	2802.206	
58.61204	2815.184	
58.64413	2803.241	
58.72322	2802.911	
58.75465	2787.916	
58.83092	2799.126	
58.86254	2796.792	
58.94032	2803.486	
58.97263	2780.311	
59.05159	2793.025	
59.08258	2799.163	
59.15909	2787.415	
59.19038	2791.978	
59.26868	2783.641	
59.30115	2778.269	
59.37916	2776.251	
59.40983	2768.84	
59.4852	2778.93	
59.51987	2774.277	
59.59961	2770.838	
59.63073	2763.464	
59.70664	2767.218	
59.73817	2756.574	
59.81671	2764.063	
59.84899	2755.763	
59.92728	2763.298	
59.95877	2754.099	
60.03524	2751.27	
60.06729	2745.312	
60.14397	2750.981	
60.17604	2741.725	
60.25504	2753.458	
60.28644	2736.478	
60.36382	2736.918	
60.39567	2740.446	
60.47345	2732.254	
60.50569	2726.55	
60.58381	2724.539	
60.61446	2717.913	
60.69398	2721.458	
60.72583	2708.62	
60.80313	2720.455	
60.83488	2717.935	
60.91214	2717.171	
60.94374	2707.412	
61.02085	2712.201	
61.05275	2708.036	
61.13235	2711.011	
61.16391	2697.005	
61.24025	2698.103	
61.27186	2693.547	
61.35093	2696.212	
61.38281	2694.229	
61.45799	2684.41	
61.49087	2685.221	
61.57176	2679.384	
61.60284	2682.489	
61.6797	2683.873	
61.7114	2671.058	
61.78741	2680.435	
61.81905	2677.188	
61.90038	2681.208	
61.93201	2662.764	
62.00858	2679.899	
62.04111	2672.575	
62.11736	2666.811	
62.14839	2660.404	
62.22655	2658.991	
62.25761	2649.669	
62.34118	2664.369	
62.37364	2647.475	
62.45009	2653.82	
62.48169	2642.406	
62.55857	2641.912	
62.58997	2637.057	
62.66886	2644.717	
62.70095	2636.749	
62.77946	2642.733	
62.81089	2636.023	
62.88813	2637.177	
62.9203	2635.616	
62.99839	2633.382	
63.03083	2631.577	
63.10833	2619.976	
63.13954	2630.187	
63.21692	2627.303	
63.24852	2618.682	
63.3292	2621.163	
63.3617	2615.968	
63.44055	2614.968	
63.47223	2607.957	
63.54893	2619.064	
63.58071	2606.794	
63.65919	2608.16	
63.69117	2608.25	
63.7697	2607.531	
63.80184	2602.209	
63.87964	2600.306	
63.91174	2598.1	
63.98703	2591.976	
64.01825	2588.641	
64.09698	2604.189	
64.13145	2591.755	
64.21106	2591.694	
64.24286	2591.576	
64.3199	2587.886	
64.35155	2587.845	
64.42983	2588.066	
64.46114	2577.691	
64.5383	2579.795	
64.56982	2572.751	
64.64835	2580.586	
64.68333	2573.408	
64.76259	2581.432	
64.79341	2570.88	
64.87386	2572.557	
64.90701	2569.507	
64.98458	2565.372	
65.0183	2562.798	
65.09818	2581.321	
65.12944	2557.698	
65.20824	2562.242	
65.24297	2563.057	
65.32206	2559.578	
65.35495	2557.552	
65.43166	2556.107	
65.46219	2555.925	
65.53925	2569.933	
65.57472	2546.372	
65.65516	2571.602	
65.68906	2559.165	
65.76543	2571.789	
65.79697	2565.117	
65.87914	2567.271	
65.91112	2567.323	
65.98947	2566.913	
66.02087	2557.154	
66.10388	2566.636	
66.13554	2557.949	
66.21183	2567.232	
66.24411	2559.874	
66.32217	2565.158	
66.35402	2559.42	
66.4322	2571.915	
66.46345	2564.517	
66.54	2575.931	
66.57194	2569.069	
66.65093	2573.513	
66.68351	2578.591	
66.76028	2586.071	
66.79465	2578.144	
66.87177	2590.683	
66.90347	2587.777	
66.98663	2597.256	
67.02425	2589.349	
67.09994	2591.216	
67.13131	2597.314	
67.21273	2602.617	
67.24521	2603.517	
67.32552	2616.363	
67.3575	2610.312	
67.43728	2630.16	
67.47267	2623.909	
67.54981	2639.226	
67.58012	2633.598	
67.66173	2651.32	
67.69444	2640.968	
67.77296	2657.783	
67.80741	2654.197	
67.88455	2674.39	
67.91622	2673.013	
67.99898	2680.736	
68.03146	2683.043	
68.10636	2695.95	
68.14117	2703.07	
68.22179	2723.891	
68.25356	2723.053	
68.3305	2731.879	
68.36234	2735.119	
68.4445	2750.635	
68.47562	2755.558	
68.55342	2774.274	
68.58815	2777.046	
68.66764	2799.968	
68.70047	2792.099	
68.77946	2829.373	
68.81055	2829.346	
68.89301	2849.491	
68.92679	2853.192	
69.00278	2868.529	
69.03407	2878.504	
69.11214	2911.092	
69.14622	2901.738	
69.22481	2942.706	
69.25552	2939.422	
69.33649	2965.594	
69.37086	2972.624	
69.44798	3002.634	
69.48011	3008.714	
69.55615	3036.117	
69.58774	3048.933	
69.66681	3093.775	
69.69881	3086.141	
69.77584	3124.451	
69.80855	3130.278	
69.88634	3164.764	
69.9191	3171.449	
69.99617	3212.392	
70.02837	3210.922	
70.10584	3265.509	
70.13881	3270.171	
70.21509	3307.449	
70.25044	3312.654	
70.32853	3351.131	
70.36237	3364.268	
70.4409	3412.18	
70.47237	3416.21	
70.55096	3470.168	
70.58561	3472.609	
70.66335	3524.399	
70.69697	3531.865	
70.77731	3593.416	
70.81224	3595.545	
70.89096	3648.673	
70.92242	3660.182	
71.00463	3723.309	
71.03793	3718.693	
71.11292	3784.516	
71.14542	3797.398	
71.22621	3852.33	
71.26208	3866.192	
71.34091	3916.685	
71.37217	3936.204	
71.45352	4008.381	
71.48598	4012.668	
71.56144	4070.233	
71.59515	4089.998	
71.67636	4152.758	
71.70937	4165.229	
71.78648	4242.083	
71.81777	4243.793	
71.89849	4321.444	
71.93243	4336.242	
72.01108	4404.734	
72.0432	4418.826	
72.12218	4486.887	
72.15707	4500.164	
72.23552	4572.739	
72.26628	4585.069	
72.34243	4654.785	
72.37737	4671.188	
72.4572	4724.246	
72.48888	4733.119	
72.56697	4803.542	
72.6018	4810.718	
72.67945	4881.641	
72.71061	4874.953	
72.79006	4930.419	
72.82577	4930.538	
72.90327	4999.446	
72.9341	4992.955	
73.01186	5028.676	
73.04634	5045.054	
73.12524	5092.26	
73.15677	5094.804	
73.2368	5148.247	
73.27137	5125.481	
73.34808	5188.152	
73.37943	5176.668	
73.45751	5215.708	
73.49279	5207.571	
73.57139	5255.827	
73.60159	5238.003	
73.68028	5273.518	
73.71232	5260.114	
73.79294	5306.77	
73.82641	5292	
73.90416	5333.067	
73.936	5320.226	
74.01257	5352.193	
74.04829	5320.768	
74.12724	5353.17	
74.15814	5334.82	
74.23584	5387.645	
74.26755	5354.759	
74.34818	5407.667	
74.38118	5376.217	
74.45885	5429.526	
74.49021	5398.895	
74.56899	5429.53	
74.5996	5407.95	
74.68037	5444.24	
74.7121	5418.03	
74.79069	5456.371	
74.82227	5444.324	
74.90356	5467.049	
74.93877	5441.735	
75.01628	5487.644	
75.04838	5449.773	
75.12689	5476.064	
75.15891	5458.561	
75.23595	5487.475	
75.27077	5467.911	
75.34819	5503.646	
75.37971	5481.736	
75.45956	5502.16	
75.4945	5491.767	
75.57271	5524.377	
75.60396	5515.574	
75.68168	5540.599	
75.71385	5516.097	
75.79337	5534.165	
75.82922	5521.698	
75.91019	5547.148	
75.94147	5540.047	
76.0187	5554.387	
76.05046	5538.06	
76.12947	5554.415	
76.16402	5543.916	
76.24474	5575.326	
76.27731	5545.129	
76.35526	5586.803	
76.38594	5553.701	
76.46518	5581.895	
76.4978	5558.722	
76.57768	5606.36	
76.61145	5568.714	
76.69036	5599.848	
76.7223	5565.509	
76.80138	5606.935	
76.83276	5584.795	
76.91151	5595.832	
76.94623	5589.592	
77.02374	5615.161	
77.05594	5595.23	
77.13335	5624.824	
77.16386	5597.045	
77.24284	5606.714	
77.27502	5600.549	
77.35319	5617.495	
77.38453	5607.777	
77.46485	5628.182	
77.4974	5602.1	
77.57567	5622.271	
77.60706	5614.158	
77.68874	5624.099	
77.72211	5595.5	
77.80051	5645.352	
77.83286	5608.694	
77.91148	5626.776	
77.94545	5618.978	
78.0211	5623.321	
78.05592	5608.104	
78.13837	5635.127	
78.17084	5615.171	
78.24887	5636.578	
78.2804	5616.538	
78.35777	5635.59	
78.38988	5625.629	
78.47014	5631.038	
78.50523	5607.235	
78.58316	5623.685	
78.61481	5606.092	
78.69391	5637.702	
78.72424	5607.595	
78.80332	5635.327	
78.83985	5609.042	
78.91827	5625.968	
78.94907	5610.399	
79.02744	5627.65	
79.05916	5602.679	
79.1349	5635.55	
79.17037	5596.011	
79.24712	5624.039	
79.28165	5594.399	
79.36384	5627.75	
79.39599	5597.126	
79.47225	5628.587	
79.50343	5609.445	
79.58373	5643.273	
79.61912	5606.394	
79.69576	5627.968	
79.72598	5602.5	
79.80556	5643.22	
79.83749	5605.057	
79.91639	5637.718	
79.94849	5597.492	
80.02631	5628.844	
80.0574	5608.793	
80.13432	5628.411	
80.16539	5607.902	
80.24539	5629.722	
80.2773	5608.468	
80.35468	5644.615	
80.38586	5617.082	
80.46389	5629.179	
80.49683	5624.029	
80.57401	5639.99	
80.60545	5627.811	
80.68333	5661.303	
80.71451	5634.481	
80.79234	5657.632	
80.82397	5632.642	
80.90118	5649.867	
80.93288	5627.611	
81.01054	5654.379	
81.04267	5627.357	
81.12079	5663.912	
81.15173	5652.202	
81.22964	5672.687	
81.26122	5633.101	
81.33886	5678.881	
81.37068	5638.853	
81.45125	5683.183	
81.48284	5650.442	
81.55784	5689.713	
81.58996	5643.328	
81.67097	5685.516	
81.7018	5656.135	
81.77857	5693.297	
81.81028	5652.71	
81.88877	5693.529	
81.91954	5672.008	
81.99651	5700.667	
82.0296	5662.266	
82.10909	5680.082	
82.14022	5660.361	
82.21504	5668.939	
82.24701	5661.207	
82.32549	5691.149	
82.35723	5671.156	
82.43523	5707.679	
82.46733	5668.104	
82.54771	5687.305	
82.57979	5680.95	
82.65576	5710.845	
82.68703	5673.552	
82.76556	5705.435	
82.79728	5682.414	
82.87573	5713.759	
82.90611	5690.49	
82.98388	5715.135	
83.01617	5691.06	
83.09357	5721.859	
83.12435	5688.597	
83.20173	5731.725	
83.23422	5683.646	
83.31371	5719.001	
83.3447	5689.169	
83.4234	5725.111	
83.45545	5690.945	
83.53332	5716.583	
83.56524	5685.35	
83.64039	5709.115	
83.67184	5698.376	
83.75208	5735.481	
83.78386	5714.629	
83.86053	5731.643	
83.89188	5710.275	
83.97188	5724.714	
84.00381	5698.745	
84.08138	5729.253	
84.11182	5690.667	
84.18851	5721.862	
84.22004	5694.791	
84.29982	5738.616	
84.33145	5702.484	
84.40919	5727.6	
84.4411	5689.926	
84.51971	5721.482	
84.55127	5701.844	
84.62977	5733.352	
84.66134	5689.453	
84.73873	5735.333	
84.77022	5687.547	
84.84735	5713.976	
84.8791	5692.961	
84.95924	5712.938	
84.99052	5687.044	
85.06773	5722.455	
85.09895	5671.395	
85.17592	5707.938	
85.20804	5674.648	
85.28564	5691.153	
85.31702	5669.325	
85.39568	5690.438	
85.42789	5677.402	
85.50739	5694.694	
85.538	5657.601	
85.61354	5692.368	
85.64515	5653.134	
85.72489	5672.888	
85.75602	5655.896	
85.83263	5697.031	
85.86376	5650.562	
85.9425	5673.483	
85.97485	5641.876	
86.05315	5665.753	
86.08449	5636.207	
86.16264	5666.928	
86.19445	5628.361	
86.27197	5656.597	
86.3037	5620.809	
86.38153	5647.719	
86.4133	5600.094	
86.49068	5640.469	
86.52227	5606.579	
86.6008	5619.135	
86.63248	5590.058	
86.71012	5625.107	
86.7416	5581.473	
86.8194	5623.986	
86.85127	5574.292	
86.92879	5609.614	
86.9603	5583.439	
87.04052	5600.245	
87.07236	5568.218	
87.14881	5590.698	
87.18046	5558.367	
87.25998	5565.402	
87.29299	5558.6	
87.36982	5557.737	
87.40031	5525.622	
87.47683	5565.191	
87.50861	5524.384	
87.58853	5540.01	
87.62047	5513.045	
87.69611	5536.906	
87.72699	5508.245	
87.80637	5521.646	
87.83832	5494.417	
87.9158	5519.218	
87.94792	5503.604	
88.02742	5501.5	
88.05963	5473.715	
88.13599	5486.564	
88.16708	5449.093	
88.24528	5484.854	
88.27702	5439.378	
88.35497	5482.263	
88.38667	5438.616	
88.46403	5465.55	
88.49544	5449.04	
88.5732	5442.053	
88.60548	5423.163	
88.68223	5440.315	
88.71346	5406.755	
88.79141	5440.295	
88.82346	5393.494	
88.90399	5422.488	
88.93488	5383.799	
89.01315	5410.717	
89.04483	5380.18	
89.12169	5403.982	
89.15377	5359.457	
89.23105	5380.719	
89.26292	5365.976	
89.34156	5381.943	
89.37352	5354.996	
89.45161	5364.544	
89.48265	5332.677	
89.56088	5346.319	
89.59305	5318.42	
89.67216	5342.379	
89.70302	5310.395	
89.78017	5343.099	
89.81197	5293.875	
89.8906	5325.928	
89.92359	5289.059	
89.99966	5310.713	
90.03091	5279.647	
90.10778	5300.012	
90.13944	5269.965	
90.21806	5288.794	
90.24989	5253.358	
90.32705	5269.396	
90.35843	5225.27	
90.43597	5248.032	
90.46741	5212.049	
90.54713	5249.028	
90.57935	5214.609	
90.65859	5233.621	
90.68967	5196.09	
90.76737	5209.961	
90.79886	5190.547	
90.87572	5209.627	
90.90775	5182.532	
90.98582	5209.062	
91.0175	5170.342	
91.09676	5193.251	
91.12776	5152.811	
91.20473	5168.077	
91.23669	5129.548	
91.31582	5174.254	
91.34732	5138.755	
91.42373	5164.193	
91.45555	5116.348	
91.53423	5126.324	
91.56586	5117.108	
91.64336	5118.98	
91.67485	5098.636	
91.75301	5121.534	
91.785	5070.785	
91.86273	5102.405	
91.8953	5075.81	
91.97121	5095.137	
92.00324	5056.945	
92.08191	5076.317	
92.11655	5045.935	
92.19319	5071.661	
92.22427	5030.385	
92.30148	5046.571	
92.33284	5024.432	
92.41107	5051.181	
92.44273	5009.361	
92.52177	5038.329	
92.55393	5004.24	
92.6317	5020.378	
92.66209	4982.648	
92.73855	5010.126	
92.77029	4977.652	
92.85078	4994.903	
92.88242	4967.595	
92.96012	4974.177	
92.99135	4946.512	
93.07008	4973.281	
93.10232	4942.977	
93.18034	4959.784	
93.21188	4921.006	
93.28844	4937.301	
93.32117	4907.708	
93.40063	4932.192	
93.43191	4879.373	
93.50793	4905.489	
93.53852	4882.441	
93.61611	4911.981	
93.64922	4866.636	
93.72803	4885.825	
93.7606	4853.313	
93.83521	4883.793	
93.86716	4829.975	
93.94437	4869.787	
93.97603	4830.876	
94.05122	4857.319	
94.08134	4818.79	
94.15566	4849.974	
94.18515	4804.609	
94.25838	4829.684	
94.28598	4796.576	
94.35258	4814.239	
94.37993	4780.948	
94.44611	4815.576	
94.47158	4769.65	
94.53093	4797.438	
94.5547	4764.19	
94.61127	4783.057	
94.63372	4758.092	
94.68719	4776.283	
94.70795	4734.088	
94.75565	4770.114	
94.77381	4739.586	
94.81498	4762.456	
94.83039	4717.639	
94.86714	4764.285	
94.88112	4719.122	
94.91233	4753.486	
94.92419	4714.171	
94.94791	4739.253	
94.95576	4710.54	
94.97449	4747.473	
94.98117	4716.398	
94.99307	4739.455	
