T[Â°C]	330nm [counts / mm]	S.D.	First derivative	S.D. of first derivative
20.00049	5007.971		-75.10372	
20.0546	5003.693		-74.96964	
20.10871	4999.413		-74.83578	
20.16281	4995.13		-74.70215	
20.21692	4990.846		-74.56877	
20.27103	4986.563		-74.43564	
20.32513	4982.281		-74.30278	
20.37924	4978.004		-74.17021	
20.43335	4973.733		-74.03793	
20.48746	4969.468		-73.90594	
20.54156	4965.21		-73.77428	
20.59567	4960.96		-73.64293	
20.64978	4956.717		-73.51191	
20.70388	4952.479		-73.38122	
20.75799	4948.243		-73.25085	
20.8121	4944.001		-73.12083	
20.86621	4939.74		-72.99113	
20.92031	4935.435		-72.86176	
20.97442	4931.23		-72.73269	
21.02853	4927.075		-72.60393	
21.08263	4922.981		-72.47543	
21.13674	4918.963		-72.3472	
21.19085	4915.035		-72.21918	
21.24496	4911.204		-72.09138	
21.29906	4907.467		-71.96374	
21.35317	4903.815		-71.83623	
21.40728	4900.237		-71.70883	
21.46138	4896.715		-71.5815	
21.51549	4893.225		-71.45423	
21.5696	4889.745		-71.32697	
21.62371	4886.251		-71.19971	
21.67781	4882.716		-71.07245	
21.73192	4879.125		-70.94515	
21.78603	4875.474		-70.81783	
21.84014	4871.776		-70.69048	
21.89424	4868.043		-70.56311	
21.94835	4864.287		-70.43575	
22.00246	4860.515		-70.3084	
22.05656	4856.72		-70.18112	
22.11067	4852.886		-70.05394	
22.16478	4849.001		-69.92691	
22.21889	4845.057		-69.80009	
22.27299	4841.053		-69.67356	
22.3271	4836.999		-69.54746	
22.38121	4832.907		-69.42201	
22.43531	4828.799		-69.29756	
22.48942	4824.706		-69.17472	
22.54353	4820.656		-69.05439	
22.59764	4816.668		-68.93781	
22.65174	4812.743		-68.86528	
22.70585	4808.871		-68.79788	
22.75996	4805.043		-68.73515	
22.81406	4801.263		-68.67654	
22.86817	4797.54		-68.62149	
22.92228	4793.877		-68.56938	
22.97639	4790.276		-68.51964	
23.03049	4786.731		-68.47168	
23.0846	4783.233		-68.42503	
23.13871	4779.777		-68.37921	
23.19282	4776.363		-68.33385	
23.24692	4772.998		-68.28858	
23.30103	4769.686		-68.24316	
23.35514	4766.419		-68.19736	
23.40924	4763.179		-68.15111	
23.46335	4759.943		-68.10431	
23.51746	4756.689		-68.05697	
23.57157	4753.399		-68.00914	
23.62567	4750.055		-67.96095	
23.67978	4746.639		-67.91257	
23.73389	4743.138		-67.8642	
23.78799	4739.546		-67.81614	
23.8421	4735.858		-67.76868	
23.89621	4732.082		-67.72219	
23.95032	4728.238		-67.67708	
24.00442	4724.356		-67.63376	
24.05853	4720.458		-67.59266	
24.11264	4716.568		-67.55416	
24.16674	4712.692		-67.51862	
24.22085	4708.825		-67.48627	
24.27496	4704.96		-67.45731	
24.32907	4701.091		-67.43176	
24.38317	4697.212		-67.40954	
24.43728	4693.322		-67.39045	
24.49139	4689.431		-67.37412	
24.5455	4685.554		-67.36011	
24.5996	4681.705		-67.34781	
24.65371	4677.893		-67.33654	
24.70782	4674.11		-67.32555	
24.76192	4670.35		-67.31403	
24.81603	4666.621		-67.30118	
24.87014	4662.944		-67.2862	
24.92425	4659.343		-67.26834	
24.97835	4655.825		-67.24695	
25.03246	4652.383		-67.22144	
25.08657	4648.997		-67.19132	
25.14067	4645.636		-67.15612	
25.19478	4642.276		-67.11546	
25.24889	4638.904		-67.06904	
25.303	4635.511		-67.01664	
25.3571	4632.088		-66.95824	
25.41121	4628.639		-66.8939	
25.46532	4625.16		-66.82385	
25.51942	4621.643		-66.74838	
25.57353	4618.076		-66.66785	
25.62764	4614.443		-66.58263	
25.68175	4610.74		-66.49316	
25.73585	4606.978		-66.39995	
25.78996	4603.167		-66.30362	
25.84407	4599.321		-66.20484	
25.89817	4595.449		-66.10433	
25.95228	4591.556		-66.00278	
26.00639	4587.657		-65.90089	
26.0605	4583.772		-65.79928	
26.1146	4579.918		-65.69849	
26.16871	4576.101		-65.59903	
26.22282	4572.332		-65.50125	
26.27693	4568.623		-65.40546	
26.33103	4564.968		-65.31194	
26.38514	4561.355		-65.22084	
26.43925	4557.777		-65.13229	
26.49335	4554.229		-65.04625	
26.54746	4550.71		-64.96265	
26.60157	4547.228		-64.88126	
26.65568	4543.791		-64.80182	
26.70978	4540.407		-64.72395	
26.76389	4537.07		-64.6473	
26.818	4533.773		-64.57152	
26.8721	4530.51		-64.49629	
26.92621	4527.278		-64.42141	
26.98032	4524.074		-64.34669	
27.03443	4520.893		-64.27203	
27.08853	4517.727		-64.19738	
27.14264	4514.563		-64.1228	
27.19675	4511.386		-64.0484	
27.25085	4508.18		-63.97442	
27.30496	4504.925		-63.90114	
27.35907	4501.616		-63.82898	
27.41318	4498.254		-63.75844	
27.46728	4494.841		-63.69008	
27.52139	4491.379		-63.62449	
27.5755	4487.876		-63.5622	
27.62961	4484.343		-63.50375	
27.68371	4480.796		-63.44963	
27.73782	4477.241		-63.40031	
27.79193	4473.687		-63.3562	
27.84604	4470.142		-63.31766	
27.90014	4466.61		-63.28492	
27.95425	4463.093		-63.2581	
28.00836	4459.593		-63.23721	
28.06246	4456.113		-63.22214	
28.11657	4452.652		-63.21264	
28.17068	4449.216		-63.20838	
28.22478	4445.811		-63.20896	
28.27889	4442.429		-63.21394	
28.333	4439.058		-63.22282	
28.38711	4435.695		-63.23507	
28.44121	4432.339		-63.25012	
28.49532	4428.993		-63.26741	
28.54943	4425.652		-63.28633	
28.60353	4422.312		-63.30629	
28.65764	4418.972		-63.32666	
28.71175	4415.638		-63.34688	
28.76586	4412.311		-63.3664	
28.81996	4408.99		-63.38475	
28.87407	4405.672		-63.4015	
28.92818	4402.353		-63.41619	
28.98229	4399.035		-63.42844	
29.03639	4395.719		-63.43785	
29.0905	4392.393		-63.44416	
29.14461	4389.047		-63.44713	
29.19872	4385.679		-63.44665	
29.25282	4382.283		-63.44273	
29.30693	4378.85		-63.43545	
29.36104	4375.375		-63.42502	
29.41514	4371.864		-63.41171	
29.46925	4368.323		-63.39584	
29.52336	4364.757		-63.37778	
29.57747	4361.174		-63.35794	
29.63157	4357.579		-63.33672	
29.68568	4353.97		-63.31453	
29.73979	4350.346		-63.29172	
29.79389	4346.71		-63.26858	
29.848	4343.073		-63.24532	
29.90211	4339.441		-63.22207	
29.95621	4335.815		-63.19885	
30.01032	4332.194		-63.1756	
30.06443	4328.577		-63.15219	
30.11854	4324.978		-63.12845	
30.17264	4321.411		-63.10417	
30.22675	4317.885		-63.07915	
30.28086	4314.408		-63.05319	
30.33497	4310.985		-63.02607	
30.38907	4307.619		-62.99759	
30.44318	4304.296		-62.96754	
30.49729	4301.005		-62.93573	
30.5514	4297.733		-62.90197	
30.6055	4294.466		-62.86615	
30.65961	4291.192		-62.82818	
30.71372	4287.908		-62.78807	
30.76782	4284.617		-62.74588	
30.82193	4281.324		-62.70171	
30.87604	4278.026		-62.65562	
30.93015	4274.717		-62.60772	
30.98425	4271.4		-62.55808	
31.03836	4268.079		-62.50683	
31.09247	4264.76		-62.45407	
31.14657	4261.45		-62.39994	
31.20068	4258.154		-62.3446	
31.25479	4254.869		-62.28825	
31.3089	4251.577		-62.23109	
31.363	4248.256		-62.17331	
31.41711	4244.893		-62.11511	
31.47122	4241.484		-62.05668	
31.52532	4238.045		-61.99824	
31.57943	4234.591		-61.94006	
31.63354	4231.133		-61.88243	
31.68764	4227.684		-61.82564	
31.74175	4224.246		-61.76997	
31.79586	4220.819		-61.71566	
31.84997	4217.409		-61.66285	
31.90408	4214.028		-61.61162	
31.95818	4210.691		-61.56202	
32.01229	4207.4		-61.51405	
32.06639	4204.154		-61.46768	
32.1205	4200.938		-61.42283	
32.17461	4197.736		-61.37941	
32.22872	4194.536		-61.33724	
32.28283	4191.327		-61.29612	
32.33693	4188.11		-61.25579	
32.39104	4184.891		-61.21602	
32.44515	4181.671		-61.17656	
32.49925	4178.452		-61.13721	
32.55336	4175.227		-61.09777	
32.60747	4171.983		-61.05816	
32.66158	4168.705		-61.01834	
32.71568	4165.382		-60.97836	
32.76979	4162.018		-60.93832	
32.8239	4158.625		-60.89836	
32.87801	4155.209		-60.85864	
32.93211	4151.778		-60.81934	
32.98622	4148.344		-60.78061	
33.04033	4144.924		-60.74261	
33.09443	4141.523		-60.70549	
33.14854	4138.15		-60.6693	
33.20265	4134.805		-60.63412	
33.25676	4131.483		-60.59997	
33.31086	4128.175		-60.56691	
33.36497	4124.871		-60.53496	
33.41908	4121.562		-60.50417	
33.47318	4118.247		-60.47458	
33.52729	4114.931		-60.44622	
33.5814	4111.614		-60.41919	
33.63551	4108.306		-60.3936	
33.68961	4105.024		-60.36961	
33.74372	4101.777		-60.34737	
33.79782	4098.56		-60.32699	
33.85193	4095.364		-60.30856	
33.90604	4092.19		-60.29214	
33.96015	4089.043		-60.27778	
34.01426	4085.923		-60.26548	
34.06836	4082.818		-60.25517	
34.12247	4079.714		-60.24671	
34.17658	4076.595		-60.23988	
34.23069	4073.445		-60.23438	
34.28479	4070.255		-60.22983	
34.3389	4067.023		-60.22582	
34.39301	4063.761		-60.22193	
34.44711	4060.475		-60.2177	
34.50122	4057.177		-60.21272	
34.55533	4053.884		-60.20655	
34.60944	4050.613		-60.19878	
34.66354	4047.379		-60.18903	
34.71765	4044.183		-60.17693	
34.77176	4041.018		-60.16218	
34.82586	4037.869		-60.14453	
34.87997	4034.718		-60.12374	
34.93408	4031.549		-60.0996	
34.98819	4028.358		-60.0719	
35.04229	4025.145		-60.04044	
35.0964	4021.911		-60.00498	
35.15051	4018.66		-59.96531	
35.20461	4015.394		-59.9212	
35.25872	4012.113		-59.8725	
35.31283	4008.819		-59.81911	
35.36694	4005.516		-59.76103	
35.42104	4002.212		-59.69832	
35.47515	3998.92		-59.63112	
35.52926	3995.647		-59.55968	
35.58336	3992.388		-59.48437	
35.63747	3989.139		-59.40561	
35.69158	3985.9		-59.32392	
35.74569	3982.667		-59.23984	
35.79979	3979.423		-59.15398	
35.8539	3976.15		-59.06697	
35.90801	3972.843		-58.97945	
35.96212	3969.504		-58.8921	
36.01622	3966.143		-58.8056	
36.07033	3962.765		-58.72062	
36.12444	3959.375		-58.63783	
36.17854	3955.971		-58.55787	
36.23265	3952.555		-58.48134	
36.28676	3949.14		-58.40876	
36.34087	3945.743		-58.34055	
36.39497	3942.375		-58.27703	
36.44908	3939.045		-58.21841	
36.50319	3935.756		-58.16483	
36.55729	3932.507		-58.11629	
36.6114	3929.296		-58.07268	
36.66551	3926.119		-58.03376	
36.71962	3922.964		-57.99924	
36.77372	3919.828		-57.96874	
36.82783	3916.706		-57.94183	
36.88194	3913.59		-57.91809	
36.93604	3910.483		-57.89703	
36.99015	3907.391		-57.87816	
37.04426	3904.33		-57.86098	
37.09837	3901.313		-57.84499	
37.15247	3898.354		-57.8297	
37.20658	3895.461		-57.81466	
37.26069	3892.636		-57.79942	
37.3148	3889.872		-57.7836	
37.3689	3887.158		-57.76684	
37.42301	3884.485		-57.74887	
37.47712	3881.838		-57.72945	
37.53122	3879.2		-57.7084	
37.58533	3876.557		-57.68559	
37.63944	3873.891		-57.66093	
37.69355	3871.19		-57.6344	
37.74765	3868.448		-57.60598	
37.80176	3865.655		-57.57572	
37.85587	3862.795		-57.54377	
37.90997	3859.863		-57.5103	
37.96408	3856.855		-57.47557	
38.01819	3853.782		-57.43987	
38.0723	3850.656		-57.40351	
38.1264	3847.489		-57.36683	
38.18051	3844.283		-57.33015	
38.23462	3841.042		-57.29373	
38.28872	3837.765		-57.25776	
38.34283	3834.448		-57.22231	
38.39694	3831.083		-57.18737	
38.45105	3827.668		-57.15284	
38.50515	3824.208		-57.11858	
38.55926	3820.716		-57.08435	
38.61337	3817.202		-57.04993	
38.66748	3813.677		-57.01497	
38.72158	3810.149		-56.97918	
38.77569	3806.636		-56.9422	
38.8298	3803.158		-56.90373	
38.8839	3799.734		-56.86349	
38.93801	3796.371		-56.82124	
38.99212	3793.07		-56.77675	
39.04623	3789.83		-56.72989	
39.10033	3786.647		-56.68055	
39.15444	3783.52		-56.62871	
39.20855	3780.44		-56.57436	
39.26265	3777.398		-56.51756	
39.31676	3774.379		-56.45837	
39.37087	3771.374		-56.39685	
39.42498	3768.37		-56.3331	
39.47908	3765.357		-56.26719	
39.53319	3762.334		-56.19921	
39.5873	3759.296		-56.12933	
39.6414	3756.241		-56.05773	
39.69551	3753.177		-55.98467	
39.74962	3750.118		-55.91048	
39.80373	3747.074		-55.83558	
39.85783	3744.05		-55.76041	
39.91194	3741.045		-55.68548	
39.96605	3738.058		-55.61129	
40.02016	3735.092		-55.5384	
40.07426	3732.146		-55.46733	
40.12837	3729.216		-55.39857	
40.18248	3726.295		-55.33261	
40.23658	3723.378		-55.26981	
40.29069	3720.464		-55.21045	
40.3448	3717.552		-55.15475	
40.39891	3714.64		-55.10284	
40.45301	3711.736		-55.0548	
40.50712	3708.857		-55.01071	
40.56123	3706.021		-54.97059	
40.61533	3703.244		-54.93449	
40.66944	3700.529		-54.90241	
40.72355	3697.873		-54.87433	
40.77766	3695.273		-54.85021	
40.83176	3692.73		-54.83004	
40.88587	3690.233		-54.81378	
40.93998	3687.764		-54.8014	
40.99408	3685.299		-54.79286	
41.04819	3682.809		-54.78813	
41.1023	3680.268		-54.78718	
41.15641	3677.653		-54.78997	
41.21051	3674.947		-54.79645	
41.26462	3672.139		-54.80657	
41.31873	3669.228		-54.82025	
41.37283	3666.224		-54.83735	
41.42694	3663.147		-54.8577	
41.48105	3660.022		-54.88107	
41.53516	3656.872		-54.90714	
41.58926	3653.707		-54.93558	
41.64337	3650.534		-54.96601	
41.69748	3647.351		-54.99808	
41.75159	3644.155		-55.03134	
41.80569	3640.94		-55.06535	
41.8598	3637.699		-55.09961	
41.91391	3634.43		-55.13359	
41.96801	3631.145		-55.16673	
42.02212	3627.852		-55.19843	
42.07623	3624.559		-55.2281	
42.13034	3621.267		-55.25513	
42.18444	3617.977		-55.27887	
42.23855	3614.692		-55.29874	
42.29266	3611.421		-55.31417	
42.34676	3608.176		-55.32467	
42.40087	3604.974		-55.3298	
42.45498	3601.829		-55.32921	
42.50909	3598.744		-55.32264	
42.56319	3595.721		-55.3099	
42.6173	3592.752		-55.29086	
42.67141	3589.821		-55.26539	
42.72551	3586.916		-55.23341	
42.77962	3584.028		-55.19487	
42.83373	3581.151		-55.14975	
42.88784	3578.273		-55.09818	
42.94194	3575.38		-55.04034	
42.99605	3572.458		-54.97651	
43.05016	3569.496		-54.90706	
43.10427	3566.496		-54.8325	
43.15837	3563.469		-54.75345	
43.21248	3560.428		-54.67062	
43.26659	3557.383		-54.58482	
43.32069	3554.337		-54.49695	
43.3748	3551.292		-54.40792	
43.42891	3548.244		-54.31868	
43.48302	3545.199		-54.23011	
43.53712	3542.166		-54.14302	
43.59123	3539.157		-54.05813	
43.64534	3536.177		-53.97607	
43.69944	3533.22		-53.89735	
43.75355	3530.281		-53.82235	
43.80766	3527.344		-53.75134	
43.86177	3524.403		-53.68444	
43.91587	3521.458		-53.62167	
43.96998	3518.518		-53.56299	
44.02409	3515.606		-53.50826	
44.07819	3512.75		-53.4573	
44.1323	3509.964		-53.4099	
44.18641	3507.248		-53.36583	
44.24052	3504.599		-53.32491	
44.29462	3502.005		-53.28699	
44.34873	3499.456		-53.25193	
44.40284	3496.937		-53.21969	
44.45695	3494.437		-53.19021	
44.51105	3491.947		-53.16346	
44.56516	3489.458		-53.13937	
44.61927	3486.955		-53.11783	
44.67337	3484.427		-53.09859	
44.72748	3481.864		-53.08136	
44.78159	3479.257		-53.06578	
44.8357	3476.597		-53.05148	
44.8898	3473.885		-53.03813	
44.94391	3471.122		-53.02544	
44.99802	3468.303		-53.01319	
45.05212	3465.423		-53.00124	
45.10623	3462.483		-52.98956	
45.16034	3459.497		-52.97816	
45.21445	3456.479		-52.96716	
45.26855	3453.44		-52.95668	
45.32266	3450.389		-52.94688	
45.37677	3447.321		-52.93791	
45.43087	3444.224		-52.92988	
45.48498	3441.098		-52.92282	
45.53909	3437.957		-52.91666	
45.5932	3434.818		-52.9113	
45.6473	3431.686		-52.90649	
45.70141	3428.564		-52.90191	
45.75552	3425.455		-52.89716	
45.80963	3422.365		-52.89176	
45.86373	3419.305		-52.88516	
45.91784	3416.28		-52.87678	
45.97195	3413.29		-52.86601	
46.02605	3410.343		-52.85221	
46.08016	3407.448		-52.83477	
46.13427	3404.598		-52.8131	
46.18838	3401.787		-52.78666	
46.24249	3399.007		-52.75498	
46.29659	3396.252		-52.71764	
46.3507	3393.511		-52.67434	
46.4048	3390.768		-52.62485	
46.45891	3388.01		-52.56907	
46.51302	3385.217		-52.50695	
46.56713	3382.378		-52.4385	
46.62123	3379.492		-52.36375	
46.67534	3376.567		-52.2828	
46.72945	3373.612		-52.19576	
46.78355	3370.631		-52.10276	
46.83766	3367.633		-52.00405	
46.89177	3364.634		-51.89989	
46.94588	3361.648		-51.79068	
46.99998	3358.689		-51.67686	
47.05409	3355.767		-51.55899	
47.1082	3352.887		-51.43774	
47.1623	3350.055		-51.31381	
47.21641	3347.275		-51.18795	
47.27052	3344.55		-51.06093	
47.32463	3341.877		-50.9335	
47.37873	3339.24		-50.80638	
47.43284	3336.616		-50.68023	
47.48695	3333.984		-50.55571	
47.54106	3331.335		-50.43341	
47.59516	3328.658		-50.31395	
47.64927	3325.949		-50.19787	
47.70338	3323.213		-50.08574	
47.75748	3320.464		-49.97808	
47.81159	3317.723		-49.87534	
47.8657	3315.014		-49.77789	
47.91981	3312.356		-49.68602	
47.97392	3309.756		-49.59994	
48.02802	3307.211		-49.51978	
48.08213	3304.714		-49.44561	
48.13623	3302.25		-49.37748	
48.19034	3299.806		-49.31536	
48.24445	3297.361		-49.25912	
48.29856	3294.896		-49.20863	
48.35266	3292.395		-49.1637	
48.40677	3289.843		-49.12419	
48.46088	3287.236		-49.08994	
48.51498	3284.579		-49.06078	
48.56909	3281.889		-49.0366	
48.6232	3279.189		-49.01729	
48.67731	3276.502		-49.00273	
48.73141	3273.845		-48.99279	
48.78552	3271.231		-48.98728	
48.83963	3268.667		-48.986	
48.89374	3266.143		-48.98867	
48.94784	3263.648		-48.99498	
49.00195	3261.171		-49.00459	
49.05606	3258.702		-49.01711	
49.11016	3256.229		-49.03216	
49.16427	3253.738		-49.0493	
49.21838	3251.218		-49.06808	
49.27249	3248.657		-49.08802	
49.3266	3246.057		-49.10859	
49.3807	3243.425		-49.12924	
49.43481	3240.779		-49.14946	
49.48891	3238.134		-49.16878	
49.54302	3235.492		-49.1868	
49.59713	3232.85		-49.20323	
49.65124	3230.201		-49.21786	
49.70535	3227.541		-49.23056	
49.75945	3224.867		-49.24124	
49.81356	3222.179		-49.24983	
49.86766	3219.482		-49.25628	
49.92177	3216.781		-49.26054	
49.97588	3214.073		-49.26256	
50.02999	3211.352		-49.26228	
50.0841	3208.609		-49.25968	
50.1382	3205.832		-49.25468	
50.19231	3203.019		-49.24722	
50.24642	3200.179		-49.23729	
50.30052	3197.326		-49.2249	
50.35463	3194.468		-49.21019	
50.40874	3191.605		-49.1933	
50.46284	3188.737		-49.17447	
50.51695	3185.862		-49.15398	
50.57106	3182.985		-49.13212	
50.62517	3180.116		-49.10922	
50.67928	3177.257		-49.0856	
50.73338	3174.418		-49.06156	
50.78749	3171.608		-49.03739	
50.84159	3168.828		-49.0133	
50.8957	3166.072		-48.98947	
50.94981	3163.338		-48.96598	
51.00392	3160.62		-48.94283	
51.05803	3157.911		-48.91996	
51.11213	3155.21		-48.89724	
51.16624	3152.523		-48.87447	
51.22034	3149.854		-48.85141	
51.27445	3147.209		-48.82773	
51.32856	3144.591		-48.8031	
51.38267	3142.006		-48.77714	
51.43678	3139.459		-48.74952	
51.49088	3136.952		-48.71991	
51.54499	3134.479		-48.68805	
51.5991	3132.032		-48.65377	
51.6532	3129.601		-48.61698	
51.70731	3127.168		-48.57767	
51.76142	3124.718		-48.53593	
51.81553	3122.248		-48.49187	
51.86963	3119.76		-48.44567	
51.92374	3117.258		-48.3975	
51.97785	3114.757		-48.34755	
52.03196	3112.273		-48.29601	
52.08606	3109.81		-48.24306	
52.14017	3107.36		-48.18889	
52.19427	3104.91		-48.13374	
52.24838	3102.453		-48.07787	
52.30249	3099.988		-48.02158	
52.3566	3097.516		-47.96519	
52.41071	3095.038		-47.90902	
52.46481	3092.55		-47.85335	
52.51892	3090.048		-47.79842	
52.57302	3087.524		-47.74443	
52.62713	3084.969		-47.69155	
52.68124	3082.382		-47.63993	
52.73535	3079.764		-47.58972	
52.78946	3077.109		-47.54104	
52.84356	3074.415		-47.49397	
52.89767	3071.695		-47.44856	
52.95177	3068.966		-47.40479	
53.00588	3066.24		-47.36263	
53.05999	3063.524		-47.32197	
53.1141	3060.813		-47.2827	
53.16821	3058.101		-47.24467	
53.22231	3055.383		-47.20771	
53.27642	3052.655		-47.17163	
53.33053	3049.917		-47.13621	
53.38463	3047.178		-47.10122	
53.43874	3044.446		-47.06634	
53.49285	3041.728		-47.03126	
53.54696	3039.031		-46.9956	
53.60106	3036.363		-46.95901	
53.65517	3033.728		-46.92115	
53.70928	3031.124		-46.88167	
53.76339	3028.552		-46.84029	
53.81749	3026.008		-46.79679	
53.8716	3023.49		-46.75101	
53.9257	3020.996		-46.70288	
53.97981	3018.528		-46.65237	
54.03392	3016.09		-46.59956	
54.08803	3013.681		-46.54456	
54.14214	3011.293		-46.48758	
54.19624	3008.914		-46.4289	
54.25035	3006.53		-46.36882	
54.30445	3004.134		-46.30769	
54.35856	3001.718		-46.24587	
54.41267	2999.28		-46.18375	
54.46678	2996.822		-46.1217	
54.52089	2994.35		-46.06007	
54.57499	2991.861		-45.9992	
54.6291	2989.356		-45.93942	
54.68321	2986.843		-45.88104	
54.73731	2984.325		-45.82432	
54.79142	2981.802		-45.76952	
54.84553	2979.278		-45.71684	
54.89964	2976.762		-45.6665	
54.95374	2974.264		-45.61864	
55.00785	2971.792		-45.5734	
55.06196	2969.351		-45.5309	
55.11607	2966.944		-45.49128	
55.17017	2964.567		-45.45467	
55.22428	2962.214		-45.42122	
55.27839	2959.872		-45.39104	
55.33249	2957.539		-45.36429	
55.3866	2955.216		-45.34105	
55.44071	2952.905		-45.32137	
55.49482	2950.605		-45.30529	
55.54892	2948.31		-45.29279	
55.60303	2946.015		-45.28378	
55.65714	2943.716		-45.27811	
55.71124	2941.406		-45.27553	
55.76535	2939.079		-45.27576	
55.81946	2936.725		-45.27848	
55.87357	2934.336		-45.28331	
55.92767	2931.911		-45.28988	
55.98178	2929.454		-45.29779	
56.03589	2926.979		-45.30667	
56.08999	2924.498		-45.31615	
56.1441	2922.018		-45.32587	
56.19821	2919.543		-45.33547	
56.25232	2917.077		-45.3446	
56.30642	2914.611		-45.353	
56.36053	2912.131		-45.36039	
56.41464	2909.624		-45.36659	
56.46875	2907.094		-45.37141	
56.52285	2904.554		-45.37468	
56.57696	2902.009		-45.37627	
56.63107	2899.461		-45.37599	
56.68517	2896.916		-45.37366	
56.73928	2894.376		-45.36904	
56.79339	2891.844		-45.36185	
56.8475	2889.315		-45.35178	
56.9016	2886.789		-45.33849	
56.95571	2884.27		-45.32166	
57.00982	2881.764		-45.30094	
57.06392	2879.277		-45.27602	
57.11803	2876.812		-45.24659	
57.17214	2874.359		-45.2124	
57.22625	2871.904		-45.17323	
57.28035	2869.434		-45.12896	
57.33446	2866.946		-45.07954	
57.38857	2864.439		-45.02511	
57.44267	2861.914		-44.96585	
57.49678	2859.373		-44.9021	
57.55089	2856.828		-44.83423	
57.605	2854.292		-44.7627	
57.6591	2851.769		-44.68795	
57.71321	2849.263		-44.61042	
57.76732	2846.777		-44.53051	
57.82143	2844.313		-44.44863	
57.87553	2841.862		-44.36517	
57.92964	2839.413		-44.28052	
57.98375	2836.96		-44.19509	
58.03785	2834.504		-44.10925	
58.09196	2832.038		-44.02337	
58.14607	2829.563		-43.93777	
58.20018	2827.088		-43.85276	
58.25428	2824.628		-43.76866	
58.30839	2822.198		-43.68578	
58.3625	2819.801		-43.6044	
58.4166	2817.434		-43.52487	
58.47071	2815.093		-43.44745	
58.52482	2812.769		-43.37243	
58.57893	2810.451		-43.30007	
58.63303	2808.135		-43.23055	
58.68714	2805.823		-43.16401	
58.74125	2803.52		-43.10049	
58.79535	2801.227		-43.03998	
58.84946	2798.942		-42.9824	
58.90357	2796.668		-42.92759	
58.95768	2794.409		-42.87533	
59.01178	2792.177		-42.82536	
59.06589	2789.983		-42.77736	
59.12	2787.833		-42.73101	
59.1741	2785.725		-42.68599	
59.22821	2783.65		-42.64202	
59.28232	2781.603		-42.59885	
59.33643	2779.575		-42.55634	
59.39053	2777.558		-42.51434	
59.44464	2775.537		-42.47281	
59.49875	2773.5		-42.43169	
59.55286	2771.441		-42.391	
59.60696	2769.351		-42.35077	
59.66107	2767.22		-42.31102	
59.71518	2765.044		-42.2718	
59.76928	2762.825		-42.23314	
59.82339	2760.565		-42.19509	
59.8775	2758.265		-42.1577	
59.93161	2755.93		-42.12103	
59.98571	2753.576		-42.08509	
60.03982	2751.216		-42.04987	
60.09393	2748.853		-42.01536	
60.14803	2746.488		-41.98146	
60.20214	2744.122		-41.94805	
60.25625	2741.762		-41.91494	
60.31036	2739.407		-41.88191	
60.36446	2737.055		-41.84869	
60.41857	2734.702		-41.81493	
60.47268	2732.343		-41.78029	
60.52678	2729.969		-41.74441	
60.58089	2727.575		-41.70691	
60.635	2725.155		-41.66742	
60.68911	2722.71		-41.62556	
60.74321	2720.247		-41.58093	
60.79732	2717.775		-41.53316	
60.85143	2715.302		-41.48185	
60.90554	2712.838		-41.42659	
60.95964	2710.396		-41.36695	
61.01375	2707.99		-41.3025	
61.06786	2705.631		-41.23281	
61.12196	2703.327		-41.15748	
61.17607	2701.08		-41.07616	
61.23018	2698.883		-40.98859	
61.28429	2696.722		-40.89452	
61.33839	2694.582		-40.79375	
61.3925	2692.442		-40.68617	
61.44661	2690.288		-40.57165	
61.50071	2688.109		-40.45014	
61.55482	2685.906		-40.32167	
61.60893	2683.678		-40.18633	
61.66304	2681.432		-40.04426	
61.71714	2679.173		-39.89566	
61.77125	2676.911		-39.74077	
61.82536	2674.654		-39.57988	
61.87946	2672.411		-39.41335	
61.93357	2670.19		-39.24153	
61.98768	2668		-39.06486	
62.04179	2665.844		-38.88376	
62.09589	2663.723		-38.69867	
62.15	2661.63		-38.50997	
62.20411	2659.562		-38.31799	
62.25822	2657.509		-38.12298	
62.31232	2655.466		-37.92506	
62.36643	2653.427		-37.72423	
62.42054	2651.387		-37.52035	
62.47464	2649.345		-37.31319	
62.52875	2647.302		-37.10243	
62.58286	2645.263		-36.8877	
62.63697	2643.23		-36.66853	
62.69107	2641.216		-36.4444	
62.74518	2639.231		-36.21476	
62.79929	2637.283		-35.97896	
62.85339	2635.376		-35.73636	
62.9075	2633.512		-35.48624	
62.96161	2631.692		-35.22781	
63.01572	2629.906		-34.96025	
63.06982	2628.135		-34.6827	
63.12393	2626.365		-34.39427	
63.17804	2624.585		-34.09409	
63.23214	2622.8		-33.7812	
63.28625	2621.011		-33.4547	
63.34036	2619.212		-33.11367	
63.39447	2617.404		-32.7572	
63.44857	2615.586		-32.38436	
63.50268	2613.767		-31.99431	
63.55679	2611.955		-31.58619	
63.6109	2610.156		-31.15925	
63.665	2608.372		-30.7128	
63.71911	2606.599		-30.24607	
63.77322	2604.836		-29.75851	
63.82732	2603.081		-29.24955	
63.88143	2601.337		-28.71866	
63.93554	2599.603		-28.16536	
63.98965	2597.876		-27.58914	
64.04375	2596.159		-26.98955	
64.09786	2594.452		-26.36606	
64.15197	2592.756		-25.7181	
64.20608	2591.073		-25.04503	
64.26019	2589.403		-24.34609	
64.31429	2587.747		-23.62053	
64.36839	2586.105		-22.86728	
64.4225	2584.481		-22.08535	
64.47661	2582.874		-21.27369	
64.53072	2581.283		-20.43114	
64.58482	2579.704		-19.55653	
64.63893	2578.142		-18.64861	
64.69304	2576.604		-17.70615	
64.74715	2575.095		-16.72785	
64.80125	2573.629		-15.71239	
64.85536	2572.225		-14.65841	
64.90947	2570.905		-13.56452	
64.96358	2569.693		-12.42936	
65.01768	2568.604		-11.25154	
65.07179	2567.645		-10.02969	
65.1259	2566.813		-8.762443	
65.18	2566.096		-7.448615	
65.23411	2565.485		-6.086563	
65.28822	2564.965		-4.675213	
65.34232	2564.524		-3.213225	
65.39643	2564.149		-1.699427	
65.45054	2563.832		-0.1326296	
65.50465	2563.572		1.488326	
65.55875	2563.377		3.164562	
65.61286	2563.254		4.897159	
65.66697	2563.212		6.68714	
65.72108	2563.256		8.535476	
65.77518	2563.39		10.44311	
65.82929	2563.618		12.41085	
65.8834	2563.95		14.43958	
65.93751	2564.386		16.53014	
65.99162	2564.928		18.68334	
66.04572	2565.572		20.9	
66.09982	2566.311		23.18069	
66.15393	2567.137		25.52682	
66.20804	2568.042		27.93921	
66.26215	2569.017		30.41886	
66.31625	2570.063		32.96692	
66.37036	2571.185		35.58462	
66.42447	2572.4		38.27324	
66.47858	2573.729		41.03416	
66.53268	2575.193		43.8688	
66.58679	2576.82		46.77866	
66.6409	2578.634		49.76531	
66.69501	2580.65		52.83037	
66.74911	2582.877		55.97556	
66.80322	2585.319		59.20268	
66.85733	2587.971		62.51357	
66.91144	2590.823		65.91019	
66.96554	2593.864		69.39376	
67.01965	2597.088		72.9672	
67.07375	2600.492		76.63175	
67.12786	2604.066		80.38938	
67.18197	2607.804		84.24168	
67.23608	2611.706		88.19021	
67.29018	2615.78		92.2364	
67.34429	2620.044		96.38158	
67.3984	2624.517		100.6269	
67.45251	2629.211		104.9734	
67.50661	2634.135		109.4219	
67.56072	2639.297		113.9731	
67.61483	2644.703		118.6277	
67.66894	2650.359		123.3861	
67.72305	2656.263		128.2487	
67.77715	2662.415		133.2158	
67.83126	2668.81		138.2874	
67.88536	2675.444		143.463	
67.93947	2682.325		148.7437	
67.99358	2689.458		154.1289	
68.04768	2696.855		159.6182	
68.10179	2704.53		165.2112	
68.1559	2712.493		170.9075	
68.21001	2720.764		176.7067	
68.26411	2729.357		182.6081	
68.31822	2738.286		188.6111	
68.37233	2747.563		194.7151	
68.42644	2757.196		200.9195	
68.48055	2767.186		207.2234	
68.53465	2777.534		213.6263	
68.58876	2788.242		220.1273	
68.64287	2799.313		226.7257	
68.69698	2810.75		233.421	
68.75108	2822.572		240.2112	
68.80518	2834.805		247.0976	
68.85929	2847.466		254.0784	
68.9134	2860.566		261.1529	
68.96751	2874.115		268.32	
69.02161	2888.124		275.5786	
69.07572	2902.598		282.9272	
69.12983	2917.541		290.3643	
69.18394	2932.944		297.8877	
69.23804	2948.806		305.495	
69.29215	2965.126		313.1832	
69.34626	2981.907		320.9489	
69.40037	2999.144		328.7879	
69.45448	3016.832		336.6956	
69.50858	3034.966		344.6663	
69.56269	3053.546		352.694	
69.6168	3072.575		360.7716	
69.6709	3092.059		368.8901	
69.72501	3112.01		377.0432	
69.77911	3132.423		385.2204	
69.83322	3153.294		393.4113	
69.88733	3174.623		401.6049	
69.94144	3196.413		409.7894	
69.99554	3218.669		417.9519	
70.04965	3241.394		426.0791	
70.10376	3264.59		434.1569	
70.15787	3288.258		442.1703	
70.21198	3312.397		450.1039	
70.26608	3337.007		457.9417	
70.32019	3362.097		465.6669	
70.3743	3387.676		473.2625	
70.42841	3413.753		480.7111	
70.48251	3440.335		487.9946	
70.53661	3467.43		495.0944	
70.59072	3495.06		501.9946	
70.64483	3523.224		508.6759	
70.69894	3551.92		515.1206	
70.75304	3581.152		521.3112	
70.80715	3610.924		527.2302	
70.86126	3641.242		532.861	
70.91537	3672.115		538.1873	
70.96947	3703.547		543.1935	
71.02358	3735.54		547.8649	
71.07769	3768.09		552.1874	
71.1318	3801.183		556.1481	
71.18591	3834.809		559.7352	
71.24001	3868.953		562.9376	
71.29412	3903.602		565.7455	
71.34823	3938.743		568.1498	
71.40234	3974.356		570.1438	
71.45644	4010.422		571.7205	
71.51054	4046.93		572.8757	
71.56465	4083.846		573.6042	
71.61876	4121.13		573.9034	
71.67287	4158.738		573.7717	
71.72697	4196.624		573.2084	
71.78108	4234.736		572.2139	
71.83519	4273.024		570.7896	
71.8893	4311.425		568.9377	
71.94341	4349.866		566.6617	
71.99751	4388.271		563.9658	
72.05162	4426.566		560.8553	
72.10573	4464.67		557.3363	
72.15984	4502.492		553.4157	
72.21394	4539.951		549.1014	
72.26805	4576.975		544.4016	
72.32215	4613.501		539.3273	
72.37626	4649.487		533.8872	
72.43037	4684.86		528.092	
72.48447	4719.561		521.9535	
72.53858	4753.534		515.484	
72.59269	4786.73		508.6961	
72.6468	4819.102		501.6032	
72.7009	4850.608		494.219	
72.75501	4881.204		486.5577	
72.80912	4910.842		478.6341	
72.86323	4939.487		470.4633	
72.91734	4967.112		462.0608	
72.97144	4993.7		453.4428	
73.02555	5019.25		444.6257	
73.07966	5043.771		435.6265	
73.13377	5067.283		426.4625	
73.18787	5089.792		417.153	
73.24197	5111.307		407.7135	
73.29608	5131.824		398.1638	
73.35019	5151.353		388.5225	
73.4043	5169.91		378.8087	
73.4584	5187.532		369.0418	
73.51251	5204.262		359.2412	
73.56662	5220.146		349.4262	
73.62073	5235.23		339.6163	
73.67484	5249.552		329.8307	
73.72894	5263.145		320.0885	
73.78305	5276.05		310.4083	
73.83716	5288.307		300.8084	
73.89127	5299.953		291.3064	
73.94537	5311.033		281.9192	
73.99948	5321.602		272.6631	
74.05359	5331.707		263.5537	
74.10769	5341.382		254.6062	
74.1618	5350.665		245.8314	
74.2159	5359.574		237.2438	
74.27001	5368.127		228.8543	
74.32412	5376.34		220.6734	
74.37823	5384.23		212.7099	
74.43233	5391.817		204.9717	
74.48644	5399.13		197.4654	
74.54055	5406.192		190.1964	
74.59466	5413.022		183.1688	
74.64877	5419.645		176.3853	
74.70287	5426.091		169.8475	
74.75698	5432.393		163.5558	
74.81109	5438.572		157.5092	
74.8652	5444.632		151.7057	
74.9193	5450.557		146.1425	
74.9734	5456.323		140.8155	
75.02751	5461.918		135.7185	
75.08162	5467.348		130.846	
75.13573	5472.624		126.1917	
75.18983	5477.753		121.7478	
75.24394	5482.737		117.5065	
75.29805	5487.582		113.4591	
75.35216	5492.294		109.5969	
75.40627	5496.88		105.9107	
75.46037	5501.347		102.3915	
75.51448	5505.705		99.02975	
75.56859	5509.969		95.81626	
75.6227	5514.157		92.74185	
75.6768	5518.291		89.79755	
75.73091	5522.391		86.97469	
75.78502	5526.458		84.26504	
75.83913	5530.483		81.66045	
75.89323	5534.449		79.15377	
75.94733	5538.342		76.73699	
76.00144	5542.145		74.40376	
76.05555	5545.838		72.14753	
76.10966	5549.418		69.96227	
76.16376	5552.897		67.84238	
76.21787	5556.289		65.78265	
76.27198	5559.612		63.77834	
76.32609	5562.877		61.82506	
76.3802	5566.084		59.91888	
76.4343	5569.238		58.05626	
76.48841	5572.347		56.23408	
76.54252	5575.417		54.44956	
76.59663	5578.445		52.70025	
76.65073	5581.415		50.98403	
76.70484	5584.31		49.2991	
76.75894	5587.121		47.64414	
76.81305	5589.842		46.01745	
76.86716	5592.458		44.41824	
76.92126	5594.959		42.84578	
76.97537	5597.333		41.29954	
77.02948	5599.573		39.77917	
77.08359	5601.678		38.28448	
77.1377	5603.65		36.81543	
77.1918	5605.483		35.37207	
77.24591	5607.172		33.95462	
77.30002	5608.721		32.56339	
77.35413	5610.14		31.19887	
77.40823	5611.442		29.86164	
77.46234	5612.646		28.55243	
77.51645	5613.766		27.27207	
77.57056	5614.803		26.02148	
77.62466	5615.753		24.80161	
77.67876	5616.609		23.61375	
77.73287	5617.368		22.45877	
77.78698	5618.03		21.3383	
77.84109	5618.603		20.25381	
77.8952	5619.102		19.20685	
77.9493	5619.54		18.19902	
78.00341	5619.922		17.2319	
78.05752	5620.246		16.30707	
78.11163	5620.508		15.42613	
78.16573	5620.712		14.59062	
78.21984	5620.873		13.80207	
78.27395	5621.007		13.06186	
78.32806	5621.117		12.37129	
78.38216	5621.198		11.73157	
78.43627	5621.237		11.14373	
78.49038	5621.223		10.60873	
78.54448	5621.149		10.12722	
78.59859	5621.017		9.699622	
78.65269	5620.835		9.326246	
78.7068	5620.629		9.007241	
78.76091	5620.413		8.742286	
78.81502	5620.188		8.530807	
78.86913	5619.959		8.371949	
78.92323	5619.735		8.264595	
78.97734	5619.52		8.207387	
79.03145	5619.323		8.198738	
79.08556	5619.146		8.236841	
79.13966	5618.983		8.319685	
79.19377	5618.826		8.445098	
79.24788	5618.667		8.610807	
79.30199	5618.501		8.814461	
79.35609	5618.321		9.053705	
79.4102	5618.124		9.32605	
79.4643	5617.924		9.62911	
79.51841	5617.744		9.960554	
79.57252	5617.612		10.31804	
79.62663	5617.549		10.69921	
79.68073	5617.57		11.1018	
79.73484	5617.685		11.52367	
79.78895	5617.911		11.96282	
79.84306	5618.258		12.41731	
79.89716	5618.738		12.88527	
79.95127	5619.344		13.36486	
80.00538	5620.062		13.85429	
80.05949	5620.867		14.35181	
80.11359	5621.738		14.85571	
80.1677	5622.652		15.3643	
80.22181	5623.609		15.87588	
80.27592	5624.623		16.38877	
80.33002	5625.719		16.90132	
80.38412	5626.914		17.41212	
80.43823	5628.221		17.9196	
80.49234	5629.64		18.42238	
80.54645	5631.164		18.91916	
80.60056	5632.785		19.4087	
80.65466	5634.505		19.88972	
80.70877	5636.316		20.36088	
80.76288	5638.198		20.8207	
80.81699	5640.123		21.26759	
80.87109	5642.07		21.6999	
80.9252	5644.021		22.11591	
80.97931	5645.964		22.51387	
81.03342	5647.895		22.89196	
81.08752	5649.813		23.24824	
81.14163	5651.722		23.5807	
81.19574	5653.616		23.8874	
81.24984	5655.484		24.16627	
81.30395	5657.304		24.41543	
81.35806	5659.051		24.6329	
81.41216	5660.718		24.81695	
81.46627	5662.315		24.96596	
81.52038	5663.863		25.07849	
81.57449	5665.381		25.15332	
81.62859	5666.874		25.1895	
81.6827	5668.329		25.18631	
81.73681	5669.744		25.14333	
81.79092	5671.125		25.06035	
81.84502	5672.478		24.93735	
81.89913	5673.81		24.77445	
81.95324	5675.135		24.57189	
82.00735	5676.468		24.33007	
82.06145	5677.816		24.04942	
82.11555	5679.179		23.73062	
82.16966	5680.544		23.37424	
82.22377	5681.909		22.98095	
82.27788	5683.28		22.55154	
82.33199	5684.672		22.08678	
82.38609	5686.087		21.58752	
82.4402	5687.523		21.05472	
82.49431	5688.968		20.4894	
82.54842	5690.419		19.89272	
82.60252	5691.872		19.26589	
82.65663	5693.325		18.61019	
82.71074	5694.761		17.92691	
82.76485	5696.159		17.21735	
82.81895	5697.509		16.48277	
82.87306	5698.812		15.72445	
82.92717	5700.063		14.94358	
82.98127	5701.261		14.14148	
83.03538	5702.399		13.3189	
83.08949	5703.481		12.47684	
83.14359	5704.504		11.61592	
83.1977	5705.471		10.73665	
83.25181	5706.375		9.839297	
83.30592	5707.195		8.924019	
83.36002	5707.912		7.990847	
83.41413	5708.518		7.039722	
83.46824	5709.011		6.070503	
83.52235	5709.407		5.083024	
83.57645	5709.708		4.077133	
83.63056	5709.92		3.052734	
83.68467	5710.05		2.009801	
83.73878	5710.131		0.9484135	
83.79288	5710.184		-0.1312465	
83.84699	5710.228		-1.228917	
83.90109	5710.265		-2.34404	
83.9552	5710.29		-3.476503	
84.00931	5710.288		-4.625727	
84.06342	5710.245		-5.791208	
84.11752	5710.139		-6.972457	
84.17163	5709.954		-8.168992	
84.22574	5709.664		-9.380364	
84.27985	5709.258		-10.60616	
84.33395	5708.724		-11.84603	
84.38806	5708.052		-13.09962	
84.44217	5707.232		-14.36654	
84.49628	5706.274		-15.64639	
84.55038	5705.204		-16.93866	
84.60449	5704.065		-18.24279	
84.6586	5702.884		-19.55815	
84.71271	5701.672		-20.88409	
84.76681	5700.416		-22.21974	
84.82092	5699.096		-23.56478	
84.87502	5697.693		-24.91834	
84.92913	5696.208		-26.27971	
84.98324	5694.65		-27.64815	
85.03735	5693.029		-29.02291	
85.09145	5691.349		-30.4032	
85.14556	5689.616		-31.78825	
85.19967	5687.83		-33.1773	
85.25378	5685.986		-34.56956	
85.30788	5684.08		-35.96429	
85.36199	5682.109		-37.36075	
85.4161	5680.078		-38.75829	
85.47021	5677.998		-40.15636	
85.52431	5675.867		-41.55442	
85.57842	5673.674		-42.952	
85.63253	5671.407		-44.34856	
85.68663	5669.059		-45.74327	
85.74074	5666.619		-47.13578	
85.79485	5664.085		-48.52506	
85.84895	5661.465		-49.91011	
85.90306	5658.759		-51.28985	
85.95717	5655.972		-52.66313	
86.01128	5653.097		-54.02876	
86.06538	5650.136		-55.38553	
86.11949	5647.097		-56.73222	
86.1736	5643.988		-58.06762	
86.22771	5640.816		-59.39056	
86.28181	5637.587		-60.69997	
86.33592	5634.293		-61.99484	
86.39003	5630.919		-63.27422	
86.44414	5627.446		-64.53721	
86.49825	5623.855		-65.78293	
86.55235	5620.14		-67.01039	
86.60645	5616.306		-68.21914	
86.66056	5612.366		-69.40829	
86.71467	5608.335		-70.57719	
86.76878	5604.218		-71.72528	
86.82288	5600.019		-72.85204	
86.87699	5595.741		-73.95702	
86.9311	5591.394		-75.03978	
86.98521	5586.987		-76.09996	
87.03931	5582.533		-77.13724	
87.09342	5578.043		-78.15137	
87.14753	5573.517		-79.14215	
87.20164	5568.938		-80.10944	
87.25574	5564.283		-81.05309	
87.30985	5559.521		-81.97308	
87.36396	5554.636		-82.86942	
87.41807	5549.614		-83.74232	
87.47217	5544.465		-84.59193	
87.52628	5539.197		-85.41888	
87.58038	5533.842		-86.2234	
87.63449	5528.438		-87.00587	
87.6886	5523.021		-87.76662	
87.74271	5517.61		-88.50597	
87.79681	5512.223		-89.22418	
87.85092	5506.861		-89.92151	
87.90503	5501.535		-90.59814	
87.95914	5496.233		-91.25421	
88.01324	5490.942		-91.88976	
88.06735	5485.639		-92.50476	
88.12146	5480.311		-93.09917	
88.17557	5474.946		-93.67294	
88.22968	5469.553		-94.22607	
88.28378	5464.131		-94.75857	
88.33788	5458.685		-95.27046	
88.39199	5453.223		-95.762	
88.4461	5447.77		-96.23327	
88.50021	5442.34		-96.68455	
88.55431	5436.954		-97.11617	
88.60842	5431.618		-97.52858	
88.66253	5426.33		-97.92227	
88.71664	5421.077		-98.29782	
88.77074	5415.849		-98.65583	
88.82485	5410.635		-98.99693	
88.87896	5405.427		-99.32179	
88.93307	5400.207		-99.63112	
88.98717	5394.957		-99.92569	
89.04128	5389.672		-100.2064	
89.09539	5384.36		-100.474	
89.1495	5379.033		-100.7297	
89.20361	5373.709		-100.9744	
89.25771	5368.401		-101.2091	
89.31181	5363.124		-101.4352	
89.36592	5357.878		-101.6537	
89.42003	5352.655		-101.8658	
89.47414	5347.425		-102.073	
89.52824	5342.149		-102.2764	
89.58235	5336.793		-102.4773	
89.63646	5331.339		-102.677	
89.69057	5325.783		-102.8766	
89.74467	5320.133		-103.0771	
89.79878	5314.4		-103.2796	
89.85289	5308.598		-103.4847	
89.907	5302.733		-103.6933	
89.96111	5296.825		-103.9057	
90.01521	5290.888		-104.1223	
90.06932	5284.944		-104.3434	
90.12342	5279.018		-104.5693	
90.17753	5273.134		-104.7999	
90.23164	5267.306		-105.0353	
90.28574	5261.517		-105.2754	
90.33985	5255.741		-105.5199	
90.39396	5249.947		-105.7686	
90.44807	5244.129		-106.0212	
90.50217	5238.298		-106.2772	
90.55628	5232.479		-106.5362	
90.61039	5226.681		-106.7977	
90.6645	5220.904		-107.0613	
90.71861	5215.144		-107.3264	
90.77271	5209.397		-107.5926	
90.82682	5203.667		-107.8593	
90.88093	5197.963		-108.1261	
90.93504	5192.282		-108.3923	
90.98914	5186.622		-108.6574	
91.04324	5180.972		-108.9209	
91.09735	5175.325		-109.1823	
91.15146	5169.659		-109.441	
91.20557	5163.95		-109.6965	
91.25967	5158.177		-109.9482	
91.31378	5152.333		-110.1956	
91.36789	5146.417		-110.4383	
91.422	5140.436		-110.6762	
91.4761	5134.392		-110.909	
91.53021	5128.294		-111.137	
91.58432	5122.14		-111.3603	
91.63843	5115.943		-111.5792	
91.69254	5109.719		-111.794	
91.74664	5103.493		-112.0051	
91.80075	5097.276		-112.2128	
91.85486	5091.077		-112.4174	
91.90896	5084.895		-112.6192	
91.96307	5078.729		-112.8185	
92.01717	5072.568		-113.0155	
92.07128	5066.407		-113.2103	
92.12539	5060.237		-113.403	
92.1795	5054.069		-113.5935	
92.2336	5047.913		-113.7819	
92.28771	5041.776		-113.968	
92.34182	5035.644		-114.1519	
92.39593	5029.501		-114.3332	
92.45004	5023.333		-114.4744	
92.50414	5017.145		-114.6099	
92.55825	5010.929		-114.7413	
92.61236	5004.675		-114.8701	
92.66647	4998.374		-114.9973	
92.72057	4992.029		-115.1238	
92.77467	4985.646		-115.2499	
92.82878	4979.237		-115.3758	
92.88289	4972.806		-115.5016	
92.937	4966.354		-115.6272	
92.9911	4959.874		-115.7526	
93.04521	4953.372		-115.8778	
93.09932	4946.854		-116.0027	
93.15343	4940.334		-116.1272	
93.20753	4933.819		-116.2513	
93.26164	4927.329		-116.3748	
93.31575	4920.865		-116.4978	
93.36986	4914.432		-116.6202	
93.42397	4908.016		-116.7419	
93.47807	4901.619		-116.8629	
93.53218	4895.236		-116.9831	
93.58629	4888.88		-117.1025	
93.6404	4882.559		-117.221	
93.6945	4876.276		-117.3387	
93.7486	4870.029		-117.4554	
93.80271	4863.819		-117.5713	
93.85682	4857.635		-117.6862	
93.91093	4851.455		-117.8001	
93.96503	4845.252		-117.913	
94.01914	4839.005		-118.025	
94.07325	4832.702		-118.136	
94.12736	4826.135		-118.246	
94.18147	4819.58		-118.355	
94.23557	4813.057		-118.463	
94.28968	4806.558		-118.57	
94.34379	4800.075		-118.6759	
94.3979	4793.601		-118.7808	
94.452	4787.131		-118.8847	
94.50611	4780.661		-118.9876	
94.56021	4774.188		-119.0894	
94.61432	4767.705		-119.1902	
94.66843	4761.211		-119.29	
94.72253	4754.705		-119.3888	
94.77664	4748.183		-119.4866	
94.83075	4741.643		-119.5834	
94.88486	4735.087		-119.6793	
94.93896	4728.516		-119.7743	
94.99307	4721.934		-119.8683	
