T[Â°C]	330nm [counts / mm]	S.D.	First derivative	S.D. of first derivative
20.00091	3659.096		-53.85503	
20.05486	3656.285		-53.78614	
20.10881	3653.464		-53.71706	
20.16276	3650.632		-53.64777	
20.21671	3647.79		-53.5783	
20.27066	3644.937		-53.50867	
20.32461	3642.073		-53.43887	
20.37856	3639.196		-53.36894	
20.43251	3636.309		-53.29889	
20.48646	3633.412		-53.22875	
20.54041	3630.506		-53.15854	
20.59437	3627.594		-53.08828	
20.64832	3624.677		-53.01802	
20.70227	3621.761		-52.94777	
20.75622	3618.849		-52.87756	
20.81017	3615.948		-52.80745	
20.86412	3613.059		-52.73746	
20.91807	3610.181		-52.66763	
20.97202	3607.287		-52.598	
21.02597	3604.33		-52.52862	
21.07992	3601.391		-52.45951	
21.13387	3598.463		-52.39074	
21.18782	3595.541		-52.32234	
21.24177	3592.617		-52.25436	
21.29572	3589.691		-52.18684	
21.34967	3586.761		-52.11983	
21.40363	3583.823		-52.05337	
21.45758	3580.878		-51.98751	
21.51153	3577.936		-51.92228	
21.56548	3575.015		-51.8577	
21.61943	3572.134		-51.79381	
21.67338	3569.3		-51.73062	
21.72733	3566.503		-51.66814	
21.78128	3563.729		-51.60636	
21.83523	3560.969		-51.54527	
21.88918	3558.218		-51.48483	
21.94313	3555.476		-51.425	
21.99708	3552.746		-51.36571	
22.05103	3550.034		-51.30689	
22.10498	3547.347		-51.24843	
22.15894	3544.677		-51.1902	
22.21289	3542.005		-51.13205	
22.26684	3539.31		-51.07374	
22.32079	3536.578		-51.01502	
22.37474	3533.813		-50.95553	
22.42869	3531.033		-50.89486	
22.48264	3528.257		-50.83253	
22.53659	3525.493		-50.76808	
22.59054	3522.745		-50.70118	
22.64449	3520.017		-50.67027	
22.69844	3517.31		-50.64271	
22.75239	3514.627		-50.61851	
22.80634	3511.967		-50.59763	
22.86029	3509.333		-50.57996	
22.91425	3506.735		-50.56537	
22.96819	3504.177		-50.55368	
23.02215	3501.654		-50.54467	
23.0761	3499.151		-50.53812	
23.13005	3496.648		-50.53382	
23.184	3494.132		-50.5315	
23.23795	3491.595		-50.53091	
23.2919	3489.044		-50.53181	
23.34585	3486.48		-50.53397	
23.3998	3483.896		-50.53717	
23.45375	3481.279		-50.54121	
23.5077	3478.623		-50.54586	
23.56165	3475.932		-50.5509	
23.6156	3473.221		-50.55606	
23.66955	3470.507		-50.56107	
23.72351	3467.801		-50.56567	
23.77746	3465.112		-50.56955	
23.83141	3462.443		-50.57247	
23.88536	3459.778		-50.57411	
23.93931	3457.098		-50.57416	
23.99326	3454.383		-50.57227	
24.04721	3451.633		-50.56812	
24.10116	3448.858		-50.56145	
24.15511	3446.07		-50.55205	
24.20906	3443.272		-50.53973	
24.26301	3440.457		-50.52442	
24.31696	3437.611		-50.50609	
24.37091	3434.729		-50.48481	
24.42486	3431.816		-50.46077	
24.47882	3428.886		-50.43422	
24.53277	3425.962		-50.40556	
24.58672	3423.057		-50.37526	
24.64067	3420.178		-50.34384	
24.69462	3417.328		-50.31183	
24.74857	3414.494		-50.27973	
24.80252	3411.662		-50.24797	
24.85647	3408.824		-50.21691	
24.91042	3405.98		-50.18682	
24.96437	3403.133		-50.15793	
25.01832	3400.282		-50.13033	
25.07227	3397.425		-50.10402	
25.12622	3394.557		-50.0789	
25.18017	3391.672		-50.05477	
25.23413	3388.773		-50.03137	
25.28807	3385.873		-50.00842	
25.34203	3382.987		-49.98565	
25.39598	3380.131		-49.96281	
25.44993	3377.322		-49.93969	
25.50388	3374.566		-49.91614	
25.55783	3371.866		-49.89197	
25.61178	3369.216		-49.86704	
25.66573	3366.608		-49.84119	
25.71968	3364.039		-49.81427	
25.77363	3361.507		-49.78618	
25.82758	3359.004		-49.75683	
25.88153	3356.522		-49.72616	
25.93548	3354.045		-49.69409	
25.98943	3351.567		-49.66055	
26.04338	3349.086		-49.62549	
26.09734	3346.608		-49.58892	
26.15129	3344.147		-49.55088	
26.20524	3341.717		-49.51147	
26.25919	3339.322		-49.47077	
26.31314	3336.956		-49.42892	
26.36709	3334.6		-49.38606	
26.42104	3332.236		-49.34232	
26.47499	3329.854		-49.29786	
26.52894	3327.448		-49.25291	
26.58289	3325.01		-49.20779	
26.63684	3322.535		-49.16284	
26.69079	3320.013		-49.11843	
26.74474	3317.437		-49.07489	
26.79869	3314.801		-49.03252	
26.85265	3312.106		-48.99158	
26.9066	3309.366		-48.95234	
26.96055	3306.595		-48.91502	
27.0145	3303.813		-48.87986	
27.06845	3301.027		-48.84701	
27.1224	3298.237		-48.8166	
27.17635	3295.438		-48.78866	
27.2303	3292.621		-48.76313	
27.28425	3289.78		-48.73985	
27.3382	3286.917		-48.71862	
27.39215	3284.044		-48.69915	
27.4461	3281.176		-48.68108	
27.50005	3278.315		-48.66402	
27.554	3275.464		-48.64748	
27.60795	3272.625		-48.63097	
27.66191	3269.807		-48.61394	
27.71586	3267.021		-48.59592	
27.76981	3264.278		-48.57647	
27.82376	3261.584		-48.55521	
27.87771	3258.936		-48.53184	
27.93166	3256.323		-48.50614	
27.98561	3253.729		-48.47794	
28.03956	3251.143		-48.44715	
28.09351	3248.557		-48.41376	
28.14746	3245.967		-48.37783	
28.20141	3243.377		-48.33952	
28.25536	3240.793		-48.29901	
28.30931	3238.221		-48.25653	
28.36326	3235.654		-48.21233	
28.41722	3233.089		-48.16658	
28.47117	3230.528		-48.1195	
28.52512	3227.978		-48.07129	
28.57907	3225.44		-48.02223	
28.63302	3222.91		-47.9726	
28.68697	3220.378		-47.92269	
28.74092	3217.833		-47.8728	
28.79487	3215.266		-47.82319	
28.84882	3212.669		-47.77416	
28.90277	3210.046		-47.72599	
28.95672	3207.414		-47.679	
29.01067	3204.791		-47.63358	
29.06462	3202.189		-47.59018	
29.11857	3199.611		-47.54924	
29.17253	3197.053		-47.51124	
29.22647	3194.513		-47.47659	
29.28043	3191.993		-47.44566	
29.33438	3189.502		-47.41876	
29.38833	3187.044		-47.39614	
29.44228	3184.617		-47.37796	
29.49623	3182.222		-47.36431	
29.55018	3179.852		-47.35517	
29.60413	3177.489		-47.35041	
29.65808	3175.116		-47.34977	
29.71203	3172.721		-47.35289	
29.76598	3170.304		-47.35939	
29.81993	3167.873		-47.36885	
29.87388	3165.436		-47.38085	
29.92783	3162.997		-47.39499	
29.98178	3160.564		-47.41089	
30.03574	3158.143		-47.42817	
30.08969	3155.735		-47.44646	
30.14364	3153.331		-47.46542	
30.19759	3150.92		-47.48473	
30.25154	3148.491		-47.50403	
30.30549	3146.03		-47.52299	
30.35944	3143.524		-47.54126	
30.41339	3140.963		-47.55848	
30.46734	3138.348		-47.57426	
30.52129	3135.683		-47.58825	
30.57524	3132.978		-47.60008	
30.62919	3130.241		-47.60941	
30.68314	3127.482		-47.61588	
30.73709	3124.711		-47.61909	
30.79105	3121.934		-47.61866	
30.845	3119.159		-47.6142	
30.89895	3116.396		-47.60537	
30.9529	3113.664		-47.59188	
31.00685	3110.974		-47.57354	
31.0608	3108.329		-47.55023	
31.11475	3105.72		-47.52185	
31.1687	3103.13		-47.48835	
31.22265	3100.546		-47.44968	
31.2766	3097.961		-47.40587	
31.33055	3095.367		-47.35703	
31.3845	3092.751		-47.30337	
31.43845	3090.111		-47.2452	
31.4924	3087.45		-47.18291	
31.54635	3084.779		-47.11696	
31.60031	3082.105		-47.04776	
31.65426	3079.437		-46.97572	
31.70821	3076.781		-46.90119	
31.76216	3074.145		-46.82451	
31.81611	3071.535		-46.74602	
31.87006	3068.945		-46.66603	
31.92401	3066.364		-46.58487	
31.97796	3063.78		-46.50282	
32.03191	3061.181		-46.42017	
32.08586	3058.56		-46.33718	
32.13981	3055.915		-46.25408	
32.19376	3053.257		-46.17114	
32.24771	3050.597		-46.08863	
32.30167	3047.941		-46.00686	
32.35561	3045.293		-45.92619	
32.40956	3042.657		-45.84698	
32.46352	3040.044		-45.76963	
32.51747	3037.468		-45.69452	
32.57142	3034.941		-45.62205	
32.62537	3032.477		-45.55256	
32.67932	3030.085		-45.48634	
32.73327	3027.767		-45.42362	
32.78722	3025.523		-45.3646	
32.84117	3023.342		-45.30941	
32.89512	3021.211		-45.25813	
32.94907	3019.112		-45.21082	
33.00303	3017.03		-45.16745	
33.05697	3014.953		-45.12799	
33.11092	3012.869		-45.09235	
33.16488	3010.766		-45.06037	
33.21883	3008.639		-45.03191	
33.27278	3006.491		-45.00677	
33.32673	3004.329		-44.98482	
33.38068	3002.159		-44.96591	
33.43463	2999.979		-44.94992	
33.48858	2997.781		-44.93676	
33.54253	2995.556		-44.92632	
33.59648	2993.293		-44.91848	
33.65043	2990.987		-44.91311	
33.70438	2988.637		-44.91008	
33.75833	2986.25		-44.90923	
33.81228	2983.832		-44.91042	
33.86623	2981.392		-44.91347	
33.92019	2978.93		-44.91814	
33.97414	2976.442		-44.92414	
34.02809	2973.927		-44.93113	
34.08204	2971.381		-44.93875	
34.13599	2968.81		-44.94661	
34.18994	2966.221		-44.95436	
34.24389	2963.631		-44.96168	
34.29784	2961.059		-44.96831	
34.35179	2958.518		-44.97401	
34.40574	2956.017		-44.97857	
34.45969	2953.553		-44.98179	
34.51364	2951.12		-44.98346	
34.56759	2948.699		-44.98343	
34.62154	2946.276		-44.98156	
34.6755	2943.834		-44.97772	
34.72945	2941.356		-44.97185	
34.7834	2938.835		-44.96389	
34.83735	2936.272		-44.95379	
34.8913	2933.674		-44.94149	
34.94525	2931.051		-44.9269	
34.9992	2928.417		-44.90996	
35.05315	2925.784		-44.89063	
35.1071	2923.155		-44.86887	
35.16105	2920.53		-44.84467	
35.215	2917.916		-44.81806	
35.26895	2915.313		-44.78911	
35.3229	2912.726		-44.75789	
35.37685	2910.154		-44.72449	
35.43081	2907.6		-44.689	
35.48476	2905.063		-44.65152	
35.5387	2902.536		-44.61216	
35.59266	2900.006		-44.57104	
35.64661	2897.464		-44.52832	
35.70056	2894.906		-44.48419	
35.75451	2892.341		-44.43884	
35.80846	2889.788		-44.39253	
35.86241	2887.269		-44.3455	
35.91636	2884.806		-44.298	
35.97031	2882.42		-44.25021	
36.02426	2880.122		-44.20234	
36.07821	2877.916		-44.15459	
36.13216	2875.788		-44.10721	
36.18612	2873.715		-44.06047	
36.24007	2871.675		-44.01465	
36.29401	2869.646		-43.97004	
36.34797	2867.613		-43.92688	
36.40192	2865.561		-43.88537	
36.45587	2863.48		-43.84564	
36.50982	2861.371		-43.80779	
36.56377	2859.24		-43.77189	
36.61772	2857.093		-43.73806	
36.67167	2854.933		-43.70637	
36.72562	2852.758		-43.67695	
36.77957	2850.566		-43.64989	
36.83352	2848.354		-43.62532	
36.88747	2846.121		-43.60332	
36.94143	2843.867		-43.58402	
36.99537	2841.594		-43.56752	
37.04932	2839.304		-43.55393	
37.10328	2836.993		-43.54338	
37.15723	2834.657		-43.53595	
37.21118	2832.295		-43.53169	
37.26513	2829.907		-43.53058	
37.31908	2827.488		-43.5326	
37.37303	2825.038		-43.53764	
37.42698	2822.563		-43.5456	
37.48093	2820.071		-43.5563	
37.53488	2817.578		-43.56956	
37.58883	2815.099		-43.5851	
37.64278	2812.645		-43.60265	
37.69673	2810.224		-43.62186	
37.75068	2807.836		-43.64238	
37.80463	2805.473		-43.66384	
37.85859	2803.124		-43.68584	
37.91254	2800.778		-43.708	
37.96649	2798.426		-43.72997	
38.02044	2796.062		-43.75138	
38.07439	2793.682		-43.77188	
38.12834	2791.288		-43.79113	
38.18229	2788.885		-43.80879	
38.23624	2786.475		-43.82457	
38.29019	2784.058		-43.83819	
38.34414	2781.629		-43.84943	
38.39809	2779.179		-43.85805	
38.45204	2776.704		-43.8639	
38.50599	2774.212		-43.86682	
38.55994	2771.713		-43.86671	
38.6139	2769.213		-43.8635	
38.66785	2766.716		-43.85716	
38.7218	2764.221		-43.84767	
38.77575	2761.726		-43.8351	
38.8297	2759.227		-43.81954	
38.88365	2756.728		-43.80118	
38.9376	2754.235		-43.78023	
38.99155	2751.756		-43.75695	
39.0455	2749.303		-43.73164	
39.09945	2746.88		-43.70458	
39.1534	2744.488		-43.67603	
39.20735	2742.125		-43.64622	
39.2613	2739.796		-43.61535	
39.31525	2737.507		-43.5836	
39.36921	2735.259		-43.55113	
39.42316	2733.04		-43.51811	
39.4771	2730.839		-43.48465	
39.53106	2728.641		-43.45081	
39.58501	2726.43		-43.4166	
39.63896	2724.193		-43.38196	
39.69291	2721.927		-43.34678	
39.74686	2719.641		-43.31092	
39.80081	2717.346		-43.27423	
39.85476	2715.055		-43.23655	
39.90871	2712.774		-43.19771	
39.96266	2710.505		-43.15754	
40.01661	2708.245		-43.11587	
40.07056	2705.995		-43.07255	
40.12452	2703.756		-43.02739	
40.17846	2701.524		-42.98021	
40.23241	2699.294		-42.93083	
40.28637	2697.059		-42.8791	
40.34032	2694.812		-42.82491	
40.39427	2692.542		-42.76819	
40.44822	2690.242		-42.70892	
40.50217	2687.907		-42.64712	
40.55612	2685.543		-42.58283	
40.61007	2683.162		-42.51613	
40.66402	2680.779		-42.44715	
40.71797	2678.41		-42.37609	
40.77192	2676.065		-42.30319	
40.82587	2673.747		-42.22873	
40.87983	2671.461		-42.15303	
40.93377	2669.207		-42.07647	
40.98772	2666.978		-41.99938	
41.04168	2664.766		-41.92218	
41.09563	2662.561		-41.84524	
41.14958	2660.343		-41.76895	
41.20353	2658.095		-41.69366	
41.25748	2655.808		-41.61976	
41.31143	2653.474		-41.5476	
41.36538	2651.089		-41.47758	
41.41933	2648.659		-41.41007	
41.47328	2646.199		-41.34539	
41.52723	2643.727		-41.28383	
41.58118	2641.257		-41.2256	
41.63513	2638.804		-41.17083	
41.68908	2636.379		-41.11958	
41.74303	2633.99		-41.07182	
41.79699	2631.641		-41.02749	
41.85094	2629.33		-40.98644	
41.90489	2627.051		-40.94845	
41.95884	2624.797		-40.91324	
42.01279	2622.563		-40.8805	
42.06674	2620.349		-40.84987	
42.12069	2618.155		-40.82103	
42.17464	2615.978		-40.79362	
42.22859	2613.818		-40.76733	
42.28254	2611.677		-40.74186	
42.33649	2609.561		-40.71693	
42.39044	2607.476		-40.69225	
42.44439	2605.427		-40.66758	
42.49834	2603.418		-40.64267	
42.5523	2601.448		-40.61734	
42.60625	2599.512		-40.59144	
42.6602	2597.603		-40.56491	
42.71415	2595.716		-40.53775	
42.7681	2593.844		-40.50999	
42.82205	2591.98		-40.48171	
42.876	2590.112		-40.45302	
42.92995	2588.229		-40.42403	
42.9839	2586.32		-40.39487	
43.03785	2584.374		-40.36571	
43.0918	2582.384		-40.33675	
43.14575	2580.353		-40.30821	
43.1997	2578.281		-40.28033	
43.25365	2576.172		-40.25335	
43.30761	2574.026		-40.22754	
43.36156	2571.845		-40.20317	
43.4155	2569.631		-40.18053	
43.46946	2567.389		-40.15987	
43.52341	2565.121		-40.14146	
43.57736	2562.83		-40.12555	
43.63131	2560.52		-40.11236	
43.68526	2558.197		-40.10204	
43.73921	2555.865		-40.09472	
43.79316	2553.527		-40.09044	
43.84711	2551.176		-40.08917	
43.90106	2548.804		-40.09082	
43.95501	2546.41		-40.0952	
44.00896	2543.997		-40.10211	
44.06292	2541.575		-40.11126	
44.11686	2539.159		-40.12236	
44.17081	2536.765		-40.13506	
44.22477	2534.408		-40.14899	
44.27872	2532.101		-40.1638	
44.33267	2529.849		-40.17906	
44.38662	2527.653		-40.19439	
44.44057	2525.505		-40.2094	
44.49452	2523.392		-40.22371	
44.54847	2521.298		-40.237	
44.60242	2519.21		-40.24898	
44.65637	2517.115		-40.25939	
44.71032	2515.006		-40.26801	
44.76427	2512.883		-40.27462	
44.81823	2510.751		-40.27904	
44.87217	2508.616		-40.28115	
44.92612	2506.485		-40.28085	
44.98008	2504.361		-40.27806	
45.03403	2502.247		-40.27276	
45.08798	2500.149		-40.26497	
45.14193	2498.07		-40.25472	
45.19588	2496		-40.24212	
45.24983	2493.928		-40.22726	
45.30378	2491.839		-40.2103	
45.35773	2489.721		-40.19146	
45.41168	2487.568		-40.17097	
45.46563	2485.378		-40.14911	
45.51958	2483.154		-40.1262	
45.57353	2480.905		-40.10257	
45.62748	2478.64		-40.07858	
45.68143	2476.377		-40.05459	
45.73539	2474.138		-40.03094	
45.78934	2471.943		-40.00794	
45.84329	2469.804		-39.9859	
45.89724	2467.725		-39.9651	
45.95119	2465.7		-39.94581	
46.00514	2463.721		-39.92833	
46.05909	2461.771		-39.91286	
46.11304	2459.829		-39.89959	
46.16699	2457.872		-39.8886	
46.22094	2455.883		-39.87994	
46.27489	2453.847		-39.87355	
46.32884	2451.758		-39.86937	
46.38279	2449.624		-39.86723	
46.43674	2447.453		-39.86701	
46.4907	2445.26		-39.86853	
46.54465	2443.056		-39.87162	
46.5986	2440.849		-39.87611	
46.65255	2438.648		-39.88179	
46.7065	2436.452		-39.88844	
46.76045	2434.258		-39.89579	
46.8144	2432.058		-39.90358	
46.86835	2429.846		-39.91152	
46.9223	2427.615		-39.91929	
46.97625	2425.361		-39.92656	
47.0302	2423.082		-39.93298	
47.08415	2420.784		-39.93822	
47.1381	2418.469		-39.94194	
47.19205	2416.146		-39.94384	
47.24601	2413.825		-39.9436	
47.29996	2411.519		-39.94098	
47.3539	2409.244		-39.93577	
47.40786	2407.006		-39.92779	
47.46181	2404.813		-39.9169	
47.51576	2402.67		-39.90302	
47.56971	2400.581		-39.8861	
47.62366	2398.542		-39.86615	
47.67761	2396.544		-39.84321	
47.73156	2394.573		-39.81731	
47.78551	2392.617		-39.78854	
47.83946	2390.661		-39.75696	
47.89341	2388.681		-39.72273	
47.94736	2386.658		-39.68602	
48.00132	2384.584		-39.64706	
48.05526	2382.458		-39.60609	
48.10921	2380.281		-39.56339	
48.16317	2378.063		-39.51925	
48.21712	2375.818		-39.47394	
48.27107	2373.56		-39.42777	
48.32502	2371.304		-39.38099	
48.37897	2369.058		-39.33385	
48.43292	2366.826		-39.28657	
48.48687	2364.601		-39.23936	
48.54082	2362.372		-39.19242	
48.59477	2360.138		-39.14592	
48.64872	2357.904		-39.10001	
48.70267	2355.673		-39.0548	
48.75662	2353.452		-39.01039	
48.81057	2351.244		-38.96682	
48.86452	2349.051		-38.92414	
48.91848	2346.874		-38.88237	
48.97243	2344.711		-38.84148	
49.02638	2342.562		-38.80145	
49.08033	2340.43		-38.76225	
49.13428	2338.327		-38.72387	
49.18823	2336.262		-38.68631	
49.24218	2334.244		-38.64957	
49.29613	2332.279		-38.61362	
49.35008	2330.366		-38.57843	
49.40403	2328.493		-38.54396	
49.45798	2326.646		-38.51016	
49.51193	2324.81		-38.47695	
49.56588	2322.964		-38.44429	
49.61983	2321.091		-38.41212	
49.67379	2319.176		-38.38041	
49.72774	2317.215		-38.34909	
49.78169	2315.213		-38.31812	
49.83564	2313.183		-38.28745	
49.88959	2311.138		-38.25703	
49.94354	2309.089		-38.22684	
49.99749	2307.045		-38.19686	
50.05144	2305.007		-38.16709	
50.10539	2302.967		-38.13759	
50.15934	2300.915		-38.1084	
50.21329	2298.844		-38.07959	
50.26724	2296.748		-38.0512	
50.32119	2294.634		-38.02325	
50.37514	2292.516		-37.99572	
50.4291	2290.405		-37.96856	
50.48305	2288.299		-37.9417	
50.53699	2286.193		-37.91512	
50.59095	2284.083		-37.88874	
50.6449	2281.967		-37.86253	
50.69885	2279.842		-37.83643	
50.7528	2277.715		-37.81038	
50.80675	2275.597		-37.78436	
50.8607	2273.503		-37.75832	
50.91465	2271.444		-37.73224	
50.9686	2269.422		-37.70612	
51.02255	2267.433		-37.67992	
51.0765	2265.467		-37.65365	
51.13046	2263.508		-37.62733	
51.18441	2261.545		-37.60102	
51.23836	2259.569		-37.57476	
51.2923	2257.579		-37.54858	
51.34626	2255.568		-37.52253	
51.40021	2253.535		-37.49659	
51.45416	2251.486		-37.47078	
51.50811	2249.429		-37.44511	
51.56206	2247.371		-37.41965	
51.61601	2245.313		-37.39444	
51.66996	2243.252		-37.36959	
51.72391	2241.18		-37.34522	
51.77786	2239.094		-37.32143	
51.83181	2236.997		-37.29835	
51.88577	2234.894		-37.27613	
51.93972	2232.791		-37.25492	
51.99366	2230.691		-37.23487	
52.04762	2228.601		-37.21614	
52.10157	2226.524		-37.19886	
52.15552	2224.46		-37.18315	
52.20947	2222.405		-37.16908	
52.26342	2220.355		-37.15672	
52.31737	2218.31		-37.14611	
52.37132	2216.274		-37.13726	
52.42527	2214.251		-37.13017	
52.47922	2212.244		-37.12479	
52.53317	2210.259		-37.12109	
52.58712	2208.305		-37.11899	
52.64108	2206.386		-37.11838	
52.69502	2204.502		-37.11914	
52.74897	2202.651		-37.12113	
52.80293	2200.83		-37.12423	
52.85688	2199.035		-37.12837	
52.91083	2197.266		-37.1335	
52.96478	2195.515		-37.13963	
53.01873	2193.768		-37.14676	
53.07268	2192.008		-37.15495	
53.12663	2190.217		-37.16425	
53.18058	2188.386		-37.17473	
53.23453	2186.512		-37.18645	
53.28848	2184.594		-37.19948	
53.34243	2182.633		-37.21386	
53.39638	2180.629		-37.22962	
53.45033	2178.588		-37.24679	
53.50428	2176.521		-37.26537	
53.55824	2174.437		-37.28535	
53.61219	2172.345		-37.30671	
53.66614	2170.251		-37.32939	
53.72009	2168.155		-37.35334	
53.77404	2166.059		-37.37848	
53.82799	2163.963		-37.40473	
53.88194	2161.865		-37.43195	
53.93589	2159.768		-37.46001	
53.98984	2157.673		-37.48876	
54.04379	2155.575		-37.51801	
54.09774	2153.468		-37.54753	
54.15169	2151.35		-37.57708	
54.20564	2149.224		-37.60637	
54.25959	2147.097		-37.63511	
54.31355	2144.981		-37.66302	
54.3675	2142.886		-37.68983	
54.42145	2140.822		-37.71529	
54.4754	2138.791		-37.73914	
54.52935	2136.791		-37.7611	
54.5833	2134.817		-37.78091	
54.63725	2132.859		-37.79827	
54.6912	2130.908		-37.8129	
54.74515	2128.95		-37.8245	
54.7991	2126.972		-37.83283	
54.85305	2124.963		-37.83766	
54.907	2122.917		-37.83888	
54.96095	2120.831		-37.83641	
55.0149	2118.708		-37.83024	
55.06886	2116.554		-37.82046	
55.12281	2114.377		-37.80717	
55.17675	2112.19		-37.79054	
55.23071	2110.011		-37.77075	
55.28466	2107.854		-37.74802	
55.33861	2105.728		-37.72261	
55.39256	2103.634		-37.69482	
55.44651	2101.565		-37.66497	
55.50046	2099.509		-37.63336	
55.55441	2097.452		-37.60025	
55.60836	2095.385		-37.56586	
55.66231	2093.301		-37.53041	
55.71626	2091.201		-37.49409	
55.77021	2089.094		-37.4571	
55.82417	2086.988		-37.41962	
55.87812	2084.895		-37.38184	
55.93206	2082.825		-37.34394	
55.98602	2080.786		-37.30613	
56.03997	2078.781		-37.26863	
56.09392	2076.807		-37.23165	
56.14787	2074.864		-37.19541	
56.20182	2072.95		-37.16013	
56.25577	2071.055		-37.12597	
56.30972	2069.169		-37.09307	
56.36367	2067.285		-37.06152	
56.41762	2065.394		-37.0314	
56.47157	2063.486		-37.00272	
56.52552	2061.551		-36.97545	
56.57948	2059.581		-36.94953	
56.63342	2057.583		-36.92486	
56.68737	2055.565		-36.90134	
56.74133	2053.543		-36.87885	
56.79528	2051.533		-36.85728	
56.84923	2049.551		-36.83655	
56.90318	2047.608		-36.81657	
56.95713	2045.708		-36.79725	
57.01108	2043.846		-36.77853	
57.06503	2042.005		-36.76032	
57.11898	2040.164		-36.74258	
57.17293	2038.304		-36.72525	
57.22688	2036.411		-36.70826	
57.28083	2034.481		-36.69152	
57.33478	2032.52		-36.67491	
57.38873	2030.534		-36.65828	
57.44268	2028.53		-36.64145	
57.49664	2026.516		-36.62418	
57.55059	2024.498		-36.60625	
57.60454	2022.478		-36.58737	
57.65849	2020.455		-36.5673	
57.71244	2018.438		-36.54581	
57.76639	2016.44		-36.52268	
57.82034	2014.469		-36.49771	
57.87429	2012.527		-36.47073	
57.92824	2010.609		-36.44157	
57.98219	2008.708		-36.41008	
58.03614	2006.809		-36.37613	
58.09009	2004.901		-36.33968	
58.14404	2002.974		-36.3007	
58.19799	2001.025		-36.25927	
58.25195	1999.044		-36.2155	
58.3059	1997.029		-36.16951	
58.35985	1994.984		-36.12144	
58.4138	1992.918		-36.07146	
58.46775	1990.838		-36.01968	
58.5217	1988.755		-35.96624	
58.57565	1986.676		-35.91124	
58.6296	1984.605		-35.8548	
58.68355	1982.543		-35.79705	
58.7375	1980.488		-35.73812	
58.79145	1978.439		-35.67815	
58.8454	1976.396		-35.6173	
58.89935	1974.365		-35.55574	
58.9533	1972.345		-35.49363	
59.00726	1970.336		-35.43109	
59.06121	1968.334		-35.36824	
59.11515	1966.338		-35.30519	
59.16911	1964.345		-35.24205	
59.22306	1962.354		-35.17889	
59.27701	1960.37		-35.1158	
59.33096	1958.397		-35.05284	
59.38491	1956.439		-34.99008	
59.43886	1954.501		-34.92758	
59.49281	1952.59		-34.86537	
59.54676	1950.708		-34.80345	
59.60071	1948.855		-34.74186	
59.65466	1947.029		-34.68064	
59.70861	1945.227		-34.61986	
59.76257	1943.451		-34.5596	
59.81652	1941.703		-34.49997	
59.87046	1939.983		-34.44109	
59.92442	1938.285		-34.38307	
59.97837	1936.609		-34.32604	
60.03232	1934.948		-34.27011	
60.08627	1933.297		-34.21544	
60.14022	1931.646		-34.16222	
60.19417	1929.985		-34.11071	
60.24812	1928.306		-34.06119	
60.30207	1926.608		-34.01395	
60.35602	1924.89		-33.9693	
60.40997	1923.155		-33.92748	
60.46392	1921.408		-33.88873	
60.51788	1919.654		-33.85321	
60.57182	1917.896		-33.82108	
60.62577	1916.131		-33.7924	
60.67973	1914.355		-33.76726	
60.73368	1912.562		-33.74564	
60.78763	1910.749		-33.7275	
60.84158	1908.926		-33.71271	
60.89553	1907.103		-33.70106	
60.94948	1905.285		-33.69226	
61.00343	1903.473		-33.68595	
61.05738	1901.666		-33.68164	
61.11133	1899.859		-33.67879	
61.16528	1898.049		-33.67677	
61.21923	1896.229		-33.67495	
61.27318	1894.394		-33.67262	
61.32713	1892.539		-33.66914	
61.38108	1890.664		-33.66386	
61.43504	1888.769		-33.65614	
61.48899	1886.866		-33.64532	
61.54294	1884.969		-33.63076	
61.59689	1883.091		-33.6118	
61.65084	1881.242		-33.5878	
61.70479	1879.424		-33.55817	
61.75874	1877.641		-33.52232	
61.81269	1875.885		-33.47972	
61.86664	1874.145		-33.4299	
61.92059	1872.403		-33.37244	
61.97454	1870.647		-33.30698	
62.02849	1868.873		-33.23324	
62.08244	1867.081		-33.15098	
62.13639	1865.265		-33.06008	
62.19035	1863.42		-32.96048	
62.2443	1861.539		-32.85218	
62.29825	1859.621		-32.73525	
62.3522	1857.67		-32.60984	
62.40615	1855.691		-32.47613	
62.4601	1853.692		-32.33432	
62.51405	1851.688		-32.18467	
62.568	1849.694		-32.02745	
62.62195	1847.726		-31.86292	
62.6759	1845.784		-31.69136	
62.72985	1843.864		-31.51299	
62.7838	1841.956		-31.32804	
62.83775	1840.059		-31.13668	
62.8917	1838.171		-30.93903	
62.94566	1836.293		-30.73516	
62.99961	1834.425		-30.52504	
63.05355	1832.571		-30.30861	
63.10751	1830.735		-30.08568	
63.16146	1828.925		-29.85606	
63.21541	1827.146		-29.61948	
63.26936	1825.402		-29.37565	
63.32331	1823.697		-29.12429	
63.37726	1822.032		-28.86508	
63.43121	1820.408		-28.59771	
63.48516	1818.829		-28.32179	
63.53911	1817.292		-28.03695	
63.59306	1815.797		-27.74276	
63.64701	1814.345		-27.43879	
63.70097	1812.938		-27.12458	
63.75491	1811.578		-26.79967	
63.80886	1810.264		-26.46354	
63.86282	1808.992		-26.11569	
63.91677	1807.744		-25.75564	
63.97072	1806.506		-25.38289	
64.02467	1805.272		-24.99703	
64.07862	1804.043		-24.59754	
64.13257	1802.819		-24.18412	
64.18652	1801.6		-23.75626	
64.24047	1800.385		-23.31371	
64.29442	1799.178		-22.85605	
64.34837	1797.979		-22.38291	
64.40232	1796.787		-21.89406	
64.45628	1795.597		-21.38905	
64.51022	1794.405		-20.86763	
64.56418	1793.214		-20.32931	
64.61813	1792.023		-19.77382	
64.67207	1790.831		-19.20061	
64.72603	1789.637		-18.60908	
64.77998	1788.446		-17.99877	
64.83393	1787.263		-17.36891	
64.88788	1786.089		-16.7189	
64.94183	1784.927		-16.04778	
64.99578	1783.78		-15.35481	
65.04973	1782.651		-14.63886	
65.10368	1781.545		-13.89874	
65.15763	1780.469		-13.13341	
65.21159	1779.429		-12.34146	
65.26553	1778.425		-11.52174	
65.31949	1777.458		-10.67269	
65.37344	1776.528		-9.793214	
65.42738	1775.639		-8.881752	
65.48134	1774.794		-7.936823	
65.53529	1774		-6.957203	
65.58924	1773.263		-5.941277	
65.64319	1772.588		-4.887871	
65.69714	1771.975		-3.795295	
65.75109	1771.42		-2.662536	
65.80504	1770.921		-1.487994	
65.85899	1770.478		-0.2702474	
65.91294	1770.087		0.9917297	
65.9669	1769.744		2.299434	
66.02084	1769.452		3.653734	
66.07479	1769.213		5.05592	
66.12875	1769.027		6.507164	
66.18269	1768.895		8.008114	
66.23665	1768.819		9.559965	
66.2906	1768.804		11.16319	
66.34455	1768.865		12.81888	
66.3985	1769.016		14.52726	
66.45245	1769.269		16.28927	
66.5064	1769.631		18.10566	
66.56035	1770.108		19.97655	
66.6143	1770.702		21.90289	
66.66825	1771.408		23.88464	
66.72221	1772.224		25.92283	
66.77615	1773.146		28.01729	
66.8301	1774.164		30.16895	
66.88406	1775.275		32.37843	
66.938	1776.48		34.6457	
66.99196	1777.786		36.97193	
67.04591	1779.197		39.35708	
67.09986	1780.723		41.80248	
67.15381	1782.378		44.30808	
67.20776	1784.172		46.87517	
67.26171	1786.114		49.50475	
67.31566	1788.207		52.19701	
67.36961	1790.453		54.95361	
67.42356	1792.849		57.77461	
67.47752	1795.395		60.66198	
67.53146	1798.102		63.61562	
67.58541	1800.981		66.63712	
67.63937	1804.042		69.72768	
67.69331	1807.292		72.88741	
67.74727	1810.732		76.11804	
67.80122	1814.355		79.41944	
67.85516	1818.16		82.79301	
67.90912	1822.145		86.23965	
67.96307	1826.311		89.75919	
68.01702	1830.669		93.3529	
68.07097	1835.222		97.02014	
68.12492	1839.975		100.7622	
68.17887	1844.926		104.5782	
68.23282	1850.071		108.469	
68.28677	1855.412		112.4347	
68.34072	1860.95		116.4746	
68.39468	1866.69		120.5894	
68.44862	1872.628		124.7776	
68.50258	1878.767		129.0401	
68.55653	1885.106		133.375	
68.61047	1891.652		137.7825	
68.66443	1898.416		142.2623	
68.71838	1905.404		146.8123	
68.77233	1912.622		151.4329	
68.82628	1920.067		156.1215	
68.88023	1927.743		160.8784	
68.93418	1935.653		165.7008	
68.98813	1943.803		170.5882	
69.04208	1952.201		175.5397	
69.09603	1960.86		180.5525	
69.14999	1969.798		185.6264	
69.20393	1979.023		190.7582	
69.25789	1988.55		195.9477	
69.31184	1998.39		201.1913	
69.36578	2008.55		206.4879	
69.41974	2019.033		211.8359	
69.47369	2029.838		217.2313	
69.52764	2040.966		222.6729	
69.58159	2052.415		228.1562	
69.63554	2064.199		233.6794	
69.68949	2076.324		239.2372	
69.74344	2088.801		244.8264	
69.79739	2101.638		250.443	
69.85134	2114.839		256.0805	
69.9053	2128.411		261.735	
69.95924	2142.35		267.3986	
70.01319	2156.655		273.0655	
70.06715	2171.331		278.7292	
70.12109	2186.372		284.3802	
70.17505	2201.781		290.0117	
70.229	2217.548		295.6132	
70.28295	2233.684		301.1767	
70.3369	2250.182		306.6908	
70.39085	2267.043		312.1457	
70.4448	2284.264		317.5313	
70.49875	2301.832		322.8347	
70.5527	2319.747		328.0456	
70.60665	2338.005		333.1507	
70.66061	2356.617		338.1392	
70.71455	2375.588		342.9973	
70.7685	2394.93		347.7132	
70.82246	2414.641		352.2752	
70.8764	2434.705		356.6697	
70.93036	2455.116		360.8857	
70.98431	2475.855		364.9101	
71.03826	2496.923		368.7319	
71.09221	2518.312		372.3395	
71.14616	2540.021		375.7216	
71.20011	2562.049		378.8691	
71.25406	2584.384		381.7711	
71.30801	2607.027		384.4193	
71.36196	2629.977		386.8049	
71.41592	2653.251		388.92	
71.46986	2676.856		390.7585	
71.52381	2700.799		392.3136	
71.57777	2725.087		393.581	
71.63171	2749.708		394.556	
71.68567	2774.653		395.2353	
71.73962	2799.883		395.6165	
71.79356	2825.369		395.697	
71.84752	2851.08		395.4772	
71.90147	2876.974		394.9558	
71.95542	2903.02		394.1345	
72.00937	2929.169		393.0147	
72.06332	2955.387		391.5983	
72.11727	2981.627		389.8892	
72.17122	3007.849		387.8895	
72.22517	3034.007		385.6046	
72.27912	3060.046		383.0385	
72.33308	3085.931		380.1968	
72.38702	3111.623		377.086	
72.44098	3137.091		373.7115	
72.49493	3162.285		370.0816	
72.54887	3187.152		366.2022	
72.60283	3211.628		362.0816	
72.65678	3235.646		357.729	
72.71073	3259.165		353.1522	
72.76468	3282.136		348.362	
72.81863	3304.526		343.366	
72.87258	3326.281		338.1768	
72.92653	3347.368		332.8033	
72.98048	3367.761		327.2562	
73.03443	3387.439		321.548	
73.08839	3406.402		315.6886	
73.14233	3424.646		309.6913	
73.19629	3442.188		303.5658	
73.25024	3459.049		297.3265	
73.30418	3475.251		290.9843	
73.35814	3490.816		284.5507	
73.41209	3505.748		278.0401	
73.46604	3520.058		271.4632	
73.51999	3533.742		264.8344	
73.57394	3546.805		258.1655	
73.62789	3559.25		251.4682	
73.68184	3571.086		244.757	
73.73579	3582.331		238.0426	
73.78974	3592.999		231.3391	
73.8437	3603.113		224.657	
73.89764	3612.692		218.0102	
73.95159	3621.763		211.4098	
74.00555	3630.357		204.8661	
74.05949	3638.508		198.3924	
74.11345	3646.255		191.9975	
74.1674	3653.629		185.6934	
74.22135	3660.652		179.4883	
74.2753	3667.334		173.3928	
74.32925	3673.685		167.4153	
74.3832	3679.722		161.5625	
74.43715	3685.464		155.8436	
74.4911	3690.931		150.2636	
74.54505	3696.14		144.8301	
74.59901	3701.099		139.5469	
74.65295	3705.824		134.4197	
74.7069	3710.336		129.4522	
74.76086	3714.66		124.6465	
74.8148	3718.815		120.0063	
74.86876	3722.833		115.532	
74.92271	3726.748		111.2256	
74.97666	3730.6		107.0867	
75.03061	3734.419		103.115	
75.08456	3738.223		99.30962	
75.13851	3742.02		95.66752	
75.19246	3745.812		92.18734	
75.24641	3749.605		88.86485	
75.30036	3753.395		85.69698	
75.35431	3757.167		82.67925	
75.40826	3760.911		79.80582	
75.46221	3764.616		77.07264	
75.51617	3768.272		74.47274	
75.57011	3771.87		72.00079	
75.62407	3775.404		69.64955	
75.67802	3778.86		67.41281	
75.73196	3782.229		65.28349	
75.78592	3785.499		63.25375	
75.83987	3788.656		61.31725	
75.89382	3791.697		59.46592	
75.94777	3794.627		57.69313	
76.00172	3797.453		55.99124	
76.05567	3800.178		54.35378	
76.10962	3802.797		52.77394	
76.16357	3805.311		51.24496	
76.21752	3807.717		49.76127	
76.27148	3810.009		48.31676	
76.32542	3812.176		46.90662	
76.37938	3814.219		45.52571	
76.43333	3816.147		44.17017	
76.48727	3817.989		42.83607	
76.54123	3819.767		41.51994	
76.59518	3821.507		40.2194	
76.64913	3823.229		38.93185	
76.70308	3824.953		37.65593	
76.75703	3826.69		36.39004	
76.81098	3828.454		35.13376	
76.86493	3830.252		33.88653	
76.91888	3832.084		32.64815	
76.97283	3833.942		31.41927	
77.02679	3835.813		30.20013	
77.08073	3837.676		28.99195	
77.13469	3839.516		27.79551	
77.18864	3841.329		26.61243	
77.24258	3843.122		25.44397	
77.29654	3844.904		24.29144	
77.35049	3846.67		23.1567	
77.40444	3848.412		22.04095	
77.45839	3850.112		20.94595	
77.51234	3851.753		19.87295	
77.56629	3853.322		18.82295	
77.62024	3854.812		17.79734	
77.67419	3856.21		16.79661	
77.72814	3857.5		15.8217	
77.7821	3858.656		14.87281	
77.83604	3859.653		13.95049	
77.88999	3860.478		13.05482	
77.94395	3861.127		12.18569	
77.99789	3861.606		11.34332	
78.05185	3861.922		10.52735	
78.1058	3862.085		9.73784	
78.15975	3862.11		8.974319	
78.2137	3862.018		8.236704	
78.26765	3861.818		7.524689	
78.3216	3861.516		6.837844	
78.37555	3861.12		6.176213	
78.4295	3860.637		5.539531	
78.48345	3860.069		4.927982	
78.53741	3859.421		4.341722	
78.59135	3858.701		3.781154	
78.6453	3857.917		3.246915	
78.69926	3857.07		2.739535	
78.7532	3856.164		2.260084	
78.80716	3855.212		1.809444	
78.86111	3854.239		1.388807	
78.91506	3853.276		0.9993259	
78.96901	3852.366		0.642094	
79.02296	3851.537		0.3183875	
79.07691	3850.806		0.02916718	
79.13086	3850.179		-0.2243418	
79.18481	3849.655		-0.441166	
79.23876	3849.231		-0.6203511	
79.29271	3848.9		-0.7609885	
79.34666	3848.653		-0.8626642	
79.40061	3848.474		-0.92479	
79.45457	3848.34		-0.9474275	
79.50851	3848.233		-0.9307467	
79.56247	3848.14		-0.8753062	
79.61642	3848.05		-0.7820759	
79.67036	3847.957		-0.6522071	
79.72432	3847.866		-0.4874264	
79.77827	3847.784		-0.2895695	
79.83222	3847.714		-0.06088271	
79.88617	3847.653		0.1961818	
79.94012	3847.605		0.4790784	
79.99407	3847.572		0.7849215	
80.04802	3847.551		1.110852	
80.10197	3847.535		1.453796	
80.15592	3847.508		1.810529	
80.20988	3847.456		2.177996	
80.26382	3847.376		2.552948	
80.31778	3847.281		2.932415	
80.37173	3847.188		3.313275	
80.42567	3847.111		3.692677	
80.47963	3847.063		4.067927	
80.53358	3847.066		4.436363	
80.58753	3847.146		4.795751	
80.64148	3847.322		5.143913	
80.69543	3847.599		5.47905	
80.74938	3847.973		5.799548	
80.80333	3848.426		6.104063	
80.85728	3848.944		6.391649	
80.91123	3849.519		6.661411	
80.96519	3850.142		6.912891	
81.01913	3850.812		7.145735	
81.07308	3851.53		7.35982	
81.12704	3852.301		7.555336	
81.18098	3853.127		7.732378	
81.23494	3853.999		7.891459	
81.28889	3854.916		8.033002	
81.34284	3855.879		8.157567	
81.39679	3856.881		8.265653	
81.45074	3857.909		8.357632	
81.50469	3858.95		8.433927	
81.55864	3859.999		8.494604	
81.61259	3861.045		8.539829	
81.66654	3862.079		8.56951	
81.7205	3863.094		8.583468	
81.77444	3864.086		8.581391	
81.82839	3865.049		8.562738	
81.88235	3865.984		8.526978	
81.93629	3866.888		8.473392	
81.99025	3867.76		8.401179	
82.0442	3868.595		8.309472	
82.09815	3869.385		8.19728	
82.1521	3870.117		8.063626	
82.20605	3870.79		7.907365	
82.26	3871.402		7.727442	
82.31395	3871.954		7.522795	
82.3679	3872.434		7.292299	
82.42185	3872.839		7.035052	
82.47581	3873.17		6.74999	
82.52975	3873.434		6.436474	
82.5837	3873.637		6.093693	
82.63766	3873.783		5.721139	
82.6916	3873.882		5.31854	
82.74556	3873.946		4.885603	
82.79951	3873.983		4.422434	
82.85345	3874.002		3.929063	
82.90741	3874.002		3.405834	
82.96136	3873.984		2.853372	
83.01531	3873.953		2.27233	
83.06926	3873.919		1.663796	
83.12321	3873.894		1.028706	
83.17716	3873.882		0.3685671	
83.23111	3873.89		-0.3152717	
83.28506	3873.927		-1.021172	
83.33901	3874.002		-1.747259	
83.39297	3874.115		-2.491871	
83.44691	3874.265		-3.253023	
83.50087	3874.452		-4.029173	
83.55482	3874.67		-4.818408	
83.60876	3874.905		-5.619294	
83.66272	3875.134		-6.430405	
83.71667	3875.332		-7.250145	
83.77062	3875.488		-8.07751	
83.82457	3875.594		-8.911183	
83.87852	3875.656		-9.750476	
83.93247	3875.673		-10.59433	
83.98642	3875.641		-11.4422	
84.04037	3875.541		-12.29357	
84.09432	3875.35		-13.14774	
84.14828	3875.054		-14.00462	
84.20222	3874.653		-14.86378	
84.25618	3874.152		-15.72547	
84.31013	3873.557		-16.58953	
84.36407	3872.872		-17.45635	
84.41803	3872.098		-18.32634	
84.47198	3871.241		-19.19966	
84.52593	3870.306		-20.07703	
84.57988	3869.29		-20.95872	
84.63383	3868.191		-21.84556	
84.68778	3866.998		-22.73783	
84.74173	3865.698		-23.63619	
84.79568	3864.278		-24.54126	
84.84963	3862.73		-25.45323	
84.90359	3861.049		-26.37267	
84.95753	3859.241		-27.29955	
85.01148	3857.322		-28.23411	
85.06544	3855.312		-29.17648	
85.11938	3853.234		-30.12623	
85.17334	3851.108		-31.08331	
85.22729	3848.952		-32.04696	
85.28124	3846.778		-33.0168	
85.33519	3844.589		-33.99175	
85.38914	3842.384		-34.97095	
85.44309	3840.162		-35.95345	
85.49704	3837.922		-36.93766	
85.55099	3835.658		-37.92249	
85.60494	3833.364		-38.90615	
85.6589	3831.023		-39.88738	
85.71284	3828.63		-40.8643	
85.76679	3826.189		-41.83545	
85.82075	3823.712		-42.79945	
85.87469	3821.22		-43.75454	
85.92865	3818.728		-44.69957	
85.9826	3816.254		-45.6329	
86.03655	3813.803		-46.55351	
86.0905	3811.379		-47.45998	
86.14445	3808.972		-48.3513	
86.1984	3806.574		-49.22665	
86.25235	3804.167		-50.08495	
86.3063	3801.729		-50.92572	
86.36025	3799.233		-51.74813	
86.41421	3796.656		-52.55186	
86.46815	3793.99		-53.33627	
86.5221	3791.24		-54.10114	
86.57606	3788.424		-54.84642	
86.63	3785.568		-55.57189	
86.68396	3782.684		-56.27793	
86.73791	3779.775		-56.96469	
86.79185	3776.83		-57.6327	
86.84581	3773.841		-58.28267	
86.89976	3770.801		-58.91494	
86.95371	3767.701		-59.53035	
87.00766	3764.53		-60.12939	
87.06161	3761.264		-60.71289	
87.11556	3757.876		-61.28137	
87.16951	3754.345		-61.83551	
87.22346	3750.667		-62.37606	
87.27741	3746.864		-62.90339	
87.33137	3742.961		-63.41824	
87.38531	3738.991		-63.92096	
87.43927	3734.985		-64.41212	
87.49322	3730.97		-64.89198	
87.54716	3726.963		-65.36089	
87.60112	3722.962		-65.81922	
87.65507	3718.964		-66.26703	
87.70902	3714.958		-66.70454	
87.76297	3710.937		-67.13174	
87.81693	3706.892		-67.5487	
87.87087	3702.814		-67.95538	
87.92482	3698.695		-68.35168	
87.97878	3694.533		-68.73764	
88.03272	3690.344		-69.11299	
88.08668	3686.151		-69.47771	
88.14063	3681.977		-69.83154	
88.19458	3677.851		-70.1744	
88.24853	3673.8		-70.50613	
88.30247	3669.828		-70.82664	
88.35643	3665.918		-71.13592	
88.41038	3662.056		-71.43374	
88.46433	3658.221		-71.72005	
88.51828	3654.398		-71.99463	
88.57223	3650.575		-72.25732	
88.62618	3646.742		-72.50811	
88.68013	3642.89		-72.74683	
88.73409	3639.006		-72.97364	
88.78803	3635.077		-73.18858	
88.84199	3631.105		-73.39198	
88.89594	3627.104		-73.58408	
88.94988	3623.106		-73.76538	
89.00384	3619.14		-73.93645	
89.05779	3615.229		-74.09791	
89.11174	3611.37		-74.2505	
89.16569	3607.552		-74.39492	
89.21964	3603.751		-74.53192	
89.27359	3599.951		-74.66216	
89.32754	3596.131		-74.78631	
89.38149	3592.286		-74.90504	
89.43544	3588.417		-75.01898	
89.4894	3584.533		-75.12881	
89.54334	3580.64		-75.23515	
89.5973	3576.741		-75.33868	
89.65125	3572.84		-75.44	
89.70519	3568.933		-75.53983	
89.75915	3565.014		-75.63882	
89.8131	3561.08		-75.73766	
89.86705	3557.121		-75.83703	
89.921	3553.131		-75.93748	
89.97495	3549.098		-76.03954	
90.0289	3545.02		-76.14362	
90.08285	3540.886		-76.25005	
90.1368	3536.694		-76.35902	
90.19075	3532.45		-76.47059	
90.24471	3528.168		-76.58479	
90.29865	3523.852		-76.70145	
90.3526	3519.504		-76.82043	
90.40656	3515.123		-76.94151	
90.4605	3510.724		-77.06431	
90.51446	3506.314		-77.18855	
90.56841	3501.905		-77.31384	
90.62236	3497.503		-77.43981	
90.67631	3493.121		-77.56599	
90.73026	3488.758		-77.69187	
90.78421	3484.412		-77.81699	
90.83816	3480.075		-77.94076	
90.89211	3475.739		-78.0627	
90.94606	3471.405		-78.18232	
91.00002	3467.081		-78.29928	
91.05396	3462.784		-78.41323	
91.10791	3458.523		-78.52391	
91.16187	3454.297		-78.63112	
91.21581	3450.109		-78.73461	
91.26977	3445.943		-78.83424	
91.32372	3441.78		-78.92981	
91.37767	3437.595		-79.02119	
91.43162	3433.378		-79.10824	
91.48557	3429.124		-79.19092	
91.53952	3424.834		-79.26923	
91.59347	3420.524		-79.34322	
91.64742	3416.211		-79.41295	
91.70137	3411.916		-79.47854	
91.75533	3407.645		-79.54016	
91.80927	3403.406		-79.59808	
91.86322	3399.196		-79.65261	
91.91718	3395.009		-79.70415	
91.97112	3390.838		-79.75314	
92.02508	3386.668		-79.80008	
92.07903	3382.479		-79.84542	
92.13298	3378.253		-79.88963	
92.18693	3373.977		-79.93311	
92.24088	3369.642		-79.97623	
92.29483	3365.245		-80.01936	
92.34878	3360.795		-80.06275	
92.40273	3356.304		-80.1067	
92.45668	3351.801		-80.16512	
92.51063	3347.307		-80.22482	
92.56458	3342.84		-80.28529	
92.61853	3338.414		-80.34611	
92.67249	3334.041		-80.40705	
92.72643	3329.724		-80.46796	
92.78039	3325.464		-80.52879	
92.83434	3321.25		-80.58952	
92.88828	3317.061		-80.65017	
92.94224	3312.869		-80.71077	
92.99619	3308.655		-80.77132	
93.05014	3304.396		-80.83189	
93.10409	3300.079		-80.89247	
93.15804	3295.699		-80.95312	
93.21199	3291.281		-81.01384	
93.26594	3286.849		-81.07466	
93.31989	3282.432		-81.13562	
93.37384	3278.05		-81.19671	
93.4278	3273.715		-81.25797	
93.48174	3269.421		-81.31939	
93.5357	3265.153		-81.381	
93.58965	3260.897		-81.44277	
93.64359	3256.636		-81.50472	
93.69755	3252.355		-81.56687	
93.7515	3248.04		-81.62919	
93.80545	3243.668		-81.6917	
93.8594	3239.237		-81.75439	
93.91335	3234.749		-81.81728	
93.9673	3230.22		-81.88036	
94.02125	3225.663		-81.94365	
94.0752	3221.131		-82.00716	
94.12915	3216.548		-82.07089	
94.18311	3211.916		-82.13486	
94.23705	3207.255		-82.19904	
94.291	3202.576		-82.26347	
94.34496	3197.887		-82.32813	
94.3989	3193.193		-82.39301	
94.45286	3188.496		-82.45811	
94.50681	3183.801		-82.52344	
94.56076	3179.107		-82.58899	
94.61471	3174.417		-82.65473	
94.66866	3169.73		-82.72068	
94.72261	3165.046		-82.78683	
94.77656	3160.367		-82.85316	
94.83051	3155.69		-82.91967	
94.88446	3151.016		-82.98634	
94.93842	3146.341		-83.05318	
94.99236	3141.663		-83.12016	
