T[Â°C]	350nm [counts / mm]	S.D.	First derivative	S.D. of first derivative
20.00091	3341.494		-50.67034	
20.05486	3339.043		-50.5871	
20.10881	3336.582		-50.50339	
20.16276	3334.109		-50.4192	
20.21671	3331.623		-50.33453	
20.27066	3329.123		-50.24939	
20.32461	3326.608		-50.1638	
20.37856	3324.079		-50.07776	
20.43251	3321.535		-49.9913	
20.48646	3318.976		-49.90443	
20.54041	3316.402		-49.81718	
20.59437	3313.816		-49.72957	
20.64832	3311.219		-49.64164	
20.70227	3308.616		-49.55342	
20.75622	3306.012		-49.46494	
20.81017	3303.415		-49.37625	
20.86412	3300.832		-49.28737	
20.91807	3298.266		-49.19836	
20.97202	3295.692		-49.10926	
21.02597	3292.929		-49.02013	
21.07992	3290.163		-48.93101	
21.13387	3287.394		-48.84195	
21.18782	3284.623		-48.75303	
21.24177	3281.848		-48.66427	
21.29572	3279.066		-48.57576	
21.34967	3276.273		-48.48755	
21.40363	3273.473		-48.39971	
21.45758	3270.674		-48.3123	
21.51153	3267.886		-48.22537	
21.56548	3265.118		-48.139	
21.61943	3262.382		-48.05324	
21.67338	3259.688		-47.96813	
21.72733	3257.044		-47.88373	
21.78128	3254.44		-47.80007	
21.83523	3251.86		-47.71717	
21.88918	3249.288		-47.63506	
21.94313	3246.712		-47.55371	
21.99708	3244.134		-47.4731	
22.05103	3241.559		-47.39318	
22.10498	3238.989		-47.31389	
22.15894	3236.427		-47.23509	
22.21289	3233.875		-47.15662	
22.26684	3231.328		-47.07826	
22.32079	3228.776		-46.99965	
22.37474	3226.216		-46.92032	
22.42869	3223.653		-46.83965	
22.48264	3221.089		-46.75679	
22.53659	3218.53		-46.67081	
22.59054	3215.985		-46.58081	
22.64449	3213.462		-46.5172	
22.69844	3210.971		-46.4561	
22.75239	3208.523		-46.39772	
22.80634	3206.118		-46.34224	
22.86029	3203.752		-46.28981	
22.91425	3201.426		-46.24059	
22.96819	3199.139		-46.19471	
23.02215	3196.886		-46.15231	
23.0761	3194.659		-46.11349	
23.13005	3192.449		-46.07838	
23.184	3190.25		-46.04709	
23.23795	3188.047		-46.01974	
23.2919	3185.832		-45.99646	
23.34585	3183.603		-45.97741	
23.3998	3181.355		-45.96273	
23.45375	3179.077		-45.95255	
23.5077	3176.759		-45.94699	
23.56165	3174.388		-45.94611	
23.6156	3171.965		-45.9499	
23.66955	3169.505		-45.95832	
23.72351	3167.022		-45.97123	
23.77746	3164.526		-45.98847	
23.83141	3162.021		-46.00977	
23.88536	3159.506		-46.03482	
23.93931	3156.981		-46.06322	
23.99326	3154.447		-46.09451	
24.04721	3151.899		-46.12812	
24.10116	3149.341		-46.16345	
24.15511	3146.779		-46.19984	
24.20906	3144.221		-46.23662	
24.26301	3141.672		-46.27315	
24.31696	3139.126		-46.30882	
24.37091	3136.582		-46.34309	
24.42486	3134.041		-46.37553	
24.47882	3131.505		-46.40583	
24.53277	3128.98		-46.43385	
24.58672	3126.469		-46.45951	
24.64067	3123.969		-46.48285	
24.69462	3121.481		-46.50397	
24.74857	3119.01		-46.52303	
24.80252	3116.549		-46.54019	
24.85647	3114.092		-46.55562	
24.91042	3111.626		-46.56947	
24.96437	3109.137		-46.5819	
25.01832	3106.603		-46.593	
25.07227	3104.01		-46.60285	
25.12622	3101.356		-46.61146	
25.18017	3098.648		-46.61884	
25.23413	3095.895		-46.62495	
25.28807	3093.113		-46.62972	
25.34203	3090.323		-46.63311	
25.39598	3087.544		-46.63504	
25.44993	3084.79		-46.6355	
25.50388	3082.065		-46.6345	
25.55783	3079.369		-46.63206	
25.61178	3076.708		-46.62821	
25.66573	3074.078		-46.62299	
25.71968	3071.476		-46.61646	
25.77363	3068.894		-46.60867	
25.82758	3066.319		-46.59967	
25.88153	3063.742		-46.58952	
25.93548	3061.159		-46.57822	
25.98943	3058.574		-46.56578	
26.04338	3055.995		-46.55216	
26.09734	3053.439		-46.53727	
26.15129	3050.93		-46.52103	
26.20524	3048.49		-46.50342	
26.25919	3046.132		-46.48436	
26.31314	3043.854		-46.46381	
26.36709	3041.647		-46.44168	
26.42104	3039.49		-46.41789	
26.47499	3037.358		-46.39243	
26.52894	3035.227		-46.36529	
26.58289	3033.073		-46.33656	
26.63684	3030.874		-46.30636	
26.69079	3028.618		-46.27486	
26.74474	3026.298		-46.24226	
26.79869	3023.913		-46.20881	
26.85265	3021.468		-46.17471	
26.9066	3018.978		-46.14024	
26.96055	3016.461		-46.10566	
27.0145	3013.931		-46.07123	
27.06845	3011.398		-46.03727	
27.1224	3008.865		-46.00405	
27.17635	3006.334		-45.97185	
27.2303	3003.805		-45.94091	
27.28425	3001.268		-45.91142	
27.3382	2998.718		-45.8835	
27.39215	2996.153		-45.85719	
27.4461	2993.569		-45.83244	
27.50005	2990.965		-45.80911	
27.554	2988.343		-45.78704	
27.60795	2985.705		-45.76602	
27.66191	2983.06		-45.74586	
27.71586	2980.421		-45.7264	
27.76981	2977.804		-45.70749	
27.82376	2975.225		-45.68899	
27.87771	2972.695		-45.67081	
27.93166	2970.216		-45.65286	
27.98561	2967.779		-45.63503	
28.03956	2965.365		-45.61724	
28.09351	2962.963		-45.59937	
28.14746	2960.561		-45.58136	
28.20141	2958.151		-45.56315	
28.25536	2955.727		-45.54467	
28.30931	2953.287		-45.52584	
28.36326	2950.836		-45.50657	
28.41722	2948.371		-45.48673	
28.47117	2945.894		-45.46625	
28.52512	2943.404		-45.44503	
28.57907	2940.906		-45.42301	
28.63302	2938.413		-45.4002	
28.68697	2935.933		-45.37665	
28.74092	2933.46		-45.35244	
28.79487	2930.983		-45.32766	
28.84882	2928.497		-45.30242	
28.90277	2926.007		-45.27686	
28.95672	2923.516		-45.25114	
29.01067	2921.022		-45.22547	
29.06462	2918.522		-45.2001	
29.11857	2916.016		-45.17529	
29.17253	2913.509		-45.1513	
29.22647	2911.003		-45.12841	
29.28043	2908.508		-45.10684	
29.33438	2906.034		-45.08675	
29.38833	2903.594		-45.06825	
29.44228	2901.197		-45.05136	
29.49623	2898.852		-45.03604	
29.55018	2896.559		-45.02214	
29.60413	2894.307		-45.00951	
29.65808	2892.079		-44.99788	
29.71203	2889.855		-44.98703	
29.76598	2887.623		-44.9767	
29.81993	2885.373		-44.96669	
29.87388	2883.1		-44.95678	
29.92783	2880.804		-44.94681	
29.98178	2878.49		-44.93663	
30.03574	2876.167		-44.92616	
30.08969	2873.846		-44.91533	
30.14364	2871.529		-44.90414	
30.19759	2869.214		-44.89259	
30.25154	2866.895		-44.88071	
30.30549	2864.566		-44.86855	
30.35944	2862.222		-44.85617	
30.41339	2859.854		-44.84365	
30.46734	2857.456		-44.83107	
30.52129	2855.02		-44.8185	
30.57524	2852.548		-44.80603	
30.62919	2850.048		-44.79375	
30.68314	2847.519		-44.78173	
30.73709	2844.957		-44.77	
30.79105	2842.365		-44.75858	
30.845	2839.751		-44.74744	
30.89895	2837.134		-44.73657	
30.9529	2834.523		-44.72594	
31.00685	2831.935		-44.71553	
31.0608	2829.38		-44.70533	
31.11475	2826.868		-44.69536	
31.1687	2824.398		-44.68562	
31.22265	2821.958		-44.67606	
31.2766	2819.537		-44.66664	
31.33055	2817.126		-44.65728	
31.3845	2814.712		-44.64791	
31.43845	2812.286		-44.63846	
31.4924	2809.843		-44.62888	
31.54635	2807.379		-44.61904	
31.60031	2804.901		-44.60881	
31.65426	2802.419		-44.59801	
31.70821	2799.951		-44.58648	
31.76216	2797.504		-44.57404	
31.81611	2795.083		-44.56052	
31.87006	2792.685		-44.5458	
31.92401	2790.304		-44.52977	
31.97796	2787.936		-44.51236	
32.03191	2785.576		-44.49353	
32.08586	2783.219		-44.47326	
32.13981	2780.865		-44.45154	
32.19376	2778.516		-44.42842	
32.24771	2776.173		-44.404	
32.30167	2773.824		-44.37848	
32.35561	2771.458		-44.35208	
32.40956	2769.069		-44.32514	
32.46352	2766.662		-44.29802	
32.51747	2764.252		-44.2711	
32.57142	2761.848		-44.24482	
32.62537	2759.46		-44.21955	
32.67932	2757.1		-44.19563	
32.73327	2754.775		-44.17333	
32.78722	2752.49		-44.1529	
32.84117	2750.24		-44.13448	
32.89512	2748.011		-44.11818	
32.94907	2745.784		-44.10402	
33.00303	2743.543		-44.09196	
33.05697	2741.278		-44.0819	
33.11092	2738.979		-44.07365	
33.16488	2736.638		-44.06702	
33.21883	2734.258		-44.06171	
33.27278	2731.853		-44.0574	
33.32673	2729.438		-44.05376	
33.38068	2727.028		-44.05043	
33.43463	2724.636		-44.04711	
33.48858	2722.265		-44.04343	
33.54253	2719.913		-44.0391	
33.59648	2717.572		-44.03378	
33.65043	2715.233		-44.02719	
33.70438	2712.888		-44.01907	
33.75833	2710.533		-44.00916	
33.81228	2708.167		-43.99725	
33.86623	2705.787		-43.98317	
33.92019	2703.394		-43.96674	
33.97414	2700.985		-43.94778	
34.02809	2698.562		-43.92616	
34.08204	2696.129		-43.9017	
34.13599	2693.695		-43.87428	
34.18994	2691.273		-43.8438	
34.24389	2688.869		-43.81027	
34.29784	2686.485		-43.77374	
34.35179	2684.121		-43.73435	
34.40574	2681.777		-43.69232	
34.45969	2679.447		-43.64792	
34.51364	2677.115		-43.60149	
34.56759	2674.766		-43.55337	
34.62154	2672.393		-43.50396	
34.6755	2669.99		-43.45364	
34.72945	2667.552		-43.40285	
34.7834	2665.08		-43.35199	
34.83735	2662.575		-43.30145	
34.8913	2660.044		-43.25157	
34.94525	2657.502		-43.20266	
34.9992	2654.967		-43.155	
35.05315	2652.449		-43.10881	
35.1071	2649.952		-43.06423	
35.16105	2647.48		-43.02135	
35.215	2645.036		-42.98021	
35.26895	2642.618		-42.94077	
35.3229	2640.219		-42.90295	
35.37685	2637.834		-42.86662	
35.43081	2635.464		-42.8316	
35.48476	2633.11		-42.79773	
35.5387	2630.777		-42.76486	
35.59266	2628.467		-42.73288	
35.64661	2626.177		-42.70171	
35.70056	2623.91		-42.6713	
35.75451	2621.668		-42.64165	
35.80846	2619.462		-42.61282	
35.86241	2617.298		-42.58485	
35.91636	2615.177		-42.55783	
35.97031	2613.097		-42.53186	
36.02426	2611.057		-42.50702	
36.07821	2609.047		-42.48341	
36.13216	2607.054		-42.46114	
36.18612	2605.067		-42.4403	
36.24007	2603.071		-42.42103	
36.29401	2601.052		-42.40343	
36.34797	2599		-42.38763	
36.40192	2596.91		-42.37378	
36.45587	2594.781		-42.36203	
36.50982	2592.61		-42.35257	
36.56377	2590.401		-42.34555	
36.61772	2588.166		-42.34118	
36.67167	2585.918		-42.3396	
36.72562	2583.667		-42.34101	
36.77957	2581.413		-42.34555	
36.83352	2579.151		-42.35333	
36.88747	2576.871		-42.36448	
36.94143	2574.563		-42.37905	
36.99537	2572.217		-42.3971	
37.04932	2569.834		-42.41864	
37.10328	2567.42		-42.44361	
37.15723	2564.989		-42.47194	
37.21118	2562.55		-42.50346	
37.26513	2560.112		-42.53792	
37.31908	2557.681		-42.57499	
37.37303	2555.263		-42.61424	
37.42698	2552.862		-42.65519	
37.48093	2550.48		-42.69728	
37.53488	2548.124		-42.73996	
37.58883	2545.796		-42.78264	
37.64278	2543.495		-42.82473	
37.69673	2541.216		-42.86563	
37.75068	2538.949		-42.90483	
37.80463	2536.686		-42.94178	
37.85859	2534.416		-42.97602	
37.91254	2532.134		-43.00712	
37.96649	2529.835		-43.03475	
38.02044	2527.518		-43.05863	
38.07439	2525.178		-43.07856	
38.12834	2522.811		-43.09435	
38.18229	2520.426		-43.1059	
38.23624	2518.036		-43.11314	
38.29019	2515.649		-43.116	
38.34414	2513.266		-43.11453	
38.39809	2510.89		-43.10878	
38.45204	2508.521		-43.09887	
38.50599	2506.147		-43.08496	
38.55994	2503.758		-43.06724	
38.6139	2501.352		-43.04593	
38.66785	2498.932		-43.02125	
38.7218	2496.503		-42.99349	
38.77575	2494.071		-42.96299	
38.8297	2491.643		-42.93013	
38.88365	2489.227		-42.89536	
38.9376	2486.819		-42.85915	
38.99155	2484.409		-42.82202	
39.0455	2481.997		-42.78447	
39.09945	2479.589		-42.74697	
39.1534	2477.198		-42.71002	
39.20735	2474.833		-42.67402	
39.2613	2472.501		-42.63934	
39.31525	2470.206		-42.60627	
39.36921	2467.947		-42.57502	
39.42316	2465.713		-42.54572	
39.4771	2463.5		-42.51842	
39.53106	2461.296		-42.49312	
39.58501	2459.088		-42.46975	
39.63896	2456.873		-42.44821	
39.69291	2454.646		-42.42836	
39.74686	2452.406		-42.41003	
39.80081	2450.156		-42.39302	
39.85476	2447.904		-42.37713	
39.90871	2445.657		-42.3621	
39.96266	2443.427		-42.34767	
40.01661	2441.223		-42.33354	
40.07056	2439.047		-42.31944	
40.12452	2436.887		-42.3051	
40.17846	2434.733		-42.29029	
40.23241	2432.573		-42.27478	
40.28637	2430.399		-42.25841	
40.34032	2428.205		-42.24102	
40.39427	2425.993		-42.2225	
40.44822	2423.768		-42.20273	
40.50217	2421.531		-42.18162	
40.55612	2419.285		-42.15907	
40.61007	2417.032		-42.13498	
40.66402	2414.775		-42.10928	
40.71797	2412.517		-42.08196	
40.77192	2410.261		-42.05308	
40.82587	2408.022		-42.02275	
40.87983	2405.812		-41.99112	
40.93377	2403.627		-41.95839	
40.98772	2401.459		-41.92477	
41.04168	2399.295		-41.89047	
41.09563	2397.124		-41.85569	
41.14958	2394.933		-41.82062	
41.20353	2392.714		-41.78547	
41.25748	2390.457		-41.75043	
41.31143	2388.153		-41.71567	
41.36538	2385.793		-41.68131	
41.41933	2383.38		-41.64749	
41.47328	2380.925		-41.61426	
41.52723	2378.443		-41.58165	
41.58118	2375.951		-41.54968	
41.63513	2373.469		-41.51836	
41.68908	2371.008		-41.4877	
41.74303	2368.576		-41.45766	
41.79699	2366.175		-41.42819	
41.85094	2363.795		-41.3992	
41.90489	2361.431		-41.37052	
41.95884	2359.076		-41.34196	
42.01279	2356.731		-41.31331	
42.06674	2354.394		-41.28435	
42.12069	2352.062		-41.25489	
42.17464	2349.738		-41.22476	
42.22859	2347.425		-41.19381	
42.28254	2345.124		-41.16194	
42.33649	2342.837		-41.12907	
42.39044	2340.569		-41.09513	
42.44439	2338.333		-41.06009	
42.49834	2336.147		-41.02395	
42.5523	2334.026		-40.98672	
42.60625	2331.974		-40.94845	
42.6602	2329.984		-40.90923	
42.71415	2328.039		-40.86918	
42.7681	2326.121		-40.82846	
42.82205	2324.213		-40.78727	
42.876	2322.292		-40.74583	
42.92995	2320.342		-40.70438	
42.9839	2318.348		-40.66318	
43.03785	2316.305		-40.62249	
43.0918	2314.212		-40.58257	
43.14575	2312.079		-40.54366	
43.1997	2309.918		-40.50603	
43.25365	2307.742		-40.46994	
43.30761	2305.558		-40.43561	
43.36156	2303.371		-40.40326	
43.4155	2301.181		-40.3731	
43.46946	2298.987		-40.34528	
43.52341	2296.79		-40.31993	
43.57736	2294.587		-40.29716	
43.63131	2292.383		-40.27706	
43.68526	2290.184		-40.25968	
43.73921	2287.994		-40.24502	
43.79316	2285.809		-40.23304	
43.84711	2283.625		-40.2236	
43.90106	2281.438		-40.21656	
43.95501	2279.243		-40.21172	
44.00896	2277.038		-40.20893	
44.06292	2274.826		-40.20803	
44.11686	2272.621		-40.20887	
44.17081	2270.435		-40.21132	
44.22477	2268.273		-40.21523	
44.27872	2266.141		-40.22047	
44.33267	2264.035		-40.22688	
44.38662	2261.946		-40.23433	
44.44057	2259.868		-40.24268	
44.49452	2257.794		-40.25179	
44.54847	2255.714		-40.26156	
44.60242	2253.618		-40.27186	
44.65637	2251.494		-40.28259	
44.71032	2249.34		-40.29361	
44.76427	2247.159		-40.3048	
44.81823	2244.95		-40.316	
44.87217	2242.711		-40.32706	
44.92612	2240.448		-40.33787	
44.98008	2238.164		-40.3483	
45.03403	2235.866		-40.35829	
45.08798	2233.56		-40.36776	
45.14193	2231.251		-40.37664	
45.19588	2228.947		-40.38484	
45.24983	2226.651		-40.39229	
45.30378	2224.366		-40.39891	
45.35773	2222.093		-40.40461	
45.41168	2219.831		-40.40937	
45.46563	2217.578		-40.41314	
45.51958	2215.327		-40.41592	
45.57353	2213.078		-40.4177	
45.62748	2210.833		-40.41848	
45.68143	2208.597		-40.41825	
45.73539	2206.374		-40.41699	
45.78934	2204.176		-40.41467	
45.84329	2202.013		-40.41126	
45.89724	2199.894		-40.40677	
45.95119	2197.816		-40.40126	
46.00514	2195.776		-40.39482	
46.05909	2193.768		-40.38764	
46.11304	2191.782		-40.3799	
46.16699	2189.802		-40.37184	
46.22094	2187.81		-40.36367	
46.27489	2185.793		-40.35564	
46.32884	2183.746		-40.34795	
46.38279	2181.667		-40.34081	
46.43674	2179.559		-40.33443	
46.4907	2177.427		-40.32898	
46.54465	2175.274		-40.32464	
46.5986	2173.099		-40.32154	
46.65255	2170.901		-40.31982	
46.7065	2168.685		-40.31955	
46.76045	2166.454		-40.3208	
46.8144	2164.212		-40.32359	
46.86835	2161.956		-40.32792	
46.9223	2159.689		-40.33376	
46.97625	2157.41		-40.34102	
47.0302	2155.125		-40.34963	
47.08415	2152.837		-40.35942	
47.1381	2150.547		-40.37021	
47.19205	2148.256		-40.38174	
47.24601	2145.966		-40.39374	
47.29996	2143.684		-40.40591	
47.3539	2141.418		-40.41795	
47.40786	2139.178		-40.42954	
47.46181	2136.971		-40.44041	
47.51576	2134.805		-40.45028	
47.56971	2132.683		-40.4589	
47.62366	2130.605		-40.466	
47.67761	2128.566		-40.47135	
47.73156	2126.555		-40.47472	
47.78551	2124.564		-40.47588	
47.83946	2122.581		-40.47468	
47.89341	2120.594		-40.47099	
47.94736	2118.59		-40.46477	
48.00132	2116.557		-40.45601	
48.05526	2114.486		-40.44478	
48.10921	2112.373		-40.43121	
48.16317	2110.221		-40.41549	
48.21712	2108.032		-40.39784	
48.27107	2105.813		-40.37849	
48.32502	2103.569		-40.35769	
48.37897	2101.307		-40.33568	
48.43292	2099.025		-40.3127	
48.48687	2096.72		-40.28898	
48.54082	2094.392		-40.2647	
48.59477	2092.039		-40.24003	
48.64872	2089.665		-40.21512	
48.70267	2087.279		-40.19007	
48.75662	2084.891		-40.16499	
48.81057	2082.507		-40.13995	
48.86452	2080.133		-40.11502	
48.91848	2077.774		-40.09026	
48.97243	2075.434		-40.06569	
49.02638	2073.12		-40.04131	
49.08033	2070.841		-40.01707	
49.13428	2068.604		-39.99293	
49.18823	2066.413		-39.96878	
49.24218	2064.268		-39.94451	
49.29613	2062.164		-39.91999	
49.35008	2060.094		-39.89508	
49.40403	2058.052		-39.8696	
49.45798	2056.034		-39.8434	
49.51193	2054.035		-39.81634	
49.56588	2052.045		-39.78826	
49.61983	2050.057		-39.75906	
49.67379	2048.066		-39.72864	
49.72774	2046.07		-39.69691	
49.78169	2044.07		-39.66385	
49.83564	2042.066		-39.62948	
49.88959	2040.057		-39.59389	
49.94354	2038.042		-39.55723	
49.99749	2036.013		-39.51971	
50.05144	2033.963		-39.48159	
50.10539	2031.886		-39.44314	
50.15934	2029.78		-39.40469	
50.21329	2027.644		-39.36658	
50.26724	2025.48		-39.32912	
50.32119	2023.303		-39.29263	
50.37514	2021.121		-39.25738	
50.4291	2018.94		-39.22363	
50.48305	2016.76		-39.19159	
50.53699	2014.581		-39.16143	
50.59095	2012.401		-39.13331	
50.6449	2010.218		-39.10731	
50.69885	2008.027		-39.08348	
50.7528	2005.831		-39.06185	
50.80675	2003.639		-39.04237	
50.8607	2001.467		-39.02503	
50.91465	1999.324		-39.00976	
50.9686	1997.213		-38.99649	
51.02255	1995.133		-38.98515	
51.0765	1993.081		-38.97565	
51.13046	1991.052		-38.9679	
51.18441	1989.046		-38.96183	
51.23836	1987.056		-38.95736	
51.2923	1985.076		-38.95442	
51.34626	1983.094		-38.9529	
51.40021	1981.104		-38.95269	
51.45416	1979.098		-38.95361	
51.50811	1977.07		-38.95551	
51.56206	1975.011		-38.95822	
51.61601	1972.921		-38.96158	
51.66996	1970.803		-38.96543	
51.72391	1968.665		-38.96962	
51.77786	1966.518		-38.97401	
51.83181	1964.373		-38.9785	
51.88577	1962.236		-38.98305	
51.93972	1960.113		-38.98766	
51.99366	1958.001		-38.99237	
52.04762	1955.895		-38.99728	
52.10157	1953.789		-39.00251	
52.15552	1951.675		-39.00818	
52.20947	1949.546		-39.01447	
52.26342	1947.402		-39.02154	
52.31737	1945.239		-39.02953	
52.37132	1943.059		-39.0386	
52.42527	1940.86		-39.04886	
52.47922	1938.647		-39.06039	
52.53317	1936.43		-39.07327	
52.58712	1934.226		-39.08753	
52.64108	1932.049		-39.10318	
52.69502	1929.906		-39.12017	
52.74897	1927.799		-39.13844	
52.80293	1925.733		-39.15788	
52.85688	1923.708		-39.17837	
52.91083	1921.718		-39.19978	
52.96478	1919.753		-39.22195	
53.01873	1917.8		-39.24471	
53.07268	1915.841		-39.26787	
53.12663	1913.862		-39.29122	
53.18058	1911.854		-39.31456	
53.23453	1909.815		-39.33771	
53.28848	1907.747		-39.36055	
53.34243	1905.654		-39.38295	
53.39638	1903.541		-39.40485	
53.45033	1901.41		-39.42616	
53.50428	1899.268		-39.44682	
53.55824	1897.118		-39.46675	
53.61219	1894.967		-39.4859	
53.66614	1892.817		-39.50419	
53.72009	1890.668		-39.52155	
53.77404	1888.513		-39.53787	
53.82799	1886.349		-39.55304	
53.88194	1884.174		-39.5669	
53.93589	1881.992		-39.5793	
53.98984	1879.81		-39.59007	
54.04379	1877.63		-39.59905	
54.09774	1875.445		-39.6061	
54.15169	1873.254		-39.61112	
54.20564	1871.052		-39.61405	
54.25959	1868.845		-39.61486	
54.31355	1866.643		-39.61359	
54.3675	1864.456		-39.61029	
54.42145	1862.291		-39.6051	
54.4754	1860.149		-39.59815	
54.52935	1858.029		-39.58959	
54.5833	1855.925		-39.5796	
54.63725	1853.83		-39.56833	
54.6912	1851.736		-39.55596	
54.74515	1849.634		-39.54265	
54.7991	1847.52		-39.52856	
54.85305	1845.394		-39.51383	
54.907	1843.257		-39.49859	
54.96095	1841.11		-39.48296	
55.0149	1838.948		-39.46704	
55.06886	1836.766		-39.45091	
55.12281	1834.562		-39.43462	
55.17675	1832.339		-39.41824	
55.23071	1830.105		-39.40179	
55.28466	1827.869		-39.38533	
55.33861	1825.639		-39.36886	
55.39256	1823.415		-39.35242	
55.44651	1821.194		-39.33606	
55.50046	1818.968		-39.31977	
55.55441	1816.737		-39.30359	
55.60836	1814.51		-39.28749	
55.66231	1812.302		-39.27148	
55.71626	1810.123		-39.25558	
55.77021	1807.975		-39.23981	
55.82417	1805.854		-39.22417	
55.87812	1803.755		-39.20865	
55.93206	1801.678		-39.19321	
55.98602	1799.622		-39.17778	
56.03997	1797.587		-39.16231	
56.09392	1795.571		-39.14674	
56.14787	1793.575		-39.13105	
56.20182	1791.599		-39.11519	
56.25577	1789.64		-39.09917	
56.30972	1787.691		-39.08298	
56.36367	1785.744		-39.06665	
56.41762	1783.794		-39.05024	
56.47157	1781.839		-39.03386	
56.52552	1779.877		-39.01764	
56.57948	1777.906		-39.00171	
56.63342	1775.92		-38.98623	
56.68737	1773.917		-38.97136	
56.74133	1771.894		-38.95728	
56.79528	1769.849		-38.94418	
56.84923	1767.786		-38.93222	
56.90318	1765.709		-38.92157	
56.95713	1763.617		-38.91238	
57.01108	1761.506		-38.90482	
57.06503	1759.374		-38.89901	
57.11898	1757.223		-38.89506	
57.17293	1755.053		-38.89307	
57.22688	1752.868		-38.89306	
57.28083	1750.673		-38.89504	
57.33478	1748.476		-38.8989	
57.38873	1746.28		-38.9045	
57.44268	1744.087		-38.91161	
57.49664	1741.893		-38.91994	
57.55059	1739.697		-38.92918	
57.60454	1737.496		-38.93894	
57.65849	1735.294		-38.94887	
57.71244	1733.093		-38.95862	
57.76639	1730.901		-38.96787	
57.82034	1728.727		-38.97631	
57.87429	1726.586		-38.98364	
57.92824	1724.488		-38.98955	
57.98219	1722.434		-38.99377	
58.03614	1720.416		-38.99605	
58.09009	1718.422		-38.99619	
58.14404	1716.442		-38.99405	
58.19799	1714.467		-38.98954	
58.25195	1712.481		-38.98257	
58.3059	1710.474		-38.97307	
58.35985	1708.439		-38.961	
58.4138	1706.375		-38.94633	
58.46775	1704.282		-38.92905	
58.5217	1702.166		-38.90918	
58.57565	1700.03		-38.88678	
58.6296	1697.879		-38.86195	
58.68355	1695.715		-38.83485	
58.7375	1693.543		-38.80567	
58.79145	1691.366		-38.77461	
58.8454	1689.194		-38.74191	
58.89935	1687.026		-38.70785	
58.9533	1684.863		-38.67274	
59.00726	1682.698		-38.6369	
59.06121	1680.53		-38.60067	
59.11515	1678.358		-38.56438	
59.16911	1676.176		-38.52831	
59.22306	1673.986		-38.49274	
59.27701	1671.793		-38.45787	
59.33096	1669.604		-38.42389	
59.38491	1667.43		-38.39091	
59.43886	1665.281		-38.359	
59.49281	1663.16		-38.32817	
59.54676	1661.069		-38.29837	
59.60071	1659.009		-38.26956	
59.65466	1656.979		-38.24166	
59.70861	1654.98		-38.21459	
59.76257	1653.002		-38.18825	
59.81652	1651.041		-38.16254	
59.87046	1649.094		-38.13734	
59.92442	1647.159		-38.11249	
59.97837	1645.23		-38.08784	
60.03232	1643.301		-38.06324	
60.08627	1641.37		-38.03859	
60.14022	1639.434		-38.01377	
60.19417	1637.489		-37.98877	
60.24812	1635.529		-37.96355	
60.30207	1633.551		-37.9381	
60.35602	1631.549		-37.91242	
60.40997	1629.526		-37.88651	
60.46392	1627.489		-37.86034	
60.51788	1625.447		-37.83391	
60.57182	1623.405		-37.80716	
60.62577	1621.367		-37.78004	
60.67973	1619.329		-37.75249	
60.73368	1617.291		-37.72442	
60.78763	1615.254		-37.69569	
60.84158	1613.221		-37.66613	
60.89553	1611.191		-37.63553	
60.94948	1609.167		-37.60363	
61.00343	1607.151		-37.5701	
61.05738	1605.144		-37.53459	
61.11133	1603.139		-37.49667	
61.16528	1601.126		-37.45591	
61.21923	1599.094		-37.41182	
61.27318	1597.036		-37.3639	
61.32713	1594.958		-37.31166	
61.38108	1592.872		-37.25462	
61.43504	1590.789		-37.19231	
61.48899	1588.714		-37.12428	
61.54294	1586.648		-37.05011	
61.59689	1584.594		-36.96941	
61.65084	1582.554		-36.88181	
61.70479	1580.526		-36.78699	
61.75874	1578.509		-36.68467	
61.81269	1576.5		-36.57462	
61.86664	1574.497		-36.45665	
61.92059	1572.497		-36.33061	
61.97454	1570.495		-36.19637	
62.02849	1568.487		-36.05379	
62.08244	1566.473		-35.90282	
62.13639	1564.448		-35.7434	
62.19035	1562.409		-35.57559	
62.2443	1560.355		-35.39946	
62.29825	1558.282		-35.21518	
62.3522	1556.19		-35.02298	
62.40615	1554.085		-34.8231	
62.4601	1551.977		-34.61592	
62.51405	1549.88		-34.40181	
62.568	1547.81		-34.18121	
62.62195	1545.774		-33.95455	
62.6759	1543.769		-33.72227	
62.72985	1541.792		-33.48471	
62.7838	1539.84		-33.24225	
62.83775	1537.905		-32.99519	
62.8917	1535.989		-32.74378	
62.94566	1534.088		-32.4882	
62.99961	1532.201		-32.22853	
63.05355	1530.327		-31.96478	
63.10751	1528.465		-31.6968	
63.16146	1526.617		-31.42443	
63.21541	1524.786		-31.14741	
63.26936	1522.977		-30.86542	
63.32331	1521.195		-30.57812	
63.37726	1519.448		-30.28513	
63.43121	1517.746		-29.98606	
63.48516	1516.099		-29.68047	
63.53911	1514.517		-29.36797	
63.59306	1513.007		-29.04812	
63.64701	1511.567		-28.7205	
63.70097	1510.193		-28.38466	
63.75491	1508.872		-28.0402	
63.80886	1507.591		-27.68666	
63.86282	1506.332		-27.32367	
63.91677	1505.083		-26.95084	
63.97072	1503.832		-26.56775	
64.02467	1502.572		-26.17396	
64.07862	1501.302		-25.76889	
64.13257	1500.025		-25.35214	
64.18652	1498.745		-24.92307	
64.24047	1497.471		-24.48127	
64.29442	1496.202		-24.02614	
64.34837	1494.939		-23.5571	
64.40232	1493.681		-23.07374	
64.45628	1492.428		-22.57541	
64.51022	1491.183		-22.0617	
64.56418	1489.948		-21.53195	
64.61813	1488.726		-20.98578	
64.67207	1487.513		-20.42252	
64.72603	1486.3		-19.84153	
64.77998	1485.078		-19.24232	
64.83393	1483.843		-18.62413	
64.88788	1482.598		-17.98645	
64.94183	1481.344		-17.32845	
64.99578	1480.086		-16.64958	
65.04973	1478.827		-15.94891	
65.10368	1477.571		-15.2255	
65.15763	1476.329		-14.47854	
65.21159	1475.119		-13.70685	
65.26553	1473.957		-12.90957	
65.31949	1472.853		-12.08539	
65.37344	1471.81		-11.2335	
65.42738	1470.823		-10.35264	
65.48134	1469.893		-9.441664	
65.53529	1469.023		-8.499692	
65.58924	1468.211		-7.525482	
65.64319	1467.46		-6.518232	
65.69714	1466.766		-5.476673	
65.75109	1466.121		-4.400219	
65.80504	1465.52		-3.287765	
65.85899	1464.963		-2.13841	
65.91294	1464.454		-0.9516464	
65.9669	1463.997		0.2734722	
66.02084	1463.59		1.53729	
66.07479	1463.236		2.840548	
66.12875	1462.94		4.183893	
66.18269	1462.713		5.567509	
66.23665	1462.565		6.992152	
66.2906	1462.5		8.457945	
66.34455	1462.524		9.965688	
66.3985	1462.639		11.51542	
66.45245	1462.849		13.1079	
66.5064	1463.16		14.7438	
66.56035	1463.579		16.42327	
66.6143	1464.11		18.14725	
66.66825	1464.751		19.91578	
66.72221	1465.499		21.72985	
66.77615	1466.349		23.58936	
66.8301	1467.301		25.49512	
66.88406	1468.353		27.44769	
66.938	1469.507		29.4469	
66.99196	1470.767		31.49366	
67.04591	1472.134		33.58775	
67.09986	1473.611		35.73008	
67.15381	1475.197		37.92041	
67.20776	1476.897		40.15956	
67.26171	1478.716		42.44817	
67.31566	1480.663		44.78606	
67.36961	1482.738		47.17434	
67.42356	1484.94		49.61275	
67.47752	1487.271		52.10257	
67.53146	1489.736		54.64338	
67.58541	1492.349		57.23618	
67.63937	1495.125		59.88163	
67.69331	1498.066		62.57944	
67.74727	1501.168		65.33069	
67.80122	1504.42		68.13483	
67.85516	1507.812		70.99262	
67.90912	1511.333		73.9044	
67.96307	1514.974		76.86959	
68.01702	1518.73		79.88883	
68.07097	1522.599		82.96117	
68.12492	1526.588		86.08727	
68.17887	1530.704		89.26594	
68.23282	1534.966		92.49754	
68.28677	1539.39		95.78204	
68.34072	1543.987		99.11849	
68.39468	1548.767		102.5074	
68.44862	1553.73		105.9475	
68.50258	1558.883		109.4395	
68.55653	1564.226		112.9821	
68.61047	1569.756		116.5755	
68.66443	1575.472		120.2197	
68.71838	1581.367		123.9132	
68.77233	1587.443		127.6566	
68.82628	1593.704		131.4481	
68.88023	1600.161		135.2882	
68.93418	1606.826		139.175	
68.98813	1613.713		143.1083	
69.04208	1620.841		147.0875	
69.09603	1628.223		151.1105	
69.14999	1635.873		155.177	
69.20393	1643.794		159.2847	
69.25789	1651.991		163.433	
69.31184	1660.463		167.6192	
69.36578	1669.21		171.842	
69.41974	1678.226		176.0997	
69.47369	1687.497		180.389	
69.52764	1697.014		184.7084	
69.58159	1706.77		189.054	
69.63554	1716.774		193.424	
69.68949	1727.028		197.8136	
69.74344	1737.542		202.2197	
69.79739	1748.326		206.6388	
69.85134	1759.384		211.065	
69.9053	1770.718		215.4947	
69.95924	1782.331		219.9211	
70.01319	1794.221		224.3391	
70.06715	1806.386		228.7429	
70.12109	1818.813		233.1247	
70.17505	1831.501		237.4786	
70.229	1844.443		241.7961	
70.28295	1857.641		246.0705	
70.3369	1871.086		250.2929	
70.39085	1884.784		254.4554	
70.4448	1898.743		258.55	
70.49875	1912.974		262.567	
70.5527	1927.491		266.4985	
70.60665	1942.304		270.3343	
70.66061	1957.426		274.0662	
70.71455	1972.863		277.6841	
70.7685	1988.621		281.179	
70.82246	2004.699		284.5424	
70.8764	2021.079		287.7646	
70.93036	2037.743		290.8373	
70.98431	2054.664		293.7516	
71.03826	2071.83		296.4994	
71.09221	2089.225		299.0726	
71.14616	2106.846		301.4637	
71.20011	2124.687		303.6662	
71.25406	2142.735		305.6728	
71.30801	2161.002		307.478	
71.36196	2179.493		309.076	
71.41592	2198.223		310.4615	
71.46986	2217.192		311.6306	
71.52381	2236.402		312.5788	
71.57777	2255.857		313.3037	
71.63171	2275.541		313.8024	
71.68567	2295.444		314.0732	
71.73962	2315.537		314.1148	
71.79356	2335.796		313.9261	
71.84752	2356.187		313.5081	
71.90147	2376.668		312.8602	
71.95542	2397.204		311.9844	
72.00937	2417.752		310.8823	
72.06332	2438.287		309.5557	
72.11727	2458.783		308.0079	
72.17122	2479.228		306.2411	
72.22517	2499.602		304.2595	
72.27912	2519.87		302.0666	
72.33308	2540.011		299.6671	
72.38702	2559.991		297.0662	
72.44098	2579.788		294.2683	
72.49493	2599.363		291.2802	
72.54887	2618.674		288.1066	
72.60283	2637.671		284.7543	
72.65678	2656.294		281.2307	
72.71073	2674.504		277.5417	
72.76468	2692.261		273.6959	
72.81863	2709.544		269.6994	
72.87258	2726.329		265.5618	
72.92653	2742.595		261.2902	
72.98048	2758.324		256.8927	
73.03443	2773.504		252.3793	
73.08839	2788.14		247.7575	
73.14233	2802.234		243.0379	
73.19629	2815.789		238.2279	
73.25024	2828.806		233.3388	
73.30418	2841.295		228.3791	
73.35814	2853.272		223.3579	
73.41209	2864.749		218.2864	
73.46604	2875.742		213.173	
73.51999	2886.261		208.0292	
73.57394	2896.315		202.864	
73.62789	2905.913		197.6868	
73.68184	2915.067		192.509	
73.73579	2923.793		187.3389	
73.78974	2932.105		182.1875	
73.8437	2940.024		177.0631	
73.89764	2947.569		171.9762	
73.95159	2954.753		166.9353	
74.00555	2961.595		161.948	
74.05949	2968.114		157.0246	
74.11345	2974.34		152.1711	
74.1674	2980.298		147.3967	
74.22135	2986.009		142.7071	
74.2753	2991.488		138.1099	
74.32925	2996.748		133.611	
74.3832	3001.801		129.2147	
74.43715	3006.657		124.9274	
74.4911	3011.328		120.7522	
74.54505	3015.814		116.694	
74.59901	3020.115		112.7549	
74.65295	3024.232		108.9385	
74.7069	3028.174		105.2466	
74.76086	3031.954		101.6798	
74.8148	3035.593		98.23994	
74.86876	3039.11		94.92649	
74.92271	3042.521		91.73997	
74.97666	3045.844		88.67912	
75.03061	3049.099		85.743	
75.08456	3052.309		82.92991	
75.13851	3055.497		80.23686	
75.19246	3058.674		77.66203	
75.24641	3061.841		75.20155	
75.30036	3064.989		72.85249	
75.35431	3068.112		70.61098	
75.40826	3071.203		68.47225	
75.46221	3074.26		66.43299	
75.51617	3077.283		64.48785	
75.57011	3080.273		62.63283	
75.62407	3083.233		60.86261	
75.67802	3086.162		59.17274	
75.73196	3089.057		57.55823	
75.78592	3091.915		56.01368	
75.83987	3094.736		54.53476	
75.89382	3097.524		53.11595	
75.94777	3100.279		51.75279	
76.00172	3103.001		50.4401	
76.05567	3105.687		49.17358	
76.10962	3108.33		47.94869	
76.16357	3110.92		46.7609	
76.21752	3113.445		45.60658	
76.27148	3115.891		44.48161	
76.32542	3118.243		43.38279	
76.37938	3120.501		42.30657	
76.43333	3122.67		41.25034	
76.48727	3124.763		40.21138	
76.54123	3126.787		39.18726	
76.59518	3128.759		38.17633	
76.64913	3130.696		37.17667	
76.70308	3132.616		36.18723	
76.75703	3134.529		35.20671	
76.81098	3136.434		34.23465	
76.86493	3138.323		33.27044	
76.91888	3140.182		32.31373	
76.97283	3141.997		31.36486	
77.02679	3143.761		30.42385	
77.08073	3145.474		29.49148	
77.13469	3147.139		28.56816	
77.18864	3148.759		27.65499	
77.24258	3150.332		26.75273	
77.29654	3151.855		25.86227	
77.35049	3153.328		24.98496	
77.40444	3154.759		24.12168	
77.45839	3156.151		23.27383	
77.51234	3157.513		22.44246	
77.56629	3158.849		21.62851	
77.62024	3160.161		20.83329	
77.67419	3161.44		20.05748	
77.72814	3162.665		19.30222	
77.7821	3163.815		18.56814	
77.83604	3164.875		17.85619	
77.88999	3165.831		17.167	
77.94395	3166.677		16.50098	
77.99789	3167.408		15.85883	
78.05185	3168.017		15.24077	
78.1058	3168.503		14.64733	
78.15975	3168.875		14.07862	
78.2137	3169.149		13.53501	
78.26765	3169.346		13.01671	
78.3216	3169.483		12.52372	
78.37555	3169.572		12.05637	
78.4295	3169.613		11.61471	
78.48345	3169.6		11.19905	
78.53741	3169.523		10.80965	
78.59135	3169.383		10.44682	
78.6453	3169.185		10.11102	
78.69926	3168.941		9.802531	
78.7532	3168.663		9.521948	
78.80716	3168.361		9.269693	
78.86111	3168.044		9.04632	
78.91506	3167.723		8.852385	
78.96901	3167.415		8.68828	
79.02296	3167.142		8.554579	
79.07691	3166.932		8.45156	
79.13086	3166.81		8.379628	
79.18481	3166.793		8.339024	
79.23876	3166.885		8.32989	
79.29271	3167.081		8.352415	
79.34666	3167.365		8.406451	
79.40061	3167.719		8.491987	
79.45457	3168.122		8.608638	
79.50851	3168.558		8.755921	
79.56247	3169.022		8.933193	
79.61642	3169.508		9.139474	
79.67036	3170.007		9.37377	
79.72432	3170.509		9.634727	
79.77827	3171.009		9.920924	
79.83222	3171.502		10.23073	
79.88617	3171.995		10.56225	
79.94012	3172.501		10.91356	
79.99407	3173.032		11.28233	
80.04802	3173.592		11.66631	
80.10197	3174.178		12.06304	
80.15592	3174.781		12.4699	
80.20988	3175.392		12.88446	
80.26382	3176.003		13.30407	
80.31778	3176.614		13.72636	
80.37173	3177.23		14.14877	
80.42567	3177.855		14.56899	
80.47963	3178.49		14.98484	
80.53358	3179.147		15.39411	
80.58753	3179.839		15.79498	
80.64148	3180.578		16.18559	
80.69543	3181.378		16.56443	
80.74938	3182.246		16.93003	
80.80333	3183.186		17.28115	
80.85728	3184.204		17.61685	
80.91123	3185.299		17.93619	
80.96519	3186.468		18.23863	
81.01913	3187.709		18.52365	
81.07308	3189.021		18.7909	
81.12704	3190.397		19.04033	
81.18098	3191.827		19.27172	
81.23494	3193.3		19.48525	
81.28889	3194.807		19.681	
81.34284	3196.34		19.85923	
81.39679	3197.886		20.02019	
81.45074	3199.438		20.16404	
81.50469	3200.991		20.29107	
81.55864	3202.542		20.40125	
81.61259	3204.088		20.4947	
81.66654	3205.633		20.57133	
81.7205	3207.185		20.63103	
81.77444	3208.746		20.67358	
81.82839	3210.313		20.69864	
81.88235	3211.882		20.70584	
81.93629	3213.446		20.69464	
81.99025	3214.992		20.66439	
82.0442	3216.505		20.61435	
82.09815	3217.978		20.54363	
82.1521	3219.404		20.45134	
82.20605	3220.777		20.33644	
82.26	3222.095		20.19795	
82.31395	3223.366		20.03489	
82.3679	3224.587		19.84619	
82.42185	3225.756		19.63091	
82.47581	3226.869		19.38796	
82.52975	3227.925		19.11662	
82.5837	3228.925		18.81599	
82.63766	3229.877		18.48545	
82.6916	3230.789		18.12458	
82.74556	3231.675		17.73294	
82.79951	3232.546		17.31047	
82.85345	3233.409		16.85702	
82.90741	3234.261		16.37277	
82.96136	3235.099		15.85815	
83.01531	3235.921		15.31366	
83.06926	3236.725		14.7402	
83.12321	3237.516		14.13853	
83.17716	3238.295		13.50995	
83.23111	3239.064		12.85554	
83.28506	3239.823		12.17667	
83.33901	3240.57		11.47485	
83.39297	3241.306		10.75145	
83.44691	3242.048		10.00814	
83.50087	3242.808		9.246212	
83.55482	3243.593		8.467375	
83.60876	3244.4		7.672921	
83.66272	3245.226		6.864206	
83.71667	3246.059		6.042794	
83.77062	3246.886		5.20973	
83.82457	3247.696		4.366447	
83.87852	3248.481		3.513819	
83.93247	3249.231		2.653145	
83.98642	3249.932		1.785233	
84.04037	3250.571		0.9109069	
84.09432	3251.131		0.03119329	
84.14828	3251.595		-0.8534811	
84.20222	3251.949		-1.74231	
84.25618	3252.191		-2.635166	
84.31013	3252.323		-3.531449	
84.36407	3252.354		-4.431152	
84.41803	3252.299		-5.334304	
84.47198	3252.166		-6.240693	
84.52593	3251.963		-7.150695	
84.57988	3251.689		-8.064259	
84.63383	3251.329		-8.981913	
84.68778	3250.868		-9.903649	
84.74173	3250.288		-10.82985	
84.79568	3249.575		-11.76088	
84.84963	3248.728		-12.69665	
84.90359	3247.747		-13.63754	
84.95753	3246.638		-14.58325	
85.01148	3245.411		-15.5338	
85.06544	3244.086		-16.48909	
85.11938	3242.683		-17.44846	
85.17334	3241.223		-18.41173	
85.22729	3239.732		-19.37806	
85.28124	3238.231		-20.34706	
85.33519	3236.724		-21.31774	
85.38914	3235.208		-22.28936	
85.44309	3233.677		-23.26118	
85.49704	3232.126		-24.2319	
85.55099	3230.544		-25.20072	
85.60494	3228.929		-26.16618	
85.6589	3227.279		-27.12734	
85.71284	3225.587		-28.08262	
85.76679	3223.854		-29.0308	
85.82075	3222.078		-29.97072	
85.87469	3220.266		-30.90078	
85.92865	3218.422		-31.82001	
85.9826	3216.554		-32.72693	
86.03655	3214.668		-33.62059	
86.0905	3212.779		-34.49971	
86.14445	3210.9		-35.36332	
86.1984	3209.038		-36.21069	
86.25235	3207.183		-37.04074	
86.3063	3205.32		-37.85302	
86.36025	3203.426		-38.64669	
86.41421	3201.481		-39.42142	
86.46815	3199.47		-40.17664	
86.5221	3197.395		-40.91216	
86.57606	3195.263		-41.62799	
86.63	3193.083		-42.32397	
86.68396	3190.859		-43.00051	
86.73791	3188.588		-43.65778	
86.79185	3186.273		-44.2963	
86.84581	3183.92		-44.91681	
86.89976	3181.531		-45.51973	
86.95371	3179.104		-46.10599	
87.00766	3176.639		-46.67617	
87.06161	3174.124		-47.23117	
87.11556	3171.537		-47.77164	
87.16951	3168.857		-48.29834	
87.22346	3166.081		-48.81216	
87.27741	3163.218		-49.31362	
87.33137	3160.273		-49.8036	
87.38531	3157.256		-50.28259	
87.43927	3154.175		-50.75131	
87.49322	3151.039		-51.21015	
87.54716	3147.862		-51.65956	
87.60112	3144.655		-52.1	
87.65507	3141.424		-52.53155	
87.70902	3138.175		-52.95445	
87.76297	3134.916		-53.36865	
87.81693	3131.652		-53.77416	
87.87087	3128.381		-54.17083	
87.92482	3125.095		-54.55848	
87.97878	3121.785		-54.93698	
88.03272	3118.451		-55.30594	
88.08668	3115.097		-55.66516	
88.14063	3111.734		-56.01423	
88.19458	3108.381		-56.35285	
88.24853	3105.058		-56.6806	
88.30247	3101.78		-56.99712	
88.35643	3098.547		-57.30213	
88.41038	3095.353		-57.59518	
88.46433	3092.182		-57.876	
88.51828	3089.032		-58.14425	
88.57223	3085.903		-58.39968	
88.62618	3082.793		-58.64222	
88.68013	3079.694		-58.87167	
88.73409	3076.593		-59.08818	
88.78803	3073.475		-59.29179	
88.84199	3070.337		-59.4828	
88.89594	3067.18		-59.66153	
88.94988	3064.013		-59.82852	
89.00384	3060.848		-59.98441	
89.05779	3057.699		-60.12984	
89.11174	3054.56		-60.26567	
89.16569	3051.427		-60.39266	
89.21964	3048.295		-60.51168	
89.27359	3045.158		-60.62352	
89.32754	3042.009		-60.72903	
89.38149	3038.842		-60.82906	
89.43544	3035.652		-60.92432	
89.4894	3032.441		-61.01556	
89.54334	3029.206		-61.10341	
89.5973	3025.947		-61.1885	
89.65125	3022.664		-61.27136	
89.70519	3019.352		-61.35247	
89.75915	3016.006		-61.43231	
89.8131	3012.626		-61.51126	
89.86705	3009.209		-61.58967	
89.921	3005.763		-61.66778	
89.97495	3002.292		-61.74577	
90.0289	2998.803		-61.82371	
90.08285	2995.299		-61.90163	
90.1368	2991.781		-61.97947	
90.19075	2988.259		-62.05704	
90.24471	2984.749		-62.1341	
90.29865	2981.265		-62.21032	
90.3526	2977.814		-62.28532	
90.40656	2974.386		-62.3587	
90.4605	2970.978		-62.43	
90.51446	2967.585		-62.4988	
90.56841	2964.211		-62.56468	
90.62236	2960.846		-62.62731	
90.67631	2957.494		-62.68636	
90.73026	2954.148		-62.74158	
90.78421	2950.805		-62.79281	
90.83816	2947.46		-62.83992	
90.89211	2944.11		-62.88292	
90.94606	2940.753		-62.92187	
91.00002	2937.393		-62.95695	
91.05396	2934.035		-62.98843	
91.10791	2930.682		-63.01663	
91.16187	2927.332		-63.04196	
91.21581	2923.984		-63.06479	
91.26977	2920.625		-63.08556	
91.32372	2917.242		-63.10465	
91.37767	2913.815		-63.12249	
91.43162	2910.332		-63.13942	
91.48557	2906.782		-63.15577	
91.53952	2903.173		-63.1719	
91.59347	2899.523		-63.18811	
91.64742	2895.856		-63.20469	
91.70137	2892.192		-63.22189	
91.75533	2888.552		-63.23993	
91.80927	2884.948		-63.25904	
91.86322	2881.39		-63.27938	
91.91718	2877.885		-63.30113	
91.97112	2874.437		-63.3244	
92.02508	2871.046		-63.34931	
92.07903	2867.701		-63.37593	
92.13298	2864.382		-63.40429	
92.18693	2861.075		-63.43436	
92.24088	2857.766		-63.46608	
92.29483	2854.447		-63.49933	
92.34878	2851.113		-63.53395	
92.40273	2847.762		-63.56978	
92.45668	2844.406		-63.62606	
92.51063	2841.053		-63.68262	
92.56458	2837.712		-63.73886	
92.61853	2834.391		-63.79435	
92.67249	2831.094		-63.84893	
92.72643	2827.824		-63.90255	
92.78039	2824.585		-63.95531	
92.83434	2821.378		-64.00733	
92.88828	2818.194		-64.05878	
92.94224	2815.009		-64.1098	
92.99619	2811.804		-64.16055	
93.05014	2808.551		-64.21119	
93.10409	2805.233		-64.26181	
93.15804	2801.838		-64.31255	
93.21199	2798.374		-64.3635	
93.26594	2794.856		-64.41476	
93.31989	2791.302		-64.4664	
93.37384	2787.725		-64.51849	
93.4278	2784.139		-64.57108	
93.48174	2780.544		-64.62421	
93.5357	2776.947		-64.67793	
93.58965	2773.352		-64.73225	
93.64359	2769.764		-64.78717	
93.69755	2766.192		-64.84273	
93.7515	2762.639		-64.8989	
93.80545	2759.095		-64.95571	
93.8594	2755.553		-65.01314	
93.91335	2752.004		-65.0712	
93.9673	2748.451		-65.12987	
94.02125	2744.895		-65.18915	
94.0752	2741.415		-65.24905	
94.12915	2737.855		-65.30956	
94.18311	2734.229		-65.37067	
94.23705	2730.564		-65.43237	
94.291	2726.878		-65.49464	
94.34496	2723.18		-65.5575	
94.3989	2719.479		-65.62089	
94.45286	2715.779		-65.68481	
94.50681	2712.083		-65.74925	
94.56076	2708.395		-65.8142	
94.61471	2704.715		-65.87962	
94.66866	2701.043		-65.94549	
94.72261	2697.379		-66.01182	
94.77656	2693.721		-66.07855	
94.83051	2690.068		-66.14569	
94.88446	2686.418		-66.21321	
94.93842	2682.768		-66.28111	
94.99236	2679.116		-66.34933	
