T[Â°C]	330nm [counts / mm]	S.D.
20.00091	3662.292	
20.00174	3662.68	
20.00688	3645.099	
20.00957	3660.288	
20.01884	3648.725	
20.02543	3642.05	
20.04555	3659.09	
20.054	3646.038	
20.07984	3655.602	
20.09172	3659.297	
20.12255	3651.021	
20.13649	3655.528	
20.17256	3650.487	
20.18805	3649.305	
20.23072	3648.49	
20.24871	3639.724	
20.29791	3635.878	
20.3179	3644.523	
20.3712	3634.062	
20.39339	3635.453	
20.44898	3631.786	
20.47405	3638.059	
20.53391	3628.852	
20.55979	3626.93	
20.62442	3633.822	
20.65126	3623.995	
20.71962	3639.814	
20.74874	3626.821	
20.82078	3623.77	
20.84977	3617.344	
20.9256	3607.598	
20.95557	3610.717	
21.02931	3600.317	
21.05992	3593.944	
21.13766	3602.605	
21.16838	3600.788	
21.24796	3585.025	
21.27927	3590.177	
21.35685	3582.348	
21.3893	3569.293	
21.46722	3575.705	
21.49933	3576.642	
21.57769	3579.19	
21.61016	3570.982	
21.68739	3572.144	
21.71803	3558.544	
21.79454	3574.819	
21.82684	3567.571	
21.90386	3565.745	
21.93608	3558.398	
22.01506	3551.793	
22.04647	3552.886	
22.12391	3546.745	
22.15517	3543.532	
22.23356	3540.728	
22.26507	3527.377	
22.34451	3530.318	
22.37655	3534.85	
22.45459	3532.469	
22.48624	3534.432	
22.56253	3518.703	
22.59417	3516.583	
22.67176	3509.894	
22.70292	3518.042	
22.7805	3509.111	
22.81307	3513.551	
22.89048	3515.736	
22.92257	3515.278	
23.00163	3516.564	
23.03293	3500.368	
23.11147	3482.413	
23.14311	3489.035	
23.21992	3491.916	
23.25258	3493.387	
23.32825	3495.613	
23.35963	3480.641	
23.43883	3484.525	
23.47106	3475.493	
23.54822	3468.778	
23.57928	3472.603	
23.65633	3468.509	
23.68776	3470.647	
23.76771	3482.056	
23.79933	3467.01	
23.8761	3462.705	
23.90743	3462.174	
23.98577	3449.017	
24.01855	3452.752	
24.09673	3447.873	
24.12852	3449.691	
24.20509	3446.809	
24.23712	3443.286	
24.3153	3432.149	
24.34581	3440.449	
24.42373	3429.329	
24.45674	3434.99	
24.53282	3423.186	
24.56525	3418.208	
24.6441	3426.333	
24.6755	3418.859	
24.75378	3410.832	
24.7854	3413.288	
24.86345	3403.47	
24.89457	3415.486	
24.97353	3401.628	
25.00483	3402.401	
25.08104	3398.961	
25.11287	3395.136	
25.19019	3383.92	
25.2221	3387.716	
25.30104	3387.243	
25.33251	3387.869	
25.41122	3383.801	
25.44259	3374.447	
25.52045	3373.572	
25.55189	3377.058	
25.62982	3360.242	
25.66145	3368.579	
25.73926	3356.145	
25.77032	3362.063	
25.84689	3359.575	
25.87866	3345.562	
25.95909	3354.376	
25.9909	3342.839	
26.06725	3347.466	
26.09839	3347.927	
26.17517	3339.095	
26.2075	3348.184	
26.28692	3340.391	
26.31925	3346.701	
26.39521	3336.252	
26.42606	3325.835	
26.50439	3330.583	
26.5375	3332.738	
26.61357	3322.493	
26.64528	3324.532	
26.72497	3312.696	
26.75646	3315.567	
26.83206	3312.452	
26.8634	3309.313	
26.9423	3310.807	
26.97513	3312.721	
27.05292	3300.107	
27.085	3308.585	
27.16081	3294.967	
27.19173	3290.07	
27.27256	3281.626	
27.30491	3292.129	
27.38113	3290.317	
27.41434	3285.073	
27.49064	3278.178	
27.52255	3277.18	
27.59981	3272.502	
27.63186	3271.777	
27.7099	3265.449	
27.7422	3265.05	
27.81845	3265.074	
27.84919	3261.724	
27.92849	3255.419	
27.95964	3248.796	
28.03698	3241.22	
28.06918	3253.348	
28.14666	3238.536	
28.17912	3250.463	
28.25749	3245.621	
28.28851	3239.186	
28.36397	3230.742	
28.39579	3241.429	
28.47558	3227.484	
28.50733	3231.785	
28.5845	3233.004	
28.61604	3222.314	
28.69332	3226.126	
28.72485	3216.777	
28.80394	3211.687	
28.83575	3214.931	
28.91336	3209.757	
28.9444	3208.531	
29.02324	3202.361	
29.05571	3197.445	
29.1334	3198.885	
29.16406	3199.45	
29.24053	3188.755	
29.2721	3190.367	
29.3501	3189.411	
29.38327	3193.323	
29.46102	3181.122	
29.49328	3175.273	
29.56944	3176.41	
29.60062	3172.885	
29.6785	3176.244	
29.71001	3173.389	
29.7884	3169.052	
29.81988	3181.08	
29.90085	3161.371	
29.93272	3161.135	
30.00731	3159.169	
30.03846	3152.634	
30.11692	3159.365	
30.14749	3162.771	
30.22564	3146.592	
30.25701	3143.921	
30.33571	3145.648	
30.36762	3156.168	
30.44509	3127.446	
30.47704	3129.468	
30.55507	3128.551	
30.58567	3127.626	
30.66385	3132.031	
30.69558	3135.282	
30.77264	3123.461	
30.80474	3127.323	
30.88185	3123.151	
30.91361	3124.316	
30.99141	3107.711	
31.02256	3103.463	
31.10184	3112.802	
31.13574	3096.361	
31.21072	3101.966	
31.24222	3096.188	
31.31991	3094.641	
31.35144	3094.679	
31.43099	3080.326	
31.46292	3091.729	
31.53869	3076.096	
31.57089	3086.613	
31.64915	3075.522	
31.68072	3087.737	
31.75797	3076.895	
31.79195	3074.701	
31.86857	3079.675	
31.90061	3065.708	
31.97906	3064.173	
32.0108	3066.992	
32.08757	3055.939	
32.11858	3064.001	
32.19739	3056.534	
32.22955	3046.723	
32.30572	3045.584	
32.3381	3034.794	
32.41714	3039.771	
32.44842	3037.489	
32.52476	3035.091	
32.55843	3039.268	
32.63524	3031.654	
32.66666	3037.225	
32.74394	3023.076	
32.77535	3019.565	
32.85448	3016.314	
32.88645	3011.747	
32.96492	3019.014	
32.99557	3013.833	
33.07249	3027.373	
33.1044	3020.743	
33.18286	3008.797	
33.21424	3006.64	
33.29187	2999.324	
33.32431	3007.596	
33.4016	3001.486	
33.43201	3000.447	
33.50926	2999.036	
33.54106	3004.98	
33.62008	2990.779	
33.65304	2997.503	
33.73038	2989.491	
33.76178	2982.599	
33.83984	2973.656	
33.87108	2978.616	
33.94899	2978.142	
33.98016	2974.575	
34.05853	2971.325	
34.09061	2979.06	
34.16843	2965.762	
34.19958	2968.258	
34.27605	2959.902	
34.30799	2957.954	
34.38857	2950.796	
34.41972	2957.218	
34.49645	2954.791	
34.52781	2953.471	
34.6046	2953.794	
34.63579	2944.355	
34.71452	2942.084	
34.74691	2936.235	
34.8253	2924.693	
34.85693	2937.182	
34.93276	2933.244	
34.96478	2933.564	
35.04397	2924.158	
35.0756	2925.122	
35.15359	2927.743	
35.18559	2923.137	
35.26146	2925.01	
35.29277	2908.938	
35.37219	2909.121	
35.4037	2915.771	
35.48076	2899.645	
35.51212	2910.858	
35.58952	2892.067	
35.62147	2885.972	
35.69997	2895.23	
35.7321	2887.721	
35.81057	2890.675	
35.84139	2894.33	
35.91819	2885.915	
35.94946	2886.08	
36.02723	2873.407	
36.0609	2887.138	
36.13736	2869.449	
36.16903	2872.554	
36.24629	2867.155	
36.27841	2877.161	
36.35725	2869.101	
36.38794	2867.234	
36.4661	2857.638	
36.4974	2856.423	
36.57424	2852.114	
36.60731	2859.368	
36.68405	2850.011	
36.7154	2858.147	
36.79257	2860.431	
36.82453	2859.002	
36.90312	2847.577	
36.93434	2851.91	
37.01266	2829.887	
37.04454	2839.854	
37.12241	2838.341	
37.15584	2829.472	
37.23213	2832.907	
37.26345	2829.423	
37.34155	2823.114	
37.37353	2836.171	
37.45117	2818.14	
37.48344	2813.877	
37.56032	2815.916	
37.59086	2809.118	
37.66913	2806.351	
37.70087	2814.809	
37.77867	2807.029	
37.81035	2807.807	
37.89008	2799.921	
37.92186	2806.213	
37.99925	2789.091	
38.03031	2791.309	
38.10727	2798.52	
38.1386	2793.968	
38.21598	2785.889	
38.24714	2784.805	
38.3261	2783.779	
38.35814	2776.87	
38.43634	2781.573	
38.46902	2777.591	
38.5452	2771.608	
38.57689	2775.31	
38.65366	2770.736	
38.68706	2766.51	
38.76436	2760.795	
38.79533	2760.193	
38.87378	2750.467	
38.90557	2752.538	
38.98196	2756.096	
39.0132	2749.954	
39.09343	2745.875	
39.12516	2753.063	
39.20134	2736.209	
39.23232	2747.986	
39.31019	2729.691	
39.34145	2740.283	
39.42014	2732.507	
39.45201	2730.572	
39.52947	2723.246	
39.56038	2735.391	
39.63793	2719.869	
39.67169	2720.481	
39.74892	2720.962	
39.78119	2727.252	
39.85653	2710.986	
39.88987	2719.066	
39.96748	2715.302	
39.99942	2707.897	
40.07847	2704.225	
40.10999	2712.021	
40.1847	2705.282	
40.21523	2707.743	
40.29484	2684.089	
40.32804	2697.688	
40.40609	2686.574	
40.4371	2681.987	
40.51376	2682.343	
40.54562	2690.152	
40.62529	2684.977	
40.65647	2682.702	
40.73523	2678.339	
40.76635	2673.178	
40.84219	2676.067	
40.87455	2670.549	
40.95281	2675.812	
40.98462	2673.439	
41.0637	2660.261	
41.09556	2663.504	
41.1723	2658.233	
41.20293	2660.429	
41.2802	2645.339	
41.31389	2649.07	
41.38928	2643.19	
41.42083	2651.269	
41.49929	2642.875	
41.53122	2648.413	
41.60938	2644.594	
41.64	2636.672	
41.72022	2639.238	
41.75389	2634.633	
41.83187	2634.36	
41.86438	2625.968	
41.9403	2625.036	
41.97185	2628.904	
42.04895	2615.531	
42.08002	2620.206	
42.16036	2610.983	
42.19193	2605.563	
42.27005	2609.041	
42.30072	2604.429	
42.37817	2610.635	
42.41027	2609.519	
42.48861	2606.602	
42.52002	2605.594	
42.59658	2596.126	
42.62842	2599.78	
42.70683	2590.443	
42.74036	2595.878	
42.81594	2592.82	
42.84726	2595.386	
42.92525	2592.221	
42.95706	2590.982	
43.03455	2585.362	
43.06556	2586.952	
43.14743	2574.137	
43.1794	2582.252	
43.25711	2572.64	
43.28899	2580.088	
43.36794	2573.772	
43.39904	2574.344	
43.47577	2564.104	
43.50701	2569.1	
43.58577	2561.124	
43.61823	2567.649	
43.69702	2558.773	
43.72887	2552.84	
43.80532	2553.124	
43.83648	2557.384	
43.91497	2542.592	
43.94628	2546.897	
44.02344	2546.262	
44.05628	2540.286	
44.13518	2529.838	
44.16623	2537.299	
44.2433	2531.765	
44.27515	2536.997	
44.3531	2533.547	
44.38454	2528.299	
44.46363	2517.523	
44.49514	2521.055	
44.57141	2515.909	
44.60341	2522.076	
44.68051	2508.489	
44.71126	2511.717	
44.79032	2500.128	
44.8222	2515.899	
44.90038	2502.421	
44.93176	2511.933	
45.00912	2501.911	
45.0402	2506.797	
45.11874	2503.466	
45.14987	2505.416	
45.22729	2492.157	
45.25925	2504.483	
45.33763	2477.215	
45.36902	2486.545	
45.44746	2483.647	
45.47902	2482.964	
45.55552	2477.723	
45.58746	2481.606	
45.66609	2476.23	
45.69714	2482.914	
45.77485	2470.8	
45.80583	2474.293	
45.88437	2459.756	
45.91619	2479.587	
45.99393	2459.302	
46.02511	2455.562	
46.10321	2457.246	
46.13481	2461.589	
46.21227	2453.364	
46.24419	2458.146	
46.32167	2443.8	
46.35299	2452.456	
46.43069	2450.642	
46.46172	2446.321	
46.54038	2446.53	
46.57172	2447.307	
46.64949	2443.028	
46.68093	2449.788	
46.7582	2434.402	
46.78959	2436.963	
46.86938	2429.053	
46.90097	2434.795	
46.9782	2419.876	
47.00969	2424.887	
47.08673	2416.074	
47.11877	2415.268	
47.19813	2408.933	
47.23058	2416.563	
47.30666	2407.549	
47.33796	2415.175	
47.41637	2401.2	
47.44682	2408.903	
47.52513	2404.041	
47.55722	2404.411	
47.63594	2395.087	
47.66748	2395.762	
47.7443	2390.966	
47.77647	2397.721	
47.85374	2387.727	
47.88611	2385.759	
47.96359	2387.569	
47.99563	2386.899	
48.07663	2380.559	
48.10778	2383.55	
48.1852	2371.671	
48.21679	2379.02	
48.29471	2367.381	
48.32804	2374.407	
48.40311	2369.653	
48.43391	2374.64	
48.51296	2360.159	
48.545	2368.295	
48.62463	2354.205	
48.6558	2365.046	
48.73246	2342.302	
48.76568	2346.293	
48.84082	2342.777	
48.8741	2350.073	
48.95175	2342.433	
48.98314	2338.866	
49.0601	2337.297	
49.09225	2350.635	
49.17051	2333.296	
49.20194	2342.417	
49.28006	2331.657	
49.31159	2327.363	
49.38898	2320.575	
49.42019	2327.937	
49.49933	2329.74	
49.53141	2325.736	
49.60785	2322.517	
49.63899	2329.795	
49.71691	2312.853	
49.74835	2316.908	
49.82715	2308.324	
49.85881	2312.187	
49.93564	2306.676	
49.96783	2317.774	
50.04698	2302.981	
50.07908	2310.382	
50.15612	2304.129	
50.18751	2308.147	
50.26667	2292.008	
50.29758	2304.9	
50.37491	2289.144	
50.40662	2288.374	
50.48352	2283.593	
50.51603	2286.511	
50.59362	2279.338	
50.62535	2277.161	
50.70359	2287.458	
50.73526	2288.104	
50.81286	2272.348	
50.84393	2275.698	
50.9206	2268.85	
50.95241	2269.909	
51.03095	2264.581	
51.06295	2264.632	
51.14146	2254.815	
51.17397	2270.592	
51.25283	2257.534	
51.28433	2267.478	
51.36019	2245.822	
51.39014	2252.725	
51.47069	2253.344	
51.50142	2249.035	
51.57849	2239.569	
51.61057	2247.471	
51.6897	2240.428	
51.72178	2251.101	
51.79855	2237.628	
51.8303	2240.691	
51.90816	2230.839	
51.93991	2230.181	
52.01726	2229.118	
52.04805	2228.188	
52.12804	2225.964	
52.15983	2225.549	
52.23672	2218.58	
52.26845	2216.436	
52.34702	2218.411	
52.37847	2219.596	
52.4553	2207.335	
52.48696	2208.979	
52.56575	2204.398	
52.59744	2209.195	
52.67676	2203.316	
52.70831	2210.418	
52.78434	2198.72	
52.81512	2201.823	
52.89186	2197.819	
52.9244	2196.239	
53.0036	2188.481	
53.03453	2196.58	
53.11267	2191.018	
53.14431	2191.366	
53.22141	2184	
53.25279	2188.804	
53.33065	2178.507	
53.3623	2186.619	
53.44025	2176.14	
53.47218	2183.134	
53.55211	2176.899	
53.58319	2178.065	
53.66039	2176.106	
53.69202	2171.676	
53.76896	2171.488	
53.80154	2167.67	
53.87907	2155.467	
53.91017	2159.18	
53.98911	2150.418	
54.02108	2158.947	
54.09806	2151.277	
54.12918	2156.664	
54.20725	2143.858	
54.23952	2151.418	
54.31874	2138.29	
54.35003	2147.127	
54.42713	2137.435	
54.45876	2142.892	
54.53751	2136.947	
54.56941	2139.235	
54.64679	2131.649	
54.67871	2135.56	
54.75708	2128	
54.78815	2136.423	
54.86817	2119.012	
54.90018	2124.948	
54.97605	2109.733	
55.00763	2122.262	
55.0853	2114.98	
55.11692	2114.971	
55.19722	2111.696	
55.22971	2115.654	
55.30519	2103.558	
55.33643	2105.675	
55.41365	2097.398	
55.44534	2107.622	
55.52492	2091.062	
55.55675	2102.537	
55.63314	2089.163	
55.66383	2089.885	
55.74336	2081.812	
55.77554	2088.111	
55.85393	2075.314	
55.8858	2091.167	
55.96166	2080.707	
55.9926	2081.314	
56.07138	2086.624	
56.10487	2082.89	
56.18129	2073.756	
56.21404	2076.058	
56.29169	2065.259	
56.32261	2064.6	
56.40023	2053.124	
56.43251	2067.673	
56.51169	2053.643	
56.54407	2063.572	
56.62011	2061.678	
56.65062	2068.033	
56.72748	2050.523	
56.75924	2054.265	
56.83849	2046.737	
56.87117	2054.483	
56.94907	2039.485	
56.98021	2048.28	
57.0579	2048.844	
57.08804	2045.99	
57.16697	2028.064	
57.19997	2049.072	
57.27847	2031.8	
57.30921	2035.249	
57.38702	2023.342	
57.41857	2029.424	
57.49623	2024.096	
57.52806	2027.022	
57.60587	2019.738	
57.63704	2026.683	
57.71598	2021.831	
57.74804	2024.69	
57.82578	2017.098	
57.85712	2017.444	
57.93841	2005.148	
57.97026	2007.906	
58.04774	2005.781	
58.07841	2003.014	
58.15712	1999.027	
58.18924	2008.897	
58.2678	1985.715	
58.30008	1997.309	
58.37666	1991.579	
58.40772	1994.672	
58.486	1986.19	
58.51947	1991.421	
58.59619	1988.118	
58.62769	1992.623	
58.70643	1979.898	
58.73787	1983.21	
58.81478	1972.418	
58.84565	1980.041	
58.92501	1969.393	
58.9572	1976.171	
59.03602	1963.105	
59.06742	1970.81	
59.14475	1959.697	
59.17616	1963.018	
59.25275	1956.781	
59.28768	1959.359	
59.36706	1952.753	
59.39973	1953.9	
59.47545	1950.658	
59.50715	1948.64	
59.58643	1950.17	
59.61974	1951.199	
59.69675	1945.672	
59.72698	1957.875	
59.80606	1934.509	
59.83737	1945.777	
59.91462	1936.379	
59.94591	1939.742	
60.02563	1934.447	
60.05854	1937.666	
60.13395	1925.32	
60.16718	1938.875	
60.24271	1920.287	
60.27386	1931.716	
60.35223	1922.919	
60.38462	1926.771	
60.46328	1917.777	
60.49465	1926.172	
60.57225	1911.588	
60.60326	1922.934	
60.68128	1916.502	
60.71357	1916.771	
60.7934	1910.777	
60.82462	1920.892	
60.90009	1904.521	
60.93625	1915.079	
61.01382	1896.102	
61.04865	1901.44	
61.12817	1897.087	
61.16085	1902.571	
61.23621	1888.63	
61.27053	1895.459	
61.34828	1889.044	
61.37872	1891.165	
61.45405	1883.802	
61.48857	1885.804	
61.56569	1876.685	
61.59752	1879.861	
61.6758	1877.242	
61.70762	1889.515	
61.78277	1876.467	
61.81538	1881.887	
61.89475	1868.11	
61.92831	1877.899	
62.00319	1865.914	
62.03383	1867.543	
62.1126	1862.69	
62.1447	1864.84	
62.22345	1856.656	
62.25416	1862.717	
62.33144	1849.918	
62.36269	1869.051	
62.44144	1851.31	
62.47385	1861.102	
62.55122	1849.744	
62.58528	1851.079	
62.665	1847.736	
62.69764	1847.108	
62.7722	1833.813	
62.80569	1838.444	
62.88269	1838.295	
62.91432	1848.534	
62.99196	1829.331	
63.02366	1835.749	
63.10277	1822.879	
63.13426	1830.344	
63.21223	1827.136	
63.24363	1824.849	
63.32075	1817.986	
63.35244	1827.031	
63.43153	1819.468	
63.46346	1829.115	
63.54086	1811.465	
63.57085	1818.19	
63.64889	1811.933	
63.68068	1819.157	
63.75893	1810.092	
63.79089	1811.62	
63.86945	1805.973	
63.90047	1812.13	
63.97753	1801.544	
64.00965	1810.565	
64.08791	1794.794	
64.11922	1800.988	
64.19793	1797.796	
64.2308	1805.089	
64.30811	1795.26	
64.33953	1805.233	
64.41737	1790.046	
64.44924	1799.215	
64.52898	1793.178	
64.56333	1802.318	
64.63971	1778.421	
64.67193	1796.577	
64.75122	1788.027	
64.78207	1785.879	
64.8597	1779.814	
64.89164	1792.304	
64.97043	1780.621	
65.00152	1786.057	
65.07938	1779.047	
65.11079	1780.354	
65.18796	1775.538	
65.22073	1781.928	
65.29823	1770.394	
65.32981	1774.114	
65.40876	1774.408	
65.43977	1773.726	
65.51639	1768.837	
65.54852	1773.825	
65.62646	1773.683	
65.65873	1779.378	
65.73685	1766.275	
65.76754	1772.734	
65.84448	1768.728	
65.87661	1773.569	
65.95699	1762.119	
65.98849	1770.996	
66.06622	1768.779	
66.09797	1772.697	
66.1753	1758.7	
66.20705	1772.881	
66.28466	1761.864	
66.31686	1773.118	
66.39475	1767.986	
66.42635	1775.407	
66.50375	1765.443	
66.53585	1769.872	
66.61642	1762.425	
66.64867	1770.393	
66.72673	1764.88	
66.75774	1779.343	
66.83586	1764.315	
66.86672	1782.889	
66.9453	1770.514	
66.9767	1771.076	
67.05561	1775.945	
67.08797	1777.97	
67.16492	1774.646	
67.19649	1788.479	
67.27416	1785.994	
67.30461	1786.655	
67.38104	1783.962	
67.41375	1797.418	
67.49345	1790.899	
67.525	1797.193	
67.60181	1795.648	
67.63269	1797.88	
67.71152	1793.27	
67.74323	1807.318	
67.82191	1804.334	
67.85444	1818.853	
67.932	1807.324	
67.96329	1827.944	
68.04093	1823.113	
68.07163	1828.94	
68.14857	1829.479	
68.18103	1845.756	
68.25993	1842.149	
68.29227	1850.062	
68.36877	1858.778	
68.40127	1876.055	
68.47739	1863.507	
68.50901	1883.276	
68.58759	1883.499	
68.61822	1889.212	
68.69765	1888.678	
68.73124	1907.201	
68.8084	1909.289	
68.83942	1919.908	
68.91725	1925.121	
68.94989	1933.323	
69.02587	1933.415	
69.06079	1951.735	
69.13625	1953.685	
69.16669	1975.628	
69.24465	1970.547	
69.27692	1989.182	
69.35556	1998.106	
69.38846	2008.558	
69.46355	2019.113	
69.49765	2034.326	
69.57606	2041.268	
69.60796	2054.132	
69.68334	2060.306	
69.7144	2079.18	
69.79261	2091.782	
69.82423	2106.138	
69.90295	2113.862	
69.93772	2138.956	
70.01227	2142.111	
70.04401	2160.12	
70.12254	2173.639	
70.15453	2191.357	
70.23091	2204.37	
70.26431	2227.814	
70.34261	2233.567	
70.3733	2257.721	
70.44935	2267.403	
70.48096	2303.656	
70.56068	2306.98	
70.59335	2335.572	
70.6703	2347.029	
70.70163	2379.557	
70.77985	2384.441	
70.81039	2407.004	
70.88951	2419.08	
70.92226	2456.572	
70.99811	2463.115	
71.0295	2494.372	
71.11175	2501.16	
71.14317	2544.061	
71.22157	2547.678	
71.25414	2581.313	
71.3323	2597.482	
71.36461	2620.976	
71.44086	2645.942	
71.47124	2675.734	
71.55013	2694.997	
71.58356	2739.687	
71.65981	2749.149	
71.69254	2774.873	
71.77267	2795.74	
71.8036	2827.788	
71.87934	2850.073	
71.91566	2895.197	
71.9915	2901.462	
72.02331	2941.126	
72.10379	2958.026	
72.13528	2994.504	
72.21372	3011.249	
72.24605	3067.468	
72.32196	3075.385	
72.35313	3115.342	
72.43211	3135.551	
72.46336	3173.759	
72.54147	3187.62	
72.57504	3223.35	
72.65211	3234.307	
72.68359	3267.959	
72.76138	3288.842	
72.7924	3326.186	
72.86998	3331.63	
72.90192	3370.135	
72.97857	3380.829	
73.01051	3417.488	
73.08876	3409.595	
73.1232	3444.66	
73.19877	3450.323	
73.23056	3489.412	
73.30721	3490.859	
73.33852	3522.017	
73.4158	3512.018	
73.44788	3544.97	
73.52628	3536.574	
73.55753	3578.746	
73.63662	3563.189	
73.66773	3591.929	
73.74609	3576.972	
73.78123	3614.747	
73.85938	3598.292	
73.89067	3632.013	
73.96922	3616.717	
74.00072	3642.681	
74.07953	3637.439	
74.11395	3678.871	
74.19359	3658.669	
74.22485	3680.181	
74.3063	3671.598	
74.33863	3694.468	
74.41626	3678.05	
74.44767	3693.018	
74.52412	3682.656	
74.555	3714.67	
74.63409	3692.233	
74.66571	3726.501	
74.74622	3699.151	
74.77855	3730.92	
74.85622	3718.214	
74.88791	3740.667	
74.96732	3719.28	
74.99849	3742.979	
75.07723	3725.093	
75.10925	3755.317	
75.18886	3732.873	
75.2209	3766.383	
75.29976	3749.351	
75.33113	3771.537	
75.4126	3754.626	
75.44441	3768.371	
75.52135	3759.406	
75.55337	3782.031	
75.63105	3763.562	
75.6615	3780.49	
75.74165	3774.538	
75.77341	3798.831	
75.85423	3785.878	
75.88601	3803.938	
75.96304	3788.214	
75.99691	3818.539	
76.07631	3796.354	
76.10838	3819.579	
76.18674	3797.955	
76.21724	3813.252	
76.29939	3799.882	
76.33183	3825.089	
76.4096	3799.73	
76.442	3835.824	
76.52096	3806.895	
76.55268	3829.247	
76.63248	3808.096	
76.66387	3826.399	
76.74574	3814.75	
76.77767	3853.938	
76.85532	3816.409	
76.88593	3838.689	
76.96538	3814.099	
76.99805	3849.073	
77.07835	3827.646	
77.11033	3860.784	
77.19148	3818.399	
77.22276	3859.629	
77.29966	3838.879	
77.33163	3871.743	
77.41314	3842.304	
77.44556	3869.905	
77.52464	3837.534	
77.5566	3865.906	
77.63793	3841.694	
77.66885	3876.277	
77.74636	3846.238	
77.77818	3870.949	
77.86056	3844.662	
77.89194	3872.715	
77.9683	3837.083	
78.00028	3871.24	
78.08347	3851.792	
78.11535	3891.708	
78.1952	3847.594	
78.22688	3877.055	
78.30569	3852.071	
78.33639	3877.594	
78.41396	3852.078	
78.44701	3879.134	
78.52982	3857.424	
78.56087	3863.896	
78.63702	3851.739	
78.66859	3874.691	
78.74744	3837.128	
78.78129	3870.201	
78.85781	3847.763	
78.88926	3869.027	
78.96695	3840.507	
79.00087	3862.009	
79.07955	3840.482	
79.11155	3865.486	
79.19028	3835.481	
79.22704	3869.149	
79.30325	3832.634	
79.33414	3852.75	
79.41335	3824.104	
79.4482	3863.511	
79.5259	3830.732	
79.55731	3848.651	
79.63439	3826.282	
79.66946	3855.667	
79.74816	3829.353	
79.77959	3864.562	
79.85876	3843.752	
79.89039	3862.574	
79.9682	3836.207	
79.99983	3864.853	
80.07776	3830.256	
80.10978	3857.998	
80.18644	3831.802	
80.22149	3871.998	
80.30119	3819.039	
80.3332	3861.145	
80.41154	3832.402	
80.44128	3854.379	
80.52285	3833.307	
80.55573	3855.399	
80.63207	3840.151	
80.66505	3852.058	
80.74179	3833.582	
80.77218	3863.906	
80.85589	3838.842	
80.88799	3857.617	
80.96653	3841.626	
80.99809	3847.799	
81.07534	3837.685	
81.11024	3871.479	
81.18967	3848.623	
81.22154	3870.207	
81.29939	3839.087	
81.33081	3874.985	
81.40793	3851.183	
81.43954	3873.245	
81.51888	3844.782	
81.55102	3868.75	
81.62724	3840.199	
81.66349	3866.107	
81.7419	3845.667	
81.77373	3876.333	
81.85035	3840.103	
81.88127	3877.432	
81.95918	3853.68	
81.99121	3880.688	
82.07059	3850.506	
82.10175	3877.782	
82.17902	3863.451	
82.20993	3884.343	
82.29202	3856.621	
82.32473	3874.998	
82.40262	3871.67	
82.43391	3892.211	
82.51468	3864.298	
82.54736	3889.278	
82.62217	3861.772	
82.65277	3899.841	
82.73	3860.417	
82.7641	3892.5	
82.84253	3858.708	
82.8745	3878.083	
82.95565	3855.102	
82.98649	3889.329	
83.06381	3866.177	
83.09557	3887.983	
83.17375	3865.306	
83.2046	3880.463	
83.28425	3865.88	
83.31612	3895.524	
83.39349	3864.168	
83.42447	3892.161	
83.50299	3854.305	
83.53477	3893.247	
83.61153	3870.78	
83.64282	3894.31	
83.72002	3864.818	
83.75271	3889.648	
83.83124	3864.282	
83.86614	3890.562	
83.94402	3865.536	
83.97548	3889.497	
84.05482	3862.671	
84.08678	3888.604	
84.1629	3863.113	
84.19828	3879.405	
84.27763	3865.84	
84.30904	3893.201	
84.38765	3861.606	
84.41896	3881.804	
84.49802	3861.211	
84.5296	3875.646	
84.60998	3854.087	
84.64148	3892.068	
84.71978	3851.612	
84.75188	3882.677	
84.83001	3849.92	
84.86146	3876.351	
84.94455	3834.666	
84.97652	3870.51	
85.05357	3850.937	
85.08511	3870.048	
85.16215	3850.397	
85.19402	3866.592	
85.27209	3837.29	
85.30371	3862.573	
85.38173	3832.736	
85.41348	3867.867	
85.4923	3832.466	
85.52318	3850.656	
85.60006	3813.168	
85.63149	3840.2	
85.71014	3817.12	
85.74242	3829.002	
85.82122	3821.149	
85.85206	3836.355	
85.9301	3811.857	
85.96124	3835.703	
86.0424	3801.941	
86.07386	3826.931	
86.15353	3804.022	
86.18569	3829.915	
86.26396	3783.333	
86.29555	3812.645	
86.37408	3787.615	
86.40557	3803.487	
86.48341	3783.497	
86.5152	3795.488	
86.59236	3782.338	
86.62395	3797.448	
86.7016	3778.408	
86.73327	3793.384	
86.81274	3753.318	
86.84498	3788.158	
86.92108	3755.922	
86.95252	3782.273	
87.02966	3750	
87.06078	3766.156	
87.14037	3745.85	
87.17274	3753.44	
87.24962	3730.124	
87.28066	3754.37	
87.35922	3745.469	
87.39092	3754.846	
87.46955	3727.147	
87.50129	3754.832	
87.57858	3709.159	
87.60962	3729.125	
87.68793	3697.541	
87.71929	3737.12	
87.79807	3693.255	
87.83077	3720.868	
87.90827	3679.372	
87.94021	3691.25	
88.01769	3669.793	
88.04932	3694.476	
88.12741	3675.007	
88.15904	3700.975	
88.23585	3658.598	
88.26723	3690.643	
88.34666	3665.803	
88.37841	3677.523	
88.45599	3643.979	
88.48897	3676.796	
88.56552	3635.315	
88.59659	3670.004	
88.67396	3621.61	
88.70543	3662.609	
88.78402	3623.566	
88.81715	3651.312	
88.89265	3621.992	
88.92449	3651.086	
89.0049	3604.411	
89.0362	3636.299	
89.11475	3606.203	
89.14534	3622.509	
89.22373	3584.032	
89.25529	3614.827	
89.33323	3584.81	
89.3653	3607.953	
89.44241	3575.015	
89.47372	3594.603	
89.55129	3566.152	
89.58508	3597.646	
89.66006	3550.719	
89.69125	3592.059	
89.77109	3545.032	
89.80348	3584.808	
89.88032	3554.165	
89.91113	3568.4	
89.98936	3537.552	
90.02193	3550.184	
90.09878	3521.795	
90.1295	3548.719	
90.20764	3515.113	
90.23987	3547.24	
90.31879	3502.075	
90.35046	3543.216	
90.42809	3493.443	
90.46089	3515.666	
90.54045	3491.403	
90.57159	3502.579	
90.64652	3480.702	
90.67825	3501.137	
90.75645	3473.864	
90.78855	3488.33	
90.8668	3467.91	
90.89818	3483.369	
90.97543	3453.441	
91.00728	3476.261	
91.08473	3448.953	
91.11686	3471.255	
91.19379	3434.08	
91.22483	3455.636	
91.30492	3429.051	
91.33681	3462.887	
91.41485	3415.25	
91.44624	3445.973	
91.52456	3416.989	
91.55663	3433.903	
91.63517	3402.954	
91.66625	3430.9	
91.74377	3397.171	
91.7749	3422.747	
91.85303	3386.594	
91.88525	3422.706	
91.96441	3376.571	
91.99599	3403.115	
92.0729	3375.76	
92.1049	3403.375	
92.18208	3349.212	
92.21378	3382.861	
92.29192	3352.979	
92.32342	3376.694	
92.4017	3343.317	
92.4333	3371.003	
92.51044	3352.125	
92.54276	3372.598	
92.62032	3330.123	
92.65114	3357.277	
92.72967	3321.57	
92.76154	3342.585	
92.83946	3313.613	
92.8716	3329.84	
92.95025	3292.106	
92.98211	3319.075	
93.05922	3282.735	
93.09058	3302.071	
93.16814	3279.598	
93.19954	3307.949	
93.27784	3268.22	
93.3091	3307.543	
93.38778	3262.843	
93.41943	3281.546	
93.49699	3261.591	
93.52828	3283.873	
93.60879	3251.538	
93.63901	3274.927	
93.7159	3237.523	
93.74763	3258.642	
93.82584	3221.444	
93.85728	3249.446	
93.93426	3215.791	
93.96565	3232.176	
94.04201	3203.373	
94.0713	3232.575	
94.14399	3211.841	
94.17411	3224.194	
94.24448	3194.769	
94.27253	3219.187	
94.34268	3186.341	
94.3712	3212.458	
94.43873	3175.292	
94.46395	3193.369	
94.52405	3171.109	
94.54703	3196.065	
94.60421	3163.672	
94.62682	3183.963	
94.67998	3159.571	
94.69993	3188.555	
94.74817	3160.771	
94.76723	3174.058	
94.80797	3144.363	
94.82423	3168.691	
94.86292	3125.196	
94.8772	3166.962	
94.9073	3139.104	
94.91845	3165.431	
94.9439	3131.108	
94.95259	3166.823	
94.97302	3136.263	
94.98027	3164.343	
94.99236	3126.303	
