T[Â°C]	350nm [counts / mm]	S.D.	First derivative	S.D. of first derivative
19.99998	7028.616		-95.2794	
20.05396	7023.079		-95.31185	
20.10795	7017.545		-95.34492	
20.16194	7012.014		-95.37862	
20.21592	7006.485		-95.41293	
20.26991	7000.958		-95.44783	
20.32389	6995.431		-95.48333	
20.37788	6989.907		-95.5194	
20.43187	6984.384		-95.55602	
20.48586	6978.863		-95.59315	
20.53984	6973.345		-95.63076	
20.59383	6967.831		-95.66882	
20.64781	6962.322		-95.70729	
20.7018	6956.82		-95.74611	
20.75579	6951.328		-95.78522	
20.80977	6945.849		-95.82458	
20.86376	6940.39		-95.86412	
20.91775	6934.963		-95.90377	
20.97173	6929.587		-95.94345	
21.02572	6924.403		-95.98309	
21.0797	6919.258		-96.02258	
21.13369	6914.146		-96.06186	
21.18768	6909.056		-96.10081	
21.24166	6903.986		-96.13935	
21.29565	6898.941		-96.17738	
21.34964	6893.924		-96.2148	
21.40362	6888.937		-96.25151	
21.45761	6883.986		-96.28741	
21.51159	6879.086		-96.32243	
21.56558	6874.245		-96.35648	
21.61957	6869.46		-96.38948	
21.67355	6864.72		-96.42137	
21.72754	6859.999		-96.4521	
21.78153	6855.271		-96.48164	
21.83551	6850.511		-96.50996	
21.8895	6845.7		-96.53705	
21.94349	6840.816		-96.56294	
21.99747	6835.848		-96.58769	
22.05146	6830.777		-96.61138	
22.10544	6825.588		-96.63416	
22.15943	6820.281		-96.65623	
22.21342	6814.867		-96.67786	
22.2674	6809.376		-96.69945	
22.32139	6803.839		-96.72156	
22.37538	6798.276		-96.74495	
22.42936	6792.696		-96.77065	
22.48335	6787.105		-96.8	
22.53734	6781.5		-96.83456	
22.59132	6775.881		-96.87594	
22.64531	6770.261		-96.891	
22.6993	6764.664		-96.90446	
22.75328	6759.107		-96.91593	
22.80727	6753.597		-96.925	
22.86125	6748.129		-96.93128	
22.91524	6742.698		-96.93443	
22.96923	6737.299		-96.93413	
23.02321	6731.93		-96.93008	
23.0772	6726.592		-96.92197	
23.13119	6721.286		-96.90949	
23.18517	6716		-96.8923	
23.23916	6710.736		-96.87006	
23.29314	6705.5		-96.84241	
23.34713	6700.293		-96.80901	
23.40112	6695.105		-96.76954	
23.4551	6689.931		-96.72376	
23.50909	6684.772		-96.67149	
23.56308	6679.621		-96.61266	
23.61706	6674.467		-96.54729	
23.67105	6669.3		-96.47563	
23.72503	6664.11		-96.39803	
23.77902	6658.895		-96.31509	
23.83301	6653.657		-96.22752	
23.887	6648.404		-96.13616	
23.94098	6643.141		-96.04195	
23.99497	6637.869		-95.94588	
24.04895	6632.589		-95.84906	
24.10294	6627.309		-95.75262	
24.15693	6622.025		-95.65769	
24.21091	6616.75		-95.56544	
24.2649	6611.501		-95.47697	
24.31889	6606.297		-95.39335	
24.37287	6601.139		-95.31559	
24.42686	6596.026		-95.24457	
24.48084	6590.957		-95.18102	
24.53483	6585.918		-95.1255	
24.58882	6580.891		-95.07842	
24.6428	6575.858		-95.04005	
24.69679	6570.809		-95.01048	
24.75078	6565.745		-94.98976	
24.80476	6560.676		-94.97782	
24.85875	6555.615		-94.97453	
24.91273	6550.579		-94.97969	
24.96672	6545.58		-94.99302	
25.02071	6540.628		-95.01414	
25.07469	6535.726		-95.04258	
25.12868	6530.866		-95.07786	
25.18267	6526.039		-95.11945	
25.23665	6521.228		-95.16685	
25.29064	6516.42		-95.21954	
25.34463	6511.602		-95.27692	
25.39861	6506.761		-95.33836	
25.4526	6501.882		-95.40315	
25.50659	6496.956		-95.4706	
25.56057	6491.986		-95.53995	
25.61456	6486.983		-95.61047	
25.66854	6481.969		-95.68149	
25.72253	6476.961		-95.75242	
25.77652	6471.966		-95.82281	
25.8305	6466.988		-95.8923	
25.88449	6462.031		-95.96059	
25.93848	6457.081		-96.02744	
25.99246	6452.119		-96.09259	
26.04645	6447.123		-96.15579	
26.10044	6442.071		-96.21677	
26.15442	6436.944		-96.2752	
26.20841	6431.722		-96.33077	
26.26239	6426.388		-96.38317	
26.31638	6420.931		-96.43213	
26.37037	6415.346		-96.47736	
26.42435	6409.665		-96.51859	
26.47834	6403.938		-96.55548	
26.53233	6398.216		-96.58768	
26.58631	6392.542		-96.61481	
26.6403	6386.933		-96.63657	
26.69428	6381.398		-96.65262	
26.74827	6375.935		-96.66267	
26.80226	6370.535		-96.66651	
26.85624	6365.171		-96.66393	
26.91023	6359.821		-96.65482	
26.96422	6354.469		-96.63907	
27.0182	6349.104		-96.61669	
27.07219	6343.719		-96.58775	
27.12617	6338.304		-96.55241	
27.18016	6332.855		-96.51092	
27.23415	6327.38		-96.46361	
27.28814	6321.901		-96.41095	
27.34212	6316.446		-96.35348	
27.39611	6311.033		-96.29173	
27.45009	6305.658		-96.22623	
27.50408	6300.315		-96.15746	
27.55807	6295.009		-96.08588	
27.61205	6289.753		-96.01186	
27.66604	6284.554		-95.93575	
27.72003	6279.401		-95.85788	
27.77401	6274.267		-95.7785	
27.828	6269.128		-95.69781	
27.88198	6263.969		-95.61594	
27.93597	6258.787		-95.53295	
27.98996	6253.585		-95.44889	
28.04394	6248.373		-95.36381	
28.09793	6243.167		-95.27772	
28.15192	6237.988		-95.19069	
28.2059	6232.857		-95.10281	
28.25989	6227.778		-95.01421	
28.31388	6222.741		-94.92512	
28.36786	6217.734		-94.83574	
28.42185	6212.753		-94.74637	
28.47583	6207.804		-94.65725	
28.52982	6202.896		-94.56861	
28.58381	6198.034		-94.48064	
28.63779	6193.228		-94.39346	
28.69178	6188.489		-94.30719	
28.74577	6183.826		-94.22188	
28.79975	6179.222		-94.13756	
28.85374	6174.639		-94.05426	
28.90773	6170.042		-93.97202	
28.96171	6165.399		-93.89098	
29.0157	6160.7		-93.81139	
29.06968	6155.946		-93.73358	
29.12367	6151.14		-93.65794	
29.17766	6146.286		-93.58488	
29.23164	6141.398		-93.51482	
29.28563	6136.482		-93.4482	
29.33962	6131.548		-93.38541	
29.3936	6126.591		-93.32682	
29.44759	6121.594		-93.27274	
29.50158	6116.536		-93.22341	
29.55556	6111.404		-93.17898	
29.60955	6106.193		-93.13944	
29.66353	6100.911		-93.10461	
29.71752	6095.568		-93.07407	
29.77151	6090.173		-93.04722	
29.82549	6084.731		-93.02323	
29.87948	6079.245		-93.00114	
29.93347	6073.727		-92.97984	
29.98745	6068.193		-92.95818	
30.04144	6062.664		-92.93503	
30.09542	6057.17		-92.90931	
30.14941	6051.739		-92.88008	
30.2034	6046.391		-92.8465	
30.25739	6041.143		-92.80782	
30.31137	6036		-92.76343	
30.36536	6030.966		-92.71279	
30.41934	6026.035		-92.65559	
30.47333	6021.188		-92.59158	
30.52732	6016.394		-92.52062	
30.5813	6011.618		-92.44261	
30.63529	6006.837		-92.35751	
30.68928	6002.049		-92.26528	
30.74326	5997.254		-92.16594	
30.79725	5992.451		-92.0595	
30.85123	5987.634		-91.94604	
30.90522	5982.794		-91.82578	
30.95921	5977.925		-91.6991	
31.01319	5973.025		-91.56659	
31.06718	5968.094		-91.42901	
31.12117	5963.142		-91.28728	
31.17515	5958.177		-91.14252	
31.22914	5953.203		-90.99592	
31.28312	5948.217		-90.84878	
31.33711	5943.216		-90.70237	
31.3911	5938.196		-90.55798	
31.44508	5933.164		-90.41685	
31.49907	5928.118		-90.28021	
31.55306	5923.044		-90.14924	
31.60704	5917.936		-90.02496	
31.66103	5912.798		-89.90824	
31.71502	5907.64		-89.79971	
31.769	5902.482		-89.69971	
31.82299	5897.353		-89.60839	
31.87697	5892.284		-89.52568	
31.93096	5887.305		-89.45136	
31.98495	5882.434		-89.38507	
32.03893	5877.678		-89.32632	
32.09292	5873.034		-89.27458	
32.14691	5868.488		-89.22929	
32.20089	5864.026		-89.18991	
32.25488	5859.636		-89.15594	
32.30886	5855.306		-89.1269	
32.36285	5851.019		-89.1024	
32.41684	5846.75		-89.08215	
32.47083	5842.469		-89.06593	
32.52481	5838.15		-89.05363	
32.5788	5833.777		-89.04523	
32.63278	5829.351		-89.04079	
32.68677	5824.875		-89.04041	
32.74076	5820.358		-89.04421	
32.79474	5815.807		-89.05235	
32.84873	5811.231		-89.06496	
32.90271	5806.635		-89.08222	
32.9567	5802.015		-89.10432	
33.01069	5797.362		-89.13143	
33.06467	5792.672		-89.16373	
33.11866	5787.945		-89.20138	
33.17265	5783.177		-89.24454	
33.22663	5778.361		-89.29336	
33.28062	5773.489		-89.34789	
33.33461	5768.561		-89.40814	
33.38859	5763.589		-89.47401	
33.44258	5758.58		-89.54534	
33.49657	5753.535		-89.62191	
33.55055	5748.452		-89.70345	
33.60454	5743.336		-89.78967	
33.65852	5738.194		-89.88023	
33.71251	5733.03		-89.97469	
33.7665	5727.848		-90.07247	
33.82048	5722.66		-90.17288	
33.87447	5717.484		-90.2751	
33.92846	5712.339		-90.37821	
33.98244	5707.251		-90.48121	
34.03643	5702.237		-90.58296	
34.09042	5697.296		-90.68227	
34.1444	5692.413		-90.77792	
34.19839	5687.573		-90.86873	
34.25237	5682.771		-90.95358	
34.30636	5678.01		-91.03149	
34.36035	5673.292		-91.10152	
34.41433	5668.602		-91.16293	
34.46832	5663.913		-91.21509	
34.5223	5659.203		-91.2575	
34.57629	5654.455		-91.28988	
34.63028	5649.659		-91.3121	
34.68427	5644.807		-91.32428	
34.73825	5639.895		-91.32666	
34.79224	5634.918		-91.31967	
34.84623	5629.884		-91.30387	
34.90021	5624.801		-91.27989	
34.9542	5619.682		-91.24839	
35.00818	5614.544		-91.21003	
35.06217	5609.405		-91.16544	
35.11616	5604.272		-91.11523	
35.17014	5599.144		-91.05994	
35.22413	5594.013		-91.00002	
35.27811	5588.875		-90.93579	
35.3321	5583.732		-90.86752	
35.38609	5578.583		-90.79532	
35.44007	5573.427		-90.71933	
35.49406	5568.263		-90.63964	
35.54805	5563.094		-90.5564	
35.60203	5557.925		-90.4698	
35.65602	5552.764		-90.38008	
35.71001	5547.623		-90.28753	
35.76399	5542.523		-90.19244	
35.81798	5537.488		-90.09515	
35.87196	5532.53		-89.99593	
35.92595	5527.663		-89.8951	
35.97994	5522.9		-89.79293	
36.03392	5518.243		-89.68958	
36.08791	5513.677		-89.58517	
36.1419	5509.174		-89.47974	
36.19588	5504.702		-89.3733	
36.24987	5500.237		-89.26585	
36.30386	5495.763		-89.15741	
36.35784	5491.265		-89.04801	
36.41183	5486.728		-88.93777	
36.46582	5482.14		-88.82687	
36.5198	5477.492		-88.7156	
36.57379	5472.783		-88.60426	
36.62777	5468.024		-88.4933	
36.68176	5463.229		-88.38323	
36.73575	5458.407		-88.27468	
36.78973	5453.564		-88.16837	
36.84372	5448.712		-88.06502	
36.89771	5443.855		-87.96534	
36.95169	5439.004		-87.86993	
37.00568	5434.167		-87.77928	
37.05967	5429.349		-87.69376	
37.11365	5424.543		-87.6136	
37.16764	5419.745		-87.53884	
37.22162	5414.943		-87.46931	
37.27561	5410.137		-87.40466	
37.3296	5405.333		-87.34438	
37.38358	5400.543		-87.28783	
37.43757	5395.773		-87.23437	
37.49155	5391.032		-87.18331	
37.54554	5386.33		-87.13406	
37.59953	5381.683		-87.08602	
37.65351	5377.096		-87.03864	
37.7075	5372.569		-86.99145	
37.76149	5368.099		-86.94402	
37.81548	5363.68		-86.89602	
37.86946	5359.302		-86.84721	
37.92345	5354.958		-86.79741	
37.97743	5350.635		-86.74651	
38.03142	5346.307		-86.69443	
38.08541	5341.936		-86.64112	
38.13939	5337.493		-86.58654	
38.19338	5332.965		-86.53064	
38.24736	5328.348		-86.4734	
38.30135	5323.642		-86.41488	
38.35534	5318.858		-86.35513	
38.40932	5314.018		-86.29431	
38.46331	5309.14		-86.23264	
38.5173	5304.241		-86.1704	
38.57128	5299.341		-86.10796	
38.62527	5294.462		-86.04565	
38.67926	5289.623		-85.98392	
38.73324	5284.827		-85.92326	
38.78723	5280.07		-85.86416	
38.84121	5275.331		-85.80717	
38.8952	5270.585		-85.75277	
38.94919	5265.814		-85.70132	
39.00317	5261.002		-85.65314	
39.05716	5256.153		-85.6084	
39.11115	5251.28		-85.56721	
39.16513	5246.394		-85.52954	
39.21912	5241.51		-85.4952	
39.27311	5236.641		-85.46384	
39.32709	5231.801		-85.43497	
39.38108	5227.006		-85.40804	
39.43507	5222.276		-85.38239	
39.48905	5217.626		-85.35743	
39.54304	5213.065		-85.33254	
39.59702	5208.589		-85.30714	
39.65101	5204.181		-85.28069	
39.705	5199.818		-85.25274	
39.75898	5195.484		-85.22289	
39.81297	5191.169		-85.19089	
39.86695	5186.86		-85.15656	
39.92094	5182.549		-85.11987	
39.97493	5178.227		-85.08091	
40.02892	5173.877		-85.03987	
40.0829	5169.487		-84.99708	
40.13689	5165.06		-84.95296	
40.19087	5160.606		-84.90809	
40.24486	5156.141		-84.86309	
40.29885	5151.675		-84.81866	
40.35283	5147.223		-84.77554	
40.40682	5142.79		-84.73446	
40.4608	5138.372		-84.69614	
40.51479	5133.951		-84.66121	
40.56878	5129.503		-84.63022	
40.62276	5125.012		-84.6036	
40.67675	5120.476		-84.5817	
40.73074	5115.896		-84.56483	
40.78473	5111.274		-84.55315	
40.83871	5106.61		-84.54677	
40.8927	5101.913		-84.54565	
40.94668	5097.188		-84.54967	
41.00067	5092.438		-84.55858	
41.05465	5087.668		-84.57201	
41.10864	5082.887		-84.58955	
41.16263	5078.112		-84.61067	
41.21661	5073.359		-84.63483	
41.2706	5068.639		-84.66134	
41.32458	5063.957		-84.6894	
41.37857	5059.316		-84.71812	
41.43256	5054.728		-84.74652	
41.48655	5050.2		-84.77356	
41.54053	5045.73		-84.7982	
41.59452	5041.303		-84.8194	
41.64851	5036.887		-84.8362	
41.70249	5032.459		-84.84765	
41.75648	5028.014		-84.85293	
41.81046	5023.558		-84.85134	
41.86445	5019.106		-84.84231	
41.91844	5014.674		-84.82545	
41.97242	5010.266		-84.80054	
42.02641	5005.873		-84.76751	
42.08039	5001.473		-84.72648	
42.13438	4997.047		-84.67773	
42.18837	4992.57		-84.62173	
42.24236	4988.024		-84.5591	
42.29634	4983.405		-84.49065	
42.35033	4978.716		-84.41728	
42.40431	4973.972		-84.33997	
42.4583	4969.188		-84.25967	
42.51229	4964.378		-84.17731	
42.56627	4959.553		-84.09373	
42.62026	4954.722		-84.00964	
42.67424	4949.893		-83.9257	
42.72823	4945.059		-83.84242	
42.78222	4940.221		-83.76025	
42.8362	4935.382		-83.67949	
42.89019	4930.554		-83.60034	
42.94418	4925.74		-83.52293	
42.99817	4920.945		-83.4473	
43.05215	4916.178		-83.37343	
43.10614	4911.446		-83.30125	
43.16012	4906.754		-83.2307	
43.21411	4902.099		-83.16164	
43.2681	4897.479		-83.09396	
43.32208	4892.896		-83.02749	
43.37607	4888.354		-82.96201	
43.43005	4883.862		-82.89729	
43.48404	4879.43		-82.83302	
43.53803	4875.076		-82.76889	
43.59201	4870.807		-82.70454	
43.646	4866.62		-82.63958	
43.69999	4862.5		-82.57365	
43.75397	4858.422		-82.50641	
43.80796	4854.36		-82.43755	
43.86195	4850.293		-82.36687	
43.91593	4846.209		-82.29429	
43.96992	4842.105		-82.21986	
44.0239	4837.98		-82.14375	
44.07789	4833.838		-82.06621	
44.13188	4829.68		-81.98759	
44.18586	4825.505		-81.90828	
44.23985	4821.308		-81.82882	
44.29383	4817.079		-81.74984	
44.34782	4812.809		-81.67207	
44.40181	4808.494		-81.59629	
44.4558	4804.128		-81.52324	
44.50978	4799.722		-81.45364	
44.56377	4795.288		-81.38811	
44.61776	4790.847		-81.32713	
44.67174	4786.406		-81.27105	
44.72573	4781.964		-81.22005	
44.77971	4777.522		-81.17416	
44.8337	4773.071		-81.13322	
44.88769	4768.592		-81.09702	
44.94167	4764.071		-81.06515	
44.99566	4759.507		-81.03715	
45.04964	4754.909		-81.01247	
45.10363	4750.294		-80.99052	
45.15762	4745.687		-80.97063	
45.21161	4741.109		-80.95212	
45.26559	4736.585		-80.93427	
45.31958	4732.125		-80.91642	
45.37356	4727.733		-80.89793	
45.42755	4723.401		-80.8782	
45.48154	4719.121		-80.85669	
45.53552	4714.876		-80.83287	
45.58951	4710.645		-80.80626	
45.64349	4706.406		-80.7764	
45.69748	4702.149		-80.74287	
45.75147	4697.868		-80.70531	
45.80545	4693.551		-80.66343	
45.85944	4689.198		-80.617	
45.91343	4684.809		-80.56593	
45.96741	4680.39		-80.51024	
46.0214	4675.951		-80.45006	
46.07539	4671.506		-80.38564	
46.12937	4667.072		-80.3173	
46.18336	4662.665		-80.24545	
46.23735	4658.294		-80.17059	
46.29133	4653.964		-80.09329	
46.34532	4649.661		-80.01424	
46.3993	4645.361		-79.93417	
46.45329	4641.038		-79.85382	
46.50728	4636.661		-79.77394	
46.56126	4632.211		-79.69521	
46.61525	4627.686		-79.61823	
46.66924	4623.098		-79.54343	
46.72322	4618.477		-79.47115	
46.77721	4613.856		-79.40157	
46.8312	4609.266		-79.33481	
46.88518	4604.732		-79.27083	
46.93917	4600.273		-79.20955	
46.99315	4595.902		-79.15081	
47.04714	4591.615		-79.0944	
47.10113	4587.399		-79.04007	
47.15511	4583.244		-78.98758	
47.2091	4579.138		-78.93664	
47.26308	4575.079		-78.88692	
47.31707	4571.054		-78.8381	
47.37106	4567.06		-78.78983	
47.42505	4563.088		-78.74178	
47.47903	4559.133		-78.69363	
47.53302	4555.184		-78.64511	
47.58701	4551.228		-78.59602	
47.64099	4547.254		-78.54622	
47.69498	4543.264		-78.49562	
47.74896	4539.263		-78.44423	
47.80295	4535.26		-78.39209	
47.85694	4531.258		-78.33932	
47.91092	4527.259		-78.2861	
47.96491	4523.251		-78.23265	
48.01889	4519.222		-78.1792	
48.07288	4515.159		-78.126	
48.12687	4511.049		-78.07332	
48.18085	4506.887		-78.02145	
48.23484	4502.669		-77.97072	
48.28883	4498.4		-77.92144	
48.34281	4494.092		-77.87396	
48.3968	4489.757		-77.82862	
48.45079	4485.403		-77.78577	
48.50477	4481.032		-77.74573	
48.55876	4476.644		-77.70874	
48.61274	4472.238		-77.67501	
48.66673	4467.821		-77.64465	
48.72072	4463.403		-77.61768	
48.7747	4458.995		-77.59401	
48.82869	4454.603		-77.57346	
48.88268	4450.226		-77.55573	
48.93666	4445.871		-77.54047	
48.99065	4441.544		-77.52729	
49.04464	4437.247		-77.51576	
49.09862	4432.975		-77.50547	
49.15261	4428.728		-77.49602	
49.20659	4424.508		-77.48703	
49.26058	4420.317		-77.47814	
49.31457	4416.158		-77.469	
49.36855	4412.026		-77.45924	
49.42254	4407.915		-77.4485	
49.47652	4403.818		-77.43649	
49.53051	4399.738		-77.42293	
49.5845	4395.665		-77.40762	
49.63848	4391.589		-77.3904	
49.69247	4387.495		-77.37116	
49.74646	4383.364		-77.34992	
49.80045	4379.19		-77.32675	
49.85443	4374.981		-77.30179	
49.90842	4370.75		-77.27518	
49.9624	4366.514		-77.24711	
50.01639	4362.289		-77.2177	
50.07038	4358.092		-77.18714	
50.12436	4353.933		-77.15556	
50.17835	4349.816		-77.12312	
50.23233	4345.735		-77.08996	
50.28632	4341.678		-77.05625	
50.34031	4337.63		-77.02216	
50.39429	4333.574		-76.98786	
50.44828	4329.494		-76.9535	
50.50227	4325.38		-76.91919	
50.55625	4321.232		-76.88501	
50.61024	4317.054		-76.85098	
50.66423	4312.849		-76.81708	
50.71821	4308.629		-76.78322	
50.7722	4304.412		-76.7493	
50.82618	4300.208		-76.71514	
50.88017	4296.029		-76.68056	
50.93416	4291.881		-76.64536	
50.98814	4287.769		-76.60923	
51.04213	4283.692		-76.57193	
51.09612	4279.651		-76.53321	
51.1501	4275.641		-76.49288	
51.20409	4271.654		-76.45081	
51.25808	4267.686		-76.40693	
51.31206	4263.728		-76.36121	
51.36605	4259.767		-76.31365	
51.42004	4255.787		-76.26432	
51.47402	4251.774		-76.21332	
51.52801	4247.714		-76.16078	
51.58199	4243.606		-76.10687	
51.63598	4239.457		-76.05179	
51.68997	4235.27		-75.99577	
51.74395	4231.053		-75.93913	
51.79794	4226.819		-75.88216	
51.85192	4222.582		-75.82514	
51.90591	4218.344		-75.76836	
51.9599	4214.109		-75.71201	
52.01389	4209.873		-75.6563	
52.06787	4205.627		-75.60134	
52.12186	4201.369		-75.5472	
52.17584	4197.108		-75.49392	
52.22983	4192.859		-75.44145	
52.28382	4188.626		-75.38976	
52.3378	4184.405		-75.33878	
52.39179	4180.193		-75.28844	
52.44577	4175.987		-75.2387	
52.49976	4171.787		-75.18943	
52.55375	4167.598		-75.1405	
52.60773	4163.424		-75.09167	
52.66172	4159.27		-75.04271	
52.71571	4155.146		-74.99331	
52.7697	4151.062		-74.94311	
52.82368	4147.031		-74.89171	
52.87767	4143.056		-74.83868	
52.93165	4139.131		-74.78355	
52.98564	4135.241		-74.72589	
53.03963	4131.38		-74.66525	
53.09361	4127.546		-74.60129	
53.1476	4123.733		-74.53371	
53.20158	4119.931		-74.46231	
53.25557	4116.136		-74.38698	
53.30956	4112.339		-74.30767	
53.36354	4108.539		-74.22443	
53.41753	4104.728		-74.13737	
53.47152	4100.904		-74.04669	
53.5255	4097.065		-73.95268	
53.57949	4093.214		-73.85571	
53.63348	4089.342		-73.75623	
53.68746	4085.43		-73.65482	
53.74145	4081.468		-73.55204	
53.79543	4077.45		-73.44856	
53.84942	4073.384		-73.34501	
53.90341	4069.288		-73.242	
53.95739	4065.179		-73.14011	
54.01138	4061.073		-73.03986	
54.06536	4056.979		-72.94169	
54.11935	4052.911		-72.84602	
54.17334	4048.88		-72.75315	
54.22733	4044.879		-72.66335	
54.28131	4040.895		-72.57677	
54.3353	4036.914		-72.49349	
54.38929	4032.931		-72.41357	
54.44327	4028.942		-72.33696	
54.49726	4024.946		-72.26355	
54.55124	4020.941		-72.19316	
54.60523	4016.928		-72.1256	
54.65922	4012.91		-72.06065	
54.7132	4008.894		-71.9981	
54.76719	4004.889		-71.93766	
54.82117	4000.913		-71.87902	
54.87516	3996.974		-71.82182	
54.92915	3993.071		-71.76569	
54.98314	3989.196		-71.71032	
55.03712	3985.349		-71.65538	
55.09111	3981.532		-71.60059	
55.14509	3977.746		-71.54569	
55.19908	3973.991		-71.49043	
55.25307	3970.26		-71.43459	
55.30705	3966.547		-71.37797	
55.36104	3962.847		-71.3204	
55.41502	3959.148		-71.2618	
55.46901	3955.437		-71.20211	
55.523	3951.707		-71.1414	
55.57698	3947.959		-71.07985	
55.63097	3944.198		-71.01772	
55.68496	3940.425		-70.95541	
55.73895	3936.645		-70.89331	
55.79293	3932.865		-70.83192	
55.84692	3929.09		-70.77174	
55.9009	3925.327		-70.71325	
55.95489	3921.575		-70.65689	
56.00888	3917.825		-70.60309	
56.06286	3914.077		-70.55221	
56.11685	3910.334		-70.50455	
56.17083	3906.597		-70.46031	
56.22482	3902.859		-70.41959	
56.27881	3899.111		-70.38233	
56.33279	3895.348		-70.34842	
56.38678	3891.564		-70.31758	
56.44077	3887.755		-70.28941	
56.49475	3883.914		-70.26343	
56.54874	3880.042		-70.23903	
56.60273	3876.137		-70.2156	
56.65671	3872.205		-70.19247	
56.7107	3868.259		-70.16901	
56.76468	3864.317		-70.14455	
56.81867	3860.401		-70.11847	
56.87266	3856.528		-70.09022	
56.92664	3852.708		-70.05929	
56.98063	3848.947		-70.02525	
57.03461	3845.249		-69.98773	
57.0886	3841.612		-69.94643	
57.14259	3838.018		-69.9011	
57.19658	3834.438		-69.85151	
57.25056	3830.844		-69.79744	
57.30455	3827.218		-69.73869	
57.35854	3823.556		-69.67511	
57.41252	3819.859		-69.60662	
57.46651	3816.128		-69.53318	
57.52049	3812.366		-69.45486	
57.57448	3808.573		-69.37182	
57.62846	3804.756		-69.28436	
57.68245	3800.919		-69.19286	
57.73644	3797.071		-69.09771	
57.79042	3793.219		-68.99941	
57.84441	3789.373		-68.89846	
57.8984	3785.54		-68.79543	
57.95238	3781.715		-68.69087	
58.00637	3777.888		-68.58533	
58.06036	3774.051		-68.47929	
58.11434	3770.196		-68.37315	
58.16833	3766.318		-68.2673	
58.22232	3762.411		-68.16196	
58.2763	3758.478		-68.05732	
58.33029	3754.519		-67.95348	
58.38427	3750.544		-67.85046	
58.43826	3746.567		-67.74822	
58.49225	3742.61		-67.64664	
58.54623	3738.7		-67.54556	
58.60022	3734.852		-67.44475	
58.65421	3731.075		-67.34393	
58.70819	3727.373		-67.24277	
58.76218	3723.746		-67.14089	
58.81617	3720.189		-67.03794	
58.87015	3716.694		-66.93355	
58.92414	3713.252		-66.82743	
58.97812	3709.857		-66.71931	
59.03211	3706.507		-66.60897	
59.0861	3703.199		-66.49627	
59.14008	3699.918		-66.3811	
59.19407	3696.654		-66.26344	
59.24805	3693.391		-66.14328	
59.30204	3690.114		-66.0207	
59.35603	3686.813		-65.89584	
59.41002	3683.482		-65.76888	
59.464	3680.123		-65.64008	
59.51799	3676.738		-65.50975	
59.57198	3673.331		-65.37827	
59.62596	3669.902		-65.24608	
59.67995	3666.455		-65.11358	
59.73393	3662.994		-64.98119	
59.78792	3659.533		-64.84931	
59.84191	3656.08		-64.71834	
59.89589	3652.637		-64.58868	
59.94988	3649.193		-64.46068	
60.00386	3645.738		-64.33459	
60.05785	3642.258		-64.21057	
60.11184	3638.738		-64.08865	
60.16582	3635.166		-63.96875	
60.21981	3631.541		-63.85072	
60.2738	3627.875		-63.7343	
60.32778	3624.186		-63.61916	
60.38177	3620.493		-63.50486	
60.43576	3616.805		-63.3909	
60.48974	3613.137		-63.27662	
60.54373	3609.509		-63.16129	
60.59771	3605.94		-63.04406	
60.6517	3602.441		-62.92404	
60.70569	3599.016		-62.80026	
60.75967	3595.659		-62.67167	
60.81366	3592.357		-62.53718	
60.86765	3589.092		-62.39573	
60.92163	3585.843		-62.24625	
60.97562	3582.592		-62.08775	
61.02961	3579.322		-61.91921	
61.08359	3576.023		-61.73967	
61.13758	3572.695		-61.54823	
61.19157	3569.342		-61.34402	
61.24555	3565.974		-61.12639	
61.29954	3562.612		-60.89475	
61.35352	3559.265		-60.64873	
61.40751	3555.933		-60.38812	
61.4615	3552.617		-60.1129	
61.51548	3549.315		-59.82325	
61.56947	3546.022		-59.51944	
61.62346	3542.733		-59.2019	
61.67744	3539.437		-58.87109	
61.73143	3536.118		-58.52756	
61.78542	3532.774		-58.17199	
61.8394	3529.41		-57.80502	
61.89339	3526.034		-57.42736	
61.94737	3522.656		-57.03976	
62.00136	3519.288		-56.64291	
62.05535	3515.94		-56.23763	
62.10933	3512.616		-55.82458	
62.16332	3509.319		-55.40443	
62.2173	3506.048		-54.97779	
62.27129	3502.801		-54.5452	
62.32528	3499.585		-54.10723	
62.37926	3496.407		-53.66423	
62.43325	3493.263		-53.21642	
62.48724	3490.151		-52.76387	
62.54123	3487.07		-52.30643	
62.59521	3484.026		-51.84393	
62.6492	3481.028		-51.37593	
62.70318	3478.088		-50.90191	
62.75717	3475.217		-50.42121	
62.81116	3472.418		-49.93304	
62.86514	3469.693		-49.43662	
62.91913	3467.041		-48.93099	
62.97311	3464.458		-48.41515	
63.0271	3461.947		-47.88804	
63.08109	3459.506		-47.34857	
63.13507	3457.122		-46.7957	
63.18906	3454.776		-46.22824	
63.24305	3452.458		-45.64506	
63.29703	3450.17		-45.04502	
63.35102	3447.909		-44.42702	
63.40501	3445.671		-43.79012	
63.45899	3443.447		-43.13333	
63.51298	3441.235		-42.45575	
63.56696	3439.042		-41.75654	
63.62095	3436.886		-41.0349	
63.67494	3434.776		-40.29026	
63.72892	3432.72		-39.52193	
63.78291	3430.724		-38.72936	
63.83689	3428.781		-37.91199	
63.89088	3426.875		-37.06924	
63.94487	3424.989		-36.20075	
63.99886	3423.098		-35.30599	
64.05284	3421.182		-34.38453	
64.10683	3419.232		-33.43596	
64.16081	3417.245		-32.4599	
64.2148	3415.223		-31.45595	
64.26878	3413.172		-30.42367	
64.32278	3411.107		-29.36246	
64.37676	3409.044		-28.27206	
64.43075	3406.997		-27.15168	
64.48473	3404.977		-26.00051	
64.53872	3402.992		-24.81764	
64.5927	3401.051		-23.60202	
64.64669	3399.163		-22.3525	
64.70068	3397.333		-21.06777	
64.75466	3395.564		-19.74646	
64.80865	3393.857		-18.38703	
64.86264	3392.21		-16.98767	
64.91663	3390.618		-15.54707	
64.97061	3389.083		-14.06323	
65.0246	3387.615		-12.53431	
65.07858	3386.223		-10.95847	
65.13257	3384.912		-9.333835	
65.18655	3383.688		-7.658509	
65.24054	3382.567		-5.930571	
65.29453	3381.58		-4.148065	
65.34851	3380.753		-2.309002	
65.4025	3380.103		-0.4111091	
65.45649	3379.633		1.547101	
65.51048	3379.335		3.567922	
65.56446	3379.191		5.653387	
65.61845	3379.177		7.805516	
65.67243	3379.282		10.02632	
65.72642	3379.503		12.31775	
65.7804	3379.836		14.68173	
65.83439	3380.281		17.12008	
65.88837	3380.838		19.63458	
65.94237	3381.51		22.22729	
65.99635	3382.298		24.89905	
66.05034	3383.207		27.65165	
66.10432	3384.24		30.48643	
66.15831	3385.399		33.40461	
66.2123	3386.685		36.40734	
66.26628	3388.099		39.49572	
66.32027	3389.642		42.6708	
66.37425	3391.322		45.93365	
66.42824	3393.146		49.28537	
66.48223	3395.118		52.7276	
66.53622	3397.239		56.26057	
66.5902	3399.51		59.88609	
66.64419	3401.93		63.60551	
66.69817	3404.509		67.42031	
66.75216	3407.258		71.33203	
66.80614	3410.187		75.34231	
66.86013	3413.301		79.45289	
66.91412	3416.615		83.66563	
66.9681	3420.156		87.98254	
67.02209	3423.945		92.40629	
67.07608	3427.991		96.93784	
67.13007	3432.297		101.5801	
67.18405	3436.852		106.3354	
67.23804	3441.647		111.2062	
67.29202	3446.674		116.1953	
67.34601	3451.925		121.3052	
67.39999	3457.399		126.539	
67.45398	3463.107		131.8995	
67.50797	3469.057		137.39	
67.56196	3475.256		143.0144	
67.61594	3481.713		148.7744	
67.66993	3488.445		154.6746	
67.72392	3495.469		160.7183	
67.7779	3502.813		166.9092	
67.83189	3510.495		173.2508	
67.88587	3518.532		179.7467	
67.93986	3526.936		186.4003	
67.99384	3535.71		193.2145	
68.04783	3544.861		200.1924	
68.10182	3554.396		207.3374	
68.15581	3564.318		214.6497	
68.20979	3574.627		222.132	
68.26378	3585.319		229.7854	
68.31776	3596.388		237.6105	
68.37175	3607.839		245.6074	
68.42574	3619.683		253.7753	
68.47972	3631.93		262.113	
68.53371	3644.589		270.6184	
68.58769	3657.668		279.2888	
68.64169	3671.186		288.1219	
68.69567	3685.165		297.1112	
68.74966	3699.631		306.253	
68.80364	3714.59		315.5417	
68.85763	3730.042		324.9712	
68.91161	3745.99		334.5347	
68.9656	3762.434		344.2248	
69.01958	3779.375		354.0338	
69.07357	3796.821		363.9533	
69.12756	3814.782		373.9749	
69.18155	3833.274		384.0908	
69.23553	3852.302		394.2889	
69.28952	3871.875		404.5609	
69.34351	3892.003		414.8968	
69.39749	3912.706		425.2863	
69.45148	3934.019		435.7188	
69.50546	3955.976		446.1833	
69.55945	3978.611		456.6688	
69.61343	4001.951		467.1638	
69.66742	4026.012		477.6569	
69.72141	4050.814		488.1376	
69.7754	4076.36		498.5911	
69.82938	4102.667		509.0066	
69.88337	4129.749		519.3713	
69.93736	4157.613		529.6726	
69.99134	4186.275		539.8972	
70.04533	4215.742		550.0316	
70.09931	4246.023		560.062	
70.1533	4277.134		569.9742	
70.20728	4309.094		579.7536	
70.26127	4341.921		589.3849	
70.31526	4375.63		598.8538	
70.36925	4410.211		608.1413	
70.42323	4445.667		617.2318	
70.47722	4481.978		626.108	
70.5312	4519.116		634.752	
70.58519	4557.037		643.1453	
70.63918	4595.693		651.2688	
70.69316	4635.046		659.1033	
70.74715	4675.052		666.6292	
70.80113	4715.664		673.8267	
70.85513	4756.838		680.6769	
70.90911	4798.51		687.1581	
70.9631	4840.624		693.2518	
71.01708	4883.121		698.9391	
71.07107	4925.944		704.2016	
71.12505	4969.052		709.0215	
71.17904	5012.412		713.3823	
71.23302	5055.994		717.2683	
71.28701	5099.772		720.6649	
71.341	5143.717		723.5591	
71.39499	5187.81		725.9396	
71.44897	5232.021		727.7957	
71.50296	5276.351		729.1194	
71.55695	5320.804		729.9039	
71.61093	5365.398		730.1442	
71.66492	5410.15		729.8375	
71.7189	5455.069		728.9824	
71.77289	5500.165		727.5797	
71.82687	5545.429		725.6319	
71.88086	5590.843		723.1434	
71.93485	5636.394		720.1199	
71.98884	5682.027		716.57	
72.04282	5727.697		712.5026	
72.09681	5773.334		707.9286	
72.15079	5818.874		702.8605	
72.20478	5864.268		697.3118	
72.25877	5909.46		691.2974	
72.31275	5954.388		684.8331	
72.36674	5998.975		677.9355	
72.42072	6043.139		670.6221	
72.47472	6086.803		662.9096	
72.5287	6129.873		654.8187	
72.58269	6172.271		646.3671	
72.63667	6213.928		637.5735	
72.69066	6254.766		628.457	
72.74464	6294.703		619.0366	
72.79863	6333.643		609.3311	
72.85262	6371.502		599.3592	
72.9066	6408.207		589.1397	
72.96059	6443.708		578.691	
73.01458	6477.975		568.0296	
73.06857	6510.977		557.1765	
73.12255	6542.707		546.148	
73.17654	6573.16		534.9615	
73.23052	6602.345		523.6342	
73.28451	6630.278		512.1832	
73.33849	6656.988		500.6254	
73.39248	6682.521		488.9777	
73.44646	6706.921		477.257	
73.50045	6730.231		465.48	
73.55444	6752.495		453.6619	
73.60843	6773.734		441.823	
73.66241	6793.977		429.9786	
73.7164	6813.252		418.1456	
73.77039	6831.594		406.3412	
73.82437	6849.044		394.5825	
73.87836	6865.659		382.8864	
73.93234	6881.497		371.2701	
73.98633	6896.613		359.7501	
74.04031	6911.044		348.343	
74.09431	6924.828		337.0633	
74.14829	6938.009		325.9298	
74.20228	6950.65		314.9563	
74.25626	6962.813		304.1576	
74.31025	6974.568		293.5476	
74.36423	6985.965		283.1398	
74.41822	6997.036		272.9467	
74.47221	7007.789		262.9799	
74.52619	7018.205		253.2499	
74.58018	7028.269		243.7663	
74.63417	7037.996		234.536	
74.68816	7047.409		225.5686	
74.74214	7056.535		216.8686	
74.79613	7065.383		208.4401	
74.85011	7073.952		200.2862	
74.9041	7082.232		192.4084	
74.95808	7090.224		184.8071	
75.01207	7097.935		177.4812	
75.06606	7105.377		170.4281	
75.12004	7112.559		163.6441	
75.17403	7119.507		157.1235	
75.22802	7126.233		150.8619	
75.28201	7132.747		144.8515	
75.33599	7139.047		139.0844	
75.38998	7145.13		133.552	
75.44396	7150.993		128.2451	
75.49795	7156.632		123.1541	
75.55193	7162.048		118.269	
75.60592	7167.246		113.5796	
75.6599	7172.223		109.0757	
75.7139	7176.977		104.7467	
75.76788	7181.508		100.5836	
75.82187	7185.818		96.57624	
75.87585	7189.91		92.71491	
75.92984	7193.785		88.99049	
75.98383	7197.447		85.39415	
76.03781	7200.903		81.9176	
76.0918	7204.163		78.55302	
76.14578	7207.231		75.29317	
76.19977	7210.107		72.13131	
76.25376	7212.795		69.06092	
76.30775	7215.3		66.07732	
76.36173	7217.644		63.17515	
76.41572	7219.852		60.35011	
76.4697	7221.944		57.59849	
76.52369	7223.931		54.91714	
76.57767	7225.816		52.30344	
76.63166	7227.61		49.75514	
76.68565	7229.33		47.27036	
76.73963	7231		44.84745	
76.79362	7232.644		42.48469	
76.84761	7234.278		40.18152	
76.9016	7235.929		37.93658	
76.95558	7237.623		35.74902	
77.00957	7239.365		33.61803	
77.06355	7241.133		31.54281	
77.11754	7242.896		29.52244	
77.17152	7244.63		27.55589	
77.22551	7246.311		25.64195	
77.2795	7247.92		23.77936	
77.33349	7249.438		21.96649	
77.38747	7250.853		20.20242	
77.44146	7252.15		18.48538	
77.49545	7253.327		16.81383	
77.54943	7254.381		15.18612	
77.60342	7255.301		13.60063	
77.6574	7256.066		12.05571	
77.71139	7256.657		10.54973	
77.76537	7257.075		9.08105	
77.81936	7257.327		7.648095	
77.87335	7257.414		6.249101	
77.92734	7257.338		4.882945	
77.98132	7257.106		3.54797	
78.03531	7256.726		2.242829	
78.08929	7256.211		0.966283	
78.14328	7255.584		-0.2827518	
78.19727	7254.871		-1.505208	
78.25125	7254.092		-2.701818	
78.30524	7253.268		-3.873093	
78.35922	7252.409		-5.019238	
78.41321	7251.521		-6.140119	
78.4672	7250.605		-7.235386	
78.52119	7249.665		-8.303907	
78.57517	7248.702		-9.344734	
78.62916	7247.725		-10.35658	
78.68314	7246.739		-11.33801	
78.73713	7245.743		-12.28753	
78.79111	7244.724		-13.2036	
78.8451	7243.676		-14.08472	
78.89909	7242.602		-14.92947	
78.95307	7241.518		-15.73652	
79.00706	7240.446		-16.5048	
79.06105	7239.398		-17.2331	
79.11504	7238.379		-17.92082	
79.16902	7237.37		-18.56759	
79.22301	7236.347		-19.17337	
79.27699	7235.28		-19.73845	
79.33098	7234.142		-20.2634	
79.38496	7232.912		-20.74904	
79.43895	7231.584		-21.19636	
79.49294	7230.172		-21.60651	
79.54693	7228.692		-21.98084	
79.60091	7227.15		-22.32061	
79.6549	7225.542		-22.62733	
79.70889	7223.859		-22.90248	
79.76287	7222.108		-23.14759	
79.81686	7220.294		-23.36415	
79.87084	7218.431		-23.55365	
79.92483	7216.533		-23.71757	
79.97881	7214.611		-23.85738	
80.0328	7212.675		-23.97447	
80.08679	7210.728		-24.07022	
80.14078	7208.773		-24.14584	
80.19476	7206.817		-24.2025	
80.24875	7204.88		-24.24123	
80.30273	7202.984		-24.26294	
80.35672	7201.14		-24.26835	
80.41071	7199.355		-24.25795	
80.46469	7197.627		-24.23199	
80.51868	7195.948		-24.19052	
80.57266	7194.315		-24.13334	
80.62666	7192.73		-24.06007	
80.68064	7191.205		-23.97023	
80.73463	7189.746		-23.86319	
80.78861	7188.357		-23.73828	
80.8426	7187.041		-23.59481	
80.89658	7185.803		-23.4321	
80.95057	7184.659		-23.24954	
81.00455	7183.633		-23.04662	
81.05854	7182.747		-22.82299	
81.11253	7182.012		-22.57855	
81.16652	7181.415		-22.31346	
81.2205	7180.916		-22.02837	
81.27449	7180.465		-21.72417	
81.32848	7180.013		-21.40222	
81.38246	7179.502		-21.06428	
81.43645	7178.887		-20.71251	
81.49043	7178.141		-20.34948	
81.54442	7177.267		-19.97802	
81.5984	7176.284		-19.60126	
81.65239	7175.213		-19.22242	
81.70638	7174.072		-18.84475	
81.76037	7172.875		-18.47167	
81.81435	7171.632		-18.10643	
81.86834	7170.356		-17.75229	
81.92233	7169.057		-17.41246	
81.97631	7167.752		-17.09002	
82.0303	7166.465		-16.78792	
82.08428	7165.205		-16.5089	
82.13827	7163.961		-16.25544	
82.19225	7162.725		-16.02977	
82.24625	7161.486		-15.83385	
82.30023	7160.236		-15.66954	
82.35422	7158.98		-15.5384	
82.4082	7157.728		-15.44184	
82.46219	7156.493		-15.381	
82.51617	7155.299		-15.35684	
82.57016	7154.176		-15.37006	
82.62415	7153.159		-15.42112	
82.67813	7152.28		-15.51031	
82.73212	7151.561		-15.63775	
82.78611	7150.998		-15.80347	
82.8401	7150.579		-16.00727	
82.89408	7150.287		-16.24889	
82.94807	7150.107		-16.52792	
83.00205	7150.023		-16.84377	
83.05604	7150.016		-17.19573	
83.11002	7150.063		-17.58293	
83.16401	7150.15		-18.00449	
83.21799	7150.258		-18.45947	
83.27198	7150.363		-18.94698	
83.32597	7150.433		-19.4663	
83.37996	7150.439		-20.01671	
83.43394	7150.358		-20.59796	
83.48793	7150.18		-21.21003	
83.54192	7149.915		-21.8532	
83.5959	7149.59		-22.52803	
83.64989	7149.229		-23.23525	
83.70387	7148.838		-23.97575	
83.75786	7148.417		-24.75045	
83.81184	7147.951		-25.56034	
83.86584	7147.42		-26.40656	
83.91982	7146.792		-27.28983	
83.97381	7146.043		-28.21116	
84.02779	7145.147		-29.17136	
84.08178	7144.085		-30.17116	
84.13577	7142.836		-31.2112	
84.18975	7141.4		-32.29198	
84.24374	7139.795		-33.41384	
84.29772	7138.061		-34.57704	
84.35171	7136.233		-35.78172	
84.4057	7134.327		-37.02808	
84.45969	7132.351		-38.31569	
84.51367	7130.31		-39.64451	
84.56766	7128.198		-41.01417	
84.62164	7126.006		-42.42419	
84.67563	7123.725		-43.87389	
84.72961	7121.343		-45.36247	
84.7836	7118.845		-46.88893	
84.83759	7116.215		-48.45214	
84.89157	7113.438		-50.05083	
84.94556	7110.512		-51.68376	
84.99955	7107.449		-53.34882	
85.05354	7104.272		-55.04436	
85.10752	7101.021		-56.7683	
85.16151	7097.739		-58.51843	
85.21549	7094.457		-60.29237	
85.26948	7091.183		-62.08762	
85.32346	7087.905		-63.90158	
85.37745	7084.599		-65.73162	
85.43143	7081.22		-67.57513	
85.48543	7077.72		-69.42979	
85.53941	7074.068		-71.29254	
85.5934	7070.268		-73.16109	
85.64738	7066.321		-75.03298	
85.70137	7062.251		-76.90578	
85.75536	7058.079		-78.77707	
85.80934	7053.838		-80.64448	
85.86333	7049.556		-82.50568	
85.91731	7045.254		-84.35841	
85.9713	7040.933		-86.20052	
86.02529	7036.587		-88.03021	
86.07928	7032.192		-89.84509	
86.13326	7027.719		-91.64361	
86.18725	7023.131		-93.42404	
86.24123	7018.41		-95.18469	
86.29522	7013.542		-96.92393	
86.34921	7008.521		-98.64014	
86.40319	7003.345		-100.3318	
86.45718	6998.025		-101.9975	
86.51116	6992.583		-103.6359	
86.56516	6987.032		-105.2459	
86.61914	6981.373		-106.8262	
86.67313	6975.602		-108.3759	
86.72711	6969.714		-109.8944	
86.7811	6963.699		-111.381	
86.83508	6957.537		-112.8353	
86.88907	6951.204		-114.2567	
86.94305	6944.677		-115.6451	
86.99704	6937.938		-117.0001	
87.05103	6930.983		-118.3214	
87.10501	6923.815		-119.6086	
87.159	6916.447		-120.8617	
87.21299	6908.9		-122.0801	
87.26698	6901.209		-123.2635	
87.32096	6893.425		-124.4117	
87.37495	6885.592		-125.5242	
87.42893	6877.73		-126.6008	
87.48292	6869.844		-127.6411	
87.5369	6861.931		-128.6447	
87.59089	6853.994		-129.6114	
87.64487	6846.036		-130.5407	
87.69887	6838.042		-131.4327	
87.75285	6830		-132.2867	
87.80684	6821.911		-133.1027	
87.86082	6813.789		-133.8804	
87.91481	6805.643		-134.6197	
87.9688	6797.492		-135.3207	
88.02278	6789.354		-135.9836	
88.07677	6781.258		-136.6089	
88.13075	6773.228		-137.1975	
88.18474	6765.284		-137.7502	
88.23873	6757.428		-138.2682	
88.29272	6749.652		-138.7527	
88.3467	6741.936		-139.2051	
88.40069	6734.259		-139.6271	
88.45467	6726.603		-140.0201	
88.50866	6718.953		-140.3858	
88.56264	6711.3		-140.726	
88.61663	6703.633		-141.0426	
88.67062	6695.96		-141.3376	
88.7246	6688.291		-141.6129	
88.77859	6680.631		-141.8708	
88.83258	6672.989		-142.1134	
88.88657	6665.379		-142.3431	
88.94055	6657.806		-142.5619	
88.99454	6650.28		-142.7721	
89.04852	6642.805		-142.9756	
89.10251	6635.381		-143.1744	
89.15649	6627.99		-143.37	
89.21048	6620.615		-143.5638	
89.26447	6613.238		-143.7571	
89.31846	6605.85		-143.9508	
89.37244	6598.425		-144.1456	
89.42643	6590.947		-144.3418	
89.48042	6583.396		-144.5397	
89.5344	6575.774		-144.7394	
89.58839	6568.104		-144.9408	
89.64237	6560.431		-145.1436	
89.69636	6552.776		-145.3475	
89.75034	6545.153		-145.552	
89.80433	6537.571		-145.7564	
89.85832	6530.044		-145.96	
89.91231	6522.576		-146.1619	
89.96629	6515.156		-146.3609	
90.02028	6507.758		-146.5562	
90.07426	6500.362		-146.7467	
90.12825	6492.937		-146.9314	
90.18224	6485.45		-147.1094	
90.23622	6477.866		-147.2799	
90.29021	6470.171		-147.4422	
90.34419	6462.377		-147.5956	
90.39819	6454.505		-147.7397	
90.45217	6446.573		-147.8741	
90.50616	6438.587		-147.9984	
90.56014	6430.539		-148.1125	
90.61413	6422.428		-148.2163	
90.66811	6414.253		-148.31	
90.7221	6406.009		-148.3936	
90.77608	6397.691		-148.4673	
90.83007	6389.295		-148.5313	
90.88406	6380.817		-148.5858	
90.93805	6372.247		-148.6313	
90.99203	6363.581		-148.6681	
91.04602	6354.81		-148.6964	
91.10001	6345.925		-148.7168	
91.15399	6336.93		-148.7294	
91.20798	6327.846		-148.7347	
91.26196	6318.709		-148.7329	
91.31595	6309.563		-148.7243	
91.36993	6300.447		-148.7092	
91.42392	6291.406		-148.688	
91.47791	6282.469		-148.6609	
91.5319	6273.66		-148.6284	
91.58588	6264.997		-148.5904	
91.63987	6256.499		-148.5473	
91.69386	6248.162		-148.4991	
91.74784	6239.967		-148.4457	
91.80183	6231.893		-148.3871	
91.85581	6223.92		-148.3233	
91.9098	6216.033		-148.2542	
91.96378	6208.216		-148.1796	
92.01778	6200.46		-148.0994	
92.07176	6192.771		-148.0138	
92.12575	6185.144		-147.9229	
92.17973	6177.574		-147.8268	
92.23372	6170.049		-147.726	
92.2877	6162.562		-147.6206	
92.34169	6155.102		-147.5113	
92.39568	6147.674		-147.3987	
92.44966	6140.279		-147.3738	
92.50365	6132.921		-147.3621	
92.55764	6125.588		-147.3582	
92.61163	6118.271		-147.3577	
92.66561	6110.94		-147.3578	
92.7196	6103.58		-147.3568	
92.77358	6096.172		-147.354	
92.82757	6088.699		-147.3496	
92.88155	6081.137		-147.3436	
92.93554	6073.491		-147.3365	
92.98952	6065.776		-147.3287	
93.04351	6058.026		-147.3208	
93.0975	6050.266		-147.313	
93.15149	6042.52		-147.306	
93.20547	6034.8		-147.2999	
93.25946	6027.123		-147.2952	
93.31345	6019.493		-147.2921	
93.36743	6011.912		-147.291	
93.42142	6004.364		-147.2921	
93.4754	5996.825		-147.2956	
93.52939	5989.256		-147.3017	
93.58337	5981.636		-147.3106	
93.63737	5973.958		-147.3225	
93.69135	5966.215		-147.3375	
93.74534	5958.394		-147.3558	
93.79932	5950.494		-147.3774	
93.85331	5942.511		-147.4025	
93.9073	5934.438		-147.4313	
93.96128	5926.272		-147.4636	
94.01527	5918.018		-147.4997	
94.06925	5909.458		-147.5395	
94.12324	5900.948		-147.5831	
94.17723	5892.501		-147.6306	
94.23122	5884.098		-147.6817	
94.2852	5875.715		-147.7367	
94.33919	5867.34		-147.7955	
94.39317	5858.961		-147.8579	
94.44716	5850.575		-147.9241	
94.50114	5842.178		-147.9939	
94.55513	5833.769		-148.0672	
94.60912	5825.346		-148.144	
94.6631	5816.909		-148.2243	
94.71709	5808.455		-148.308	
94.77108	5799.987		-148.3948	
94.82507	5791.504		-148.4849	
94.87905	5783.01		-148.578	
94.93304	5774.506		-148.6741	
94.98702	5765.999		-148.7731	
