T[Â°C]	330nm [counts / mm]	S.D.	First derivative	S.D. of first derivative
20.00033	4901.893		-70.73909	
20.05443	4898.045		-70.63952	
20.10854	4894.203		-70.54031	
20.16265	4890.365		-70.44146	
20.21675	4886.531		-70.34302	
20.27086	4882.703		-70.24501	
20.32496	4878.88		-70.14748	
20.37907	4875.065		-70.05043	
20.43317	4871.259		-69.95391	
20.48728	4867.463		-69.85796	
20.54138	4863.677		-69.76263	
20.59549	4859.9		-69.66792	
20.6496	4856.133		-69.57389	
20.7037	4852.374		-69.48058	
20.75781	4848.618		-69.388	
20.81191	4844.862		-69.29622	
20.86602	4841.102		-69.20525	
20.92012	4837.332		-69.11514	
20.97423	4833.576		-69.02592	
21.02833	4829.787		-68.93761	
21.08244	4825.967		-68.85024	
21.13655	4822.125		-68.76385	
21.19065	4818.283		-68.67844	
21.24476	4814.456		-68.59403	
21.29886	4810.656		-68.51066	
21.35297	4806.891		-68.42831	
21.40707	4803.167		-68.34698	
21.46118	4799.478		-68.26667	
21.51529	4795.813		-68.18737	
21.56939	4792.16		-68.10905	
21.6235	4788.504		-68.03168	
21.6776	4784.824		-67.95525	
21.73171	4781.118		-67.87968	
21.78581	4777.387		-67.80493	
21.83992	4773.644		-67.73094	
21.89402	4769.906		-67.65763	
21.94813	4766.19		-67.58491	
22.00224	4762.512		-67.51266	
22.05634	4758.878		-67.44074	
22.11045	4755.288		-67.369	
22.16455	4751.737		-67.29726	
22.21866	4748.22		-67.22527	
22.27276	4744.742		-67.15279	
22.32687	4741.304		-67.07957	
22.38097	4737.909		-67.00538	
22.43508	4734.551		-66.93008	
22.48919	4731.22		-66.85375	
22.54329	4727.897		-66.77673	
22.5974	4724.568		-66.69971	
22.6515	4721.226		-66.66615	
22.70561	4717.864		-66.63441	
22.75971	4714.476		-66.60452	
22.81382	4711.059		-66.57651	
22.86792	4707.616		-66.55046	
22.92203	4704.147		-66.52644	
22.97614	4700.652		-66.50448	
23.03024	4697.133		-66.48456	
23.08435	4693.589		-66.46661	
23.13845	4690.028		-66.45043	
23.19256	4686.449		-66.43578	
23.24666	4682.85		-66.42234	
23.30077	4679.226		-66.40976	
23.35488	4675.581		-66.39766	
23.40898	4671.918		-66.38569	
23.46309	4668.234		-66.37349	
23.51719	4664.54		-66.3607	
23.5713	4660.846		-66.34697	
23.6254	4657.16		-66.33194	
23.67951	4653.482		-66.3153	
23.73361	4649.809		-66.29672	
23.78772	4646.133		-66.27595	
23.84183	4642.446		-66.25274	
23.89593	4638.739		-66.22691	
23.95004	4635.012		-66.19839	
24.00414	4631.275		-66.16712	
24.05825	4627.544		-66.13314	
24.11235	4623.831		-66.09649	
24.16646	4620.142		-66.05726	
24.22056	4616.476		-66.01553	
24.27467	4612.822		-65.97139	
24.32878	4609.178		-65.92496	
24.38288	4605.54		-65.87635	
24.43699	4601.903		-65.82569	
24.49109	4598.261		-65.77311	
24.5452	4594.617		-65.71873	
24.5993	4590.977		-65.66267	
24.65341	4587.35		-65.60503	
24.70752	4583.731		-65.54594	
24.76162	4580.113		-65.48558	
24.81573	4576.495		-65.42417	
24.86983	4572.876		-65.362	
24.92394	4569.255		-65.29937	
24.97804	4565.629		-65.23657	
25.03215	4562		-65.17382	
25.08625	4558.369		-65.1113	
25.14036	4554.743		-65.04907	
25.19447	4551.125		-64.98717	
25.24857	4547.523		-64.92554	
25.30268	4543.939		-64.86406	
25.35678	4540.375		-64.80256	
25.41089	4536.833		-64.74088	
25.46499	4533.313		-64.67882	
25.5191	4529.82		-64.61621	
25.5732	4526.365		-64.55289	
25.62731	4522.959		-64.48871	
25.68142	4519.62		-64.42359	
25.73552	4516.356		-64.35747	
25.78963	4513.172		-64.29034	
25.84373	4510.053		-64.22224	
25.89784	4506.973		-64.15331	
25.95194	4503.899		-64.08367	
26.00605	4500.805		-64.01354	
26.06015	4497.669		-63.94314	
26.11426	4494.478		-63.87271	
26.16837	4491.231		-63.80257	
26.22247	4487.938		-63.73305	
26.27658	4484.613		-63.66452	
26.33068	4481.279		-63.59742	
26.38479	4477.948		-63.53217	
26.43889	4474.614		-63.46924	
26.493	4471.268		-63.40909	
26.54711	4467.894		-63.35217	
26.60121	4464.487		-63.29887	
26.65532	4461.044		-63.24957	
26.70942	4457.557		-63.20455	
26.76353	4454.026		-63.16405	
26.81763	4450.455		-63.12826	
26.87174	4446.847		-63.09728	
26.92584	4443.206		-63.07111	
26.97995	4439.526		-63.04963	
27.03406	4435.806		-63.03262	
27.08816	4432.056		-63.01975	
27.14227	4428.3		-63.0106	
27.19637	4424.568		-63.00467	
27.25048	4420.883		-63.00137	
27.30458	4417.264		-63	
27.35869	4413.715		-62.99979	
27.41279	4410.234		-62.99996	
27.4669	4406.817		-62.99972	
27.52101	4403.459		-62.99829	
27.57511	4400.146		-62.99495	
27.62922	4396.862		-62.98903	
27.68332	4393.593		-62.97997	
27.73743	4390.338		-62.96725	
27.79153	4387.095		-62.95043	
27.84564	4383.864		-62.92916	
27.89975	4380.637		-62.90314	
27.95385	4377.407		-62.87215	
28.00796	4374.165		-62.83608	
28.06206	4370.903		-62.79494	
28.11617	4367.613		-62.74889	
28.17027	4364.29		-62.6982	
28.22438	4360.929		-62.64333	
28.27848	4357.53		-62.58482	
28.33259	4354.106		-62.52332	
28.3867	4350.676		-62.45951	
28.4408	4347.249		-62.39411	
28.49491	4343.833		-62.32783	
28.54901	4340.432		-62.26139	
28.60312	4337.046		-62.1955	
28.65722	4333.668		-62.13084	
28.71133	4330.28		-62.06805	
28.76543	4326.865		-62.0077	
28.81954	4323.411		-61.9503	
28.87365	4319.917		-61.89628	
28.92775	4316.388		-61.84597	
28.98186	4312.83		-61.79959	
29.03596	4309.256		-61.75729	
29.09007	4305.68		-61.71909	
29.14417	4302.126		-61.68496	
29.19828	4298.621		-61.65477	
29.25238	4295.182		-61.62832	
29.30649	4291.812		-61.6053	
29.3606	4288.506		-61.58537	
29.4147	4285.262		-61.5681	
29.46881	4282.071		-61.55305	
29.52291	4278.925		-61.53971	
29.57702	4275.813		-61.52755	
29.63112	4272.721		-61.51602	
29.68523	4269.635		-61.50462	
29.73934	4266.544		-61.49287	
29.79344	4263.446		-61.48035	
29.84755	4260.346		-61.46667	
29.90165	4257.246		-61.45156	
29.95576	4254.139		-61.4348	
30.00986	4251.012		-61.41629	
30.06397	4247.862		-61.39602	
30.11807	4244.684		-61.37409	
30.17218	4241.476		-61.35064	
30.22629	4238.237		-61.32584	
30.28039	4234.976		-61.2999	
30.3345	4231.695		-61.273	
30.3886	4228.391		-61.24527	
30.44271	4225.061		-61.21682	
30.49681	4221.696		-61.18774	
30.55092	4218.301		-61.15811	
30.60502	4214.881		-61.12799	
30.65913	4211.44		-61.09743	
30.71324	4207.982		-61.06651	
30.76734	4204.507		-61.03527	
30.82145	4201.016		-61.00382	
30.87555	4197.51		-60.97221	
30.92966	4193.995		-60.94054	
30.98376	4190.481		-60.90889	
31.03787	4186.972		-60.87732	
31.09198	4183.472		-60.84589	
31.14608	4179.999		-60.81466	
31.20019	4176.569		-60.78369	
31.25429	4173.192		-60.75304	
31.3084	4169.872		-60.72273	
31.3625	4166.613		-60.69275	
31.41661	4163.413		-60.66302	
31.47071	4160.257		-60.63344	
31.52482	4157.125		-60.60384	
31.57893	4153.999		-60.57399	
31.63303	4150.856		-60.54368	
31.68714	4147.673		-60.51267	
31.74124	4144.442		-60.48077	
31.79535	4141.163		-60.44783	
31.84945	4137.842		-60.41373	
31.90356	4134.495		-60.37839	
31.95766	4131.14		-60.3418	
32.01177	4127.794		-60.30402	
32.06588	4124.475		-60.26513	
32.11998	4121.187		-60.22523	
32.17409	4117.927		-60.18441	
32.22819	4114.682		-60.14274	
32.2823	4111.434		-60.1003	
32.3364	4108.166		-60.05716	
32.39051	4104.873		-60.01337	
32.44461	4101.553		-59.96898	
32.49872	4098.204		-59.92398	
32.55283	4094.84		-59.87835	
32.60693	4091.479		-59.83202	
32.66104	4088.143		-59.78491	
32.71514	4084.848		-59.73699	
32.76925	4081.615		-59.68822	
32.82335	4078.456		-59.63867	
32.87746	4075.371		-59.58846	
32.93156	4072.361		-59.53776	
32.98567	4069.413		-59.4868	
33.03978	4066.5		-59.43586	
33.09388	4063.592		-59.38524	
33.14799	4060.67		-59.33528	
33.2021	4057.72		-59.2863	
33.2562	4054.731		-59.23862	
33.31031	4051.695		-59.19247	
33.36441	4048.607		-59.14808	
33.41851	4045.472		-59.10564	
33.47262	4042.297		-59.06528	
33.52673	4039.098		-59.02705	
33.58083	4035.887		-58.99094	
33.63494	4032.67		-58.95686	
33.68904	4029.449		-58.92464	
33.74315	4026.221		-58.89408	
33.79726	4022.973		-58.86492	
33.85136	4019.696		-58.83685	
33.90547	4016.376		-58.80956	
33.95957	4013.001		-58.78272	
34.01368	4009.569		-58.75597	
34.06778	4006.092		-58.72898	
34.12189	4002.599		-58.70142	
34.17599	3999.117		-58.67298	
34.2301	3995.674		-58.64341	
34.28421	3992.285		-58.61251	
34.33831	3988.96		-58.58012	
34.39242	3985.707		-58.54616	
34.44652	3982.525		-58.51051	
34.50063	3979.41		-58.4731	
34.55473	3976.348		-58.43382	
34.60884	3973.329		-58.39256	
34.66294	3970.343		-58.34925	
34.71705	3967.38		-58.30379	
34.77116	3964.427		-58.2561	
34.82526	3961.47		-58.20614	
34.87937	3958.501		-58.15388	
34.93347	3955.517		-58.09933	
34.98758	3952.51		-58.04254	
35.04168	3949.481		-57.98362	
35.09579	3946.433		-57.92274	
35.14989	3943.367		-57.86018	
35.204	3940.281		-57.79623	
35.25811	3937.172		-57.7313	
35.31221	3934.035		-57.66583	
35.36632	3930.865		-57.60034	
35.42042	3927.654		-57.53536	
35.47453	3924.4		-57.47137	
35.52863	3921.108		-57.40879	
35.58274	3917.787		-57.34793	
35.63684	3914.445		-57.289	
35.69095	3911.088		-57.23212	
35.74506	3907.724		-57.17737	
35.79916	3904.369		-57.12477	
35.85327	3901.04		-57.07428	
35.90737	3897.751		-57.02583	
35.96148	3894.515		-56.9793	
36.01558	3891.342		-56.93455	
36.06969	3888.233		-56.89138	
36.12379	3885.196		-56.8496	
36.1779	3882.232		-56.80903	
36.23201	3879.343		-56.76949	
36.28611	3876.52		-56.73079	
36.34022	3873.748		-56.69277	
36.39433	3871.016		-56.65529	
36.44843	3868.306		-56.61827	
36.50254	3865.593		-56.5817	
36.55664	3862.853		-56.54564	
36.61074	3860.074		-56.51018	
36.66485	3857.251		-56.47547	
36.71896	3854.383		-56.44167	
36.77306	3851.476		-56.40894	
36.82717	3848.54		-56.37742	
36.88128	3845.576		-56.34723	
36.93538	3842.585		-56.31847	
36.98949	3839.562		-56.29126	
37.04359	3836.511		-56.26573	
37.0977	3833.434		-56.24205	
37.1518	3830.336		-56.22041	
37.20591	3827.217		-56.20104	
37.26001	3824.072		-56.18421	
37.31412	3820.902		-56.1702	
37.36823	3817.704		-56.15927	
37.42233	3814.484		-56.1516	
37.47644	3811.248		-56.14732	
37.53054	3808.009		-56.1464	
37.58465	3804.774		-56.14872	
37.63875	3801.552		-56.15407	
37.69286	3798.354		-56.16216	
37.74696	3795.194		-56.17262	
37.80107	3792.077		-56.18501	
37.85518	3788.992		-56.19887	
37.90928	3785.931		-56.21368	
37.96339	3782.895		-56.22887	
38.01749	3779.888		-56.24379	
38.0716	3776.919		-56.25777	
38.1257	3774.001		-56.27013	
38.17981	3771.132		-56.28015	
38.23391	3768.303		-56.28711	
38.28802	3765.492		-56.29029	
38.34212	3762.679		-56.28905	
38.39623	3759.84		-56.28284	
38.45034	3756.956		-56.27121	
38.50444	3754.02		-56.25384	
38.55855	3751.036		-56.23055	
38.61265	3748.014		-56.20128	
38.66676	3744.953		-56.16608	
38.72086	3741.857		-56.12506	
38.77497	3738.735		-56.07841	
38.82907	3735.602		-56.02639	
38.88318	3732.471		-55.9693	
38.93729	3729.348		-55.9075	
38.99139	3726.231		-55.84147	
39.0455	3723.111		-55.77173	
39.0996	3719.978		-55.69888	
39.15371	3716.83		-55.62353	
39.20781	3713.67		-55.54633	
39.26192	3710.5		-55.46792	
39.31602	3707.32		-55.38894	
39.37013	3704.129		-55.30998	
39.42424	3700.933		-55.23166	
39.47834	3697.735		-55.15454	
39.53245	3694.536		-55.07915	
39.58656	3691.34		-55.00595	
39.64066	3688.154		-54.93539	
39.69477	3684.997		-54.86778	
39.74887	3681.894		-54.8034	
39.80297	3678.858		-54.74244	
39.85708	3675.884		-54.68503	
39.91119	3672.959		-54.63124	
39.96529	3670.067		-54.58107	
40.0194	3667.197		-54.53446	
40.07351	3664.349		-54.49127	
40.12761	3661.522		-54.45129	
40.18172	3658.714		-54.41422	
40.23582	3655.926		-54.37975	
40.28993	3653.16		-54.3475	
40.34403	3650.407		-54.31714	
40.39814	3647.653		-54.28831	
40.45224	3644.885		-54.26067	
40.50635	3642.105		-54.23392	
40.56046	3639.317		-54.20782	
40.61456	3636.524		-54.18212	
40.66867	3633.726		-54.15663	
40.72277	3630.921		-54.13114	
40.77688	3628.105		-54.10542	
40.83098	3625.281		-54.07924	
40.88509	3622.451		-54.05233	
40.93919	3619.615		-54.02449	
40.9933	3616.776		-53.9955	
41.04741	3613.935		-53.96518	
41.10151	3611.091		-53.93343	
41.15562	3608.249		-53.90019	
41.20972	3605.418		-53.86547	
41.26383	3602.604		-53.82933	
41.31793	3599.81		-53.79195	
41.37204	3597.031		-53.75356	
41.42614	3594.268		-53.71449	
41.48025	3591.506		-53.67508	
41.53436	3588.74		-53.63571	
41.58846	3585.955		-53.59675	
41.64257	3583.138		-53.55856	
41.69667	3580.286		-53.52148	
41.75078	3577.398		-53.48586	
41.80488	3574.476		-53.45203	
41.85899	3571.516		-53.4203	
41.91309	3568.51		-53.39096	
41.9672	3565.458		-53.36424	
42.02131	3562.363		-53.34032	
42.07541	3559.236		-53.31932	
42.12952	3556.091		-53.30127	
42.18362	3552.945		-53.28619	
42.23773	3549.813		-53.27399	
42.29183	3546.702		-53.26458	
42.34594	3543.604		-53.25782	
42.40004	3540.508		-53.25357	
42.45415	3537.403		-53.2516	
42.50826	3534.278		-53.25172	
42.56236	3531.125		-53.25371	
42.61647	3527.954		-53.25732	
42.67057	3524.781		-53.26224	
42.72468	3521.632		-53.26806	
42.77879	3518.53		-53.27427	
42.83289	3515.496		-53.28024	
42.88699	3512.542		-53.28523	
42.9411	3509.668		-53.28846	
42.9952	3506.876		-53.2891	
43.04931	3504.156		-53.28637	
43.10342	3501.498		-53.27956	
43.15752	3498.886		-53.26802	
43.21163	3496.308		-53.25124	
43.26574	3493.752		-53.22879	
43.31984	3491.214		-53.20037	
43.37395	3488.685		-53.16578	
43.42805	3486.153		-53.12492	
43.48216	3483.61		-53.07781	
43.53626	3481.047		-53.02459	
43.59037	3478.452		-52.9655	
43.64447	3475.815		-52.90094	
43.69858	3473.133		-52.83144	
43.75269	3470.409		-52.75765	
43.80679	3467.649		-52.68034	
43.8609	3464.857		-52.60028	
43.915	3462.044		-52.51822	
43.96911	3459.209		-52.4349	
44.02321	3456.35		-52.351	
44.07732	3453.457		-52.26715	
44.13142	3450.528		-52.18397	
44.18553	3447.569		-52.10199	
44.23964	3444.583		-52.02174	
44.29374	3441.578		-51.94373	
44.34785	3438.558		-51.86841	
44.40195	3435.534		-51.79622	
44.45606	3432.515		-51.7275	
44.51016	3429.506		-51.66259	
44.56427	3426.503		-51.60176	
44.61837	3423.505		-51.54522	
44.67248	3420.508		-51.49308	
44.72659	3417.518		-51.44538	
44.78069	3414.546		-51.40202	
44.8348	3411.6		-51.36275	
44.8889	3408.675		-51.3272	
44.94301	3405.771		-51.29486	
44.99711	3402.888		-51.26511	
45.05122	3400.028		-51.23725	
45.10532	3397.198		-51.21058	
45.15943	3394.396		-51.18438	
45.21354	3391.625		-51.15795	
45.26764	3388.894		-51.13065	
45.32175	3386.211		-51.10185	
45.37585	3383.576		-51.071	
45.42996	3380.983		-51.03758	
45.48406	3378.422		-51.00119	
45.53817	3375.881		-50.96156	
45.59227	3373.345		-50.91854	
45.64638	3370.798		-50.87218	
45.70049	3368.229		-50.82267	
45.75459	3365.627		-50.77033	
45.8087	3362.988		-50.71559	
45.8628	3360.319		-50.65893	
45.91691	3357.63		-50.6009	
45.97102	3354.931		-50.54207	
46.02512	3352.23		-50.48301	
46.07922	3349.539		-50.42428	
46.13333	3346.865		-50.36641	
46.18744	3344.21		-50.30989	
46.24154	3341.566		-50.25518	
46.29565	3338.925		-50.2027	
46.34975	3336.273		-50.15279	
46.40386	3333.605		-50.10574	
46.45797	3330.918		-50.06176	
46.51207	3328.211		-50.02108	
46.56618	3325.485		-49.98388	
46.62028	3322.736		-49.95029	
46.67439	3319.966		-49.92045	
46.72849	3317.182		-49.89442	
46.7826	3314.394		-49.87223	
46.8367	3311.611		-49.85384	
46.89081	3308.849		-49.83916	
46.94492	3306.118		-49.82806	
46.99902	3303.422		-49.82029	
47.05313	3300.756		-49.81558	
47.10723	3298.114		-49.81359	
47.16134	3295.485		-49.81394	
47.21544	3292.854		-49.81618	
47.26955	3290.216		-49.81985	
47.32365	3287.568		-49.82444	
47.37776	3284.909		-49.82941	
47.43187	3282.24		-49.83423	
47.48597	3279.573		-49.83839	
47.54008	3276.913		-49.84142	
47.59418	3274.261		-49.84295	
47.64829	3271.612		-49.84267	
47.70239	3268.949		-49.84042	
47.7565	3266.259		-49.83609	
47.8106	3263.539		-49.82965	
47.86471	3260.793		-49.82115	
47.91882	3258.028		-49.81067	
47.97292	3255.248		-49.79832	
48.02703	3252.462		-49.78419	
48.08113	3249.683		-49.76836	
48.13524	3246.919		-49.75089	
48.18934	3244.173		-49.73183	
48.24345	3241.441		-49.71118	
48.29755	3238.72		-49.68898	
48.35166	3236.007		-49.66523	
48.40577	3233.302		-49.63995	
48.45987	3230.601		-49.61318	
48.51398	3227.894		-49.58493	
48.56808	3225.18		-49.55518	
48.62219	3222.457		-49.52391	
48.67629	3219.73		-49.49106	
48.7304	3217.002		-49.45658	
48.7845	3214.274		-49.42043	
48.83861	3211.543		-49.38258	
48.89272	3208.813		-49.34307	
48.94682	3206.093		-49.30196	
49.00093	3203.39		-49.25936	
49.05503	3200.704		-49.21537	
49.10914	3198.038		-49.17011	
49.16325	3195.391		-49.12367	
49.21735	3192.767		-49.07611	
49.27145	3190.166		-49.0275	
49.32556	3187.574		-48.97787	
49.37967	3184.974		-48.92725	
49.43377	3182.35		-48.87566	
49.48788	3179.699		-48.82312	
49.54198	3177.031		-48.76968	
49.59609	3174.361		-48.71545	
49.6502	3171.703		-48.66056	
49.7043	3169.058		-48.60521	
49.75841	3166.43		-48.54961	
49.81251	3163.822		-48.49406	
49.86662	3161.229		-48.43883	
49.92072	3158.648		-48.38424	
49.97483	3156.074		-48.33055	
50.02893	3153.499		-48.27803	
50.08304	3150.916		-48.2269	
50.13715	3148.32		-48.17736	
50.19125	3145.704		-48.12952	
50.24536	3143.064		-48.08348	
50.29946	3140.407		-48.03928	
50.35357	3137.743		-47.99699	
50.40767	3135.09		-47.95668	
50.46178	3132.458		-47.91841	
50.51588	3129.86		-47.88226	
50.56999	3127.295		-47.84825	
50.6241	3124.761		-47.81638	
50.6782	3122.253		-47.78661	
50.73231	3119.764		-47.75888	
50.78641	3117.282		-47.73312	
50.84052	3114.794		-47.70921	
50.89462	3112.291		-47.68708	
50.94873	3109.772		-47.66663	
51.00283	3107.236		-47.64775	
51.05694	3104.682		-47.63028	
51.11105	3102.114		-47.61403	
51.16515	3099.541		-47.59877	
51.21926	3096.975		-47.58426	
51.27336	3094.425		-47.57023	
51.32747	3091.904		-47.55641	
51.38157	3089.413		-47.54254	
51.43568	3086.944		-47.52834	
51.48978	3084.487		-47.51353	
51.54389	3082.03		-47.49791	
51.598	3079.561		-47.48125	
51.6521	3077.065		-47.46338	
51.70621	3074.537		-47.44415	
51.76031	3071.975		-47.42344	
51.81442	3069.377		-47.40112	
51.86852	3066.749		-47.37708	
51.92263	3064.099		-47.35121	
51.97673	3061.446		-47.32338	
52.03084	3058.804		-47.29351	
52.08495	3056.178		-47.26152	
52.13905	3053.566		-47.22733	
52.19316	3050.97		-47.19084	
52.24726	3048.385		-47.15196	
52.30137	3045.804		-47.11062	
52.35548	3043.218		-47.06677	
52.40958	3040.62		-47.02043	
52.46368	3038.008		-46.97166	
52.51779	3035.386		-46.92054	
52.5719	3032.76		-46.86717	
52.626	3030.133		-46.81165	
52.68011	3027.513		-46.75411	
52.73421	3024.914		-46.69471	
52.78832	3022.339		-46.63367	
52.84243	3019.786		-46.57126	
52.89653	3017.241		-46.5078	
52.95064	3014.692		-46.44361	
53.00474	3012.126		-46.37901	
53.05885	3009.542		-46.31424	
53.11295	3006.952		-46.24955	
53.16706	3004.365		-46.1851	
53.22116	3001.784		-46.12103	
53.27527	2999.207		-46.05746	
53.32938	2996.633		-45.99452	
53.38348	2994.057		-45.93233	
53.43759	2991.478		-45.87102	
53.49169	2988.9		-45.81075	
53.5458	2986.336		-45.75171	
53.5999	2983.799		-45.69409	
53.65401	2981.3		-45.63811	
53.70811	2978.841		-45.58397	
53.76222	2976.42		-45.53186	
53.81633	2974.029		-45.48194	
53.87043	2971.658		-45.43433	
53.92454	2969.301		-45.38913	
53.97864	2966.958		-45.3464	
54.03275	2964.628		-45.30618	
54.08685	2962.303		-45.26854	
54.14096	2959.973		-45.23347	
54.19506	2957.638		-45.20101	
54.24917	2955.303		-45.17112	
54.30328	2952.979		-45.1438	
54.35738	2950.677		-45.11902	
54.41149	2948.405		-45.09673	
54.46559	2946.16		-45.07689	
54.5197	2943.93		-45.0594	
54.5738	2941.701		-45.04417	
54.62791	2939.458		-45.03105	
54.68201	2937.198		-45.01987	
54.73612	2934.921		-45.01048	
54.79023	2932.627		-45.00273	
54.84433	2930.319		-44.99649	
54.89844	2927.994		-44.99168	
54.95255	2925.639		-44.98819	
55.00665	2923.243		-44.98594	
55.06075	2920.801		-44.9848	
55.11486	2918.319		-44.98465	
55.16896	2915.816		-44.98534	
55.22307	2913.309		-44.98669	
55.27718	2910.81		-44.98854	
55.33128	2908.328		-44.99069	
55.38539	2905.86		-44.99295	
55.4395	2903.403		-44.99507	
55.4936	2900.952		-44.99677	
55.54771	2898.502		-44.99778	
55.60181	2896.054		-44.9978	
55.65591	2893.607		-44.99658	
55.71002	2891.157		-44.9939	
55.76413	2888.695		-44.98955	
55.81823	2886.208		-44.98333	
55.87234	2883.685		-44.97504	
55.92645	2881.119		-44.96449	
55.98055	2878.522		-44.95147	
56.03466	2875.907		-44.93582	
56.08876	2873.287		-44.9174	
56.14287	2870.671		-44.89613	
56.19697	2868.063		-44.87194	
56.25108	2865.467		-44.84481	
56.30518	2862.888		-44.81475	
56.35929	2860.33		-44.78181	
56.41339	2857.796		-44.74605	
56.4675	2855.288		-44.70755	
56.52161	2852.807		-44.66639	
56.57571	2850.346		-44.62268	
56.62982	2847.893		-44.57648	
56.68392	2845.44		-44.5279	
56.73803	2842.977		-44.47704	
56.79213	2840.503		-44.42407	
56.84624	2838.017		-44.36917	
56.90034	2835.522		-44.31253	
56.95445	2833.025		-44.25436	
57.00856	2830.535		-44.19486	
57.06266	2828.066		-44.13422	
57.11677	2825.628		-44.07264	
57.17087	2823.232		-44.01031	
57.22498	2820.884		-43.94746	
57.27908	2818.581		-43.88429	
57.33319	2816.318		-43.82098	
57.38729	2814.081		-43.75765	
57.4414	2811.856		-43.69434	
57.49551	2809.628		-43.63107	
57.54961	2807.383		-43.56783	
57.60372	2805.117		-43.50457	
57.65782	2802.833		-43.44134	
57.71193	2800.54		-43.3781	
57.76603	2798.253		-43.31487	
57.82014	2795.985		-43.25161	
57.87424	2793.742		-43.1883	
57.92835	2791.525		-43.12492	
57.98246	2789.331		-43.06149	
58.03656	2787.159		-42.99805	
58.09067	2785.001		-42.93475	
58.14477	2782.849		-42.87171	
58.19888	2780.694		-42.80911	
58.25298	2778.531		-42.74713	
58.30709	2776.348		-42.68593	
58.36119	2774.143		-42.62563	
58.4153	2771.91		-42.5663	
58.46941	2769.652		-42.50797	
58.52351	2767.368		-42.45065	
58.57762	2765.064		-42.39434	
58.63173	2762.745		-42.33904	
58.68583	2760.421		-42.28476	
58.73994	2758.099		-42.23157	
58.79404	2755.786		-42.17953	
58.84814	2753.478		-42.12872	
58.90225	2751.165		-42.07916	
58.95636	2748.84		-42.03087	
59.01046	2746.497		-41.98379	
59.06457	2744.135		-41.93785	
59.11868	2741.751		-41.89296	
59.17278	2739.345		-41.84896	
59.22689	2736.922		-41.80571	
59.28099	2734.489		-41.76298	
59.3351	2732.051		-41.72051	
59.3892	2729.618		-41.67799	
59.44331	2727.201		-41.63505	
59.49741	2724.818		-41.5913	
59.55152	2722.475		-41.54635	
59.60563	2720.17		-41.49982	
59.65973	2717.896		-41.45137	
59.71384	2715.644		-41.40068	
59.76794	2713.401		-41.34751	
59.82205	2711.159		-41.29162	
59.87615	2708.911		-41.23285	
59.93026	2706.66		-41.17105	
59.98436	2704.416		-41.10618	
60.03847	2702.185		-41.03823	
60.09258	2699.967		-40.96728	
60.14668	2697.766		-40.89347	
60.20079	2695.582		-40.81698	
60.25489	2693.415		-40.73803	
60.309	2691.261		-40.65681	
60.3631	2689.125		-40.57355	
60.41721	2687.003		-40.48843	
60.47131	2684.89		-40.40165	
60.52542	2682.775		-40.31339	
60.57952	2680.654		-40.22389	
60.63363	2678.519		-40.13338	
60.68774	2676.365		-40.04213	
60.74184	2674.194		-39.95042	
60.79595	2672.012		-39.85855	
60.85005	2669.825		-39.76678	
60.90416	2667.636		-39.67537	
60.95826	2665.45		-39.58457	
61.01237	2663.281		-39.49459	
61.06647	2661.137		-39.40568	
61.12058	2659.022		-39.31799	
61.17469	2656.932		-39.23171	
61.22879	2654.858		-39.14691	
61.2829	2652.785		-39.06362	
61.337	2650.701		-38.98179	
61.39111	2648.6		-38.90125	
61.44521	2646.487		-38.82176	
61.49932	2644.369		-38.74301	
61.55342	2642.255		-38.66467	
61.60753	2640.153		-38.58635	
61.66164	2638.075		-38.50768	
61.71574	2636.026		-38.42822	
61.76985	2634.004		-38.34758	
61.82396	2632.006		-38.26529	
61.87806	2630.025		-38.18092	
61.93217	2628.064		-38.094	
61.98627	2626.123		-38.00414	
62.04037	2624.192		-37.91093	
62.09448	2622.262		-37.814	
62.14859	2620.321		-37.71302	
62.20269	2618.359		-37.60764	
62.2568	2616.367		-37.49756	
62.31091	2614.339		-37.38249	
62.36501	2612.278		-37.26218	
62.41912	2610.193		-37.13635	
62.47322	2608.095		-37.00476	
62.52733	2605.994		-36.86718	
62.58143	2603.9		-36.72337	
62.63554	2601.819		-36.57307	
62.68964	2599.748		-36.41599	
62.74375	2597.687		-36.25187	
62.79786	2595.633		-36.08036	
62.85196	2593.579		-35.90116	
62.90607	2591.521		-35.71386	
62.96017	2589.458		-35.51811	
63.01428	2587.391		-35.31349	
63.06838	2585.321		-35.09962	
63.12249	2583.252		-34.87606	
63.17659	2581.186		-34.64236	
63.2307	2579.125		-34.39803	
63.28481	2577.068		-34.14247	
63.33891	2575.02		-33.87505	
63.39302	2572.995		-33.59503	
63.44712	2571.006		-33.30166	
63.50123	2569.059		-32.9941	
63.55533	2567.153		-32.67156	
63.60944	2565.281		-32.33313	
63.66354	2563.433		-31.97792	
63.71765	2561.604		-31.60493	
63.77176	2559.797		-31.21319	
63.82586	2558.01		-30.80164	
63.87997	2556.239		-30.3693	
63.93407	2554.484		-29.91517	
63.98818	2552.746		-29.43834	
64.04228	2551.025		-28.93797	
64.09639	2549.326		-28.41319	
64.1505	2547.651		-27.86327	
64.2046	2546.002		-27.28764	
64.25871	2544.38		-26.68548	
64.31281	2542.783		-26.05631	
64.36692	2541.213		-25.39963	
64.42102	2539.672		-24.71511	
64.47513	2538.158		-24.00212	
64.52924	2536.674		-23.26041	
64.58334	2535.221		-22.4897	
64.63744	2533.805		-21.68939	
64.69155	2532.428		-20.85917	
64.74566	2531.085		-19.99858	
64.79976	2529.772		-19.10734	
64.85387	2528.479		-18.18463	
64.90797	2527.207		-17.23006	
64.96208	2525.969		-16.24304	
65.01618	2524.775		-15.22313	
65.07029	2523.628		-14.1693	
65.1244	2522.535		-13.08092	
65.1785	2521.5		-11.95728	
65.2326	2520.518		-10.79713	
65.28671	2519.58		-9.599598	
65.34082	2518.679		-8.36357	
65.39492	2517.82		-7.08814	
65.44903	2517.01		-5.771686	
65.50314	2516.261		-4.413135	
65.55724	2515.585		-3.011139	
65.61134	2514.985		-1.564571	
65.66545	2514.464		-0.07147918	
65.71956	2514.03		1.469465	
65.77366	2513.689		3.059631	
65.82777	2513.454		4.701087	
65.88187	2513.338		6.39522	
65.93598	2513.348		8.143616	
65.99008	2513.478		9.947438	
66.04419	2513.723		11.80872	
66.0983	2514.08		13.72856	
66.1524	2514.545		15.70831	
66.2065	2515.112		17.74887	
66.26061	2515.778		19.85206	
66.31472	2516.542		22.01869	
66.36883	2517.406		24.24984	
66.42293	2518.37		26.54607	
66.47704	2519.43		28.90909	
66.53114	2520.585		31.33953	
66.58524	2521.841		33.83791	
66.63935	2523.205		36.40599	
66.69346	2524.686		39.04444	
66.74757	2526.287		41.75427	
66.80167	2528.007		44.5362	
66.85577	2529.842		47.39215	
66.90988	2531.792		50.32294	
66.96399	2533.86		53.32984	
67.01809	2536.052		56.41378	
67.0722	2538.372		59.57708	
67.1263	2540.834		62.82085	
67.1804	2543.449		66.14622	
67.23451	2546.223		69.55579	
67.28862	2549.169		73.05083	
67.34273	2552.298		76.63313	
67.39683	2555.621		80.30405	
67.45094	2559.15		84.06655	
67.50504	2562.897		87.92207	
67.55915	2566.874		91.87254	
67.61325	2571.094		95.91933	
67.66736	2575.564		100.0655	
67.72147	2580.278		104.3122	
67.77557	2585.23		108.6607	
67.82967	2590.425		113.1138	
67.88378	2595.87		117.6725	
67.93789	2601.576		122.3381	
67.99199	2607.549		127.1111	
68.0461	2613.798		131.9938	
68.1002	2620.323		136.9862	
68.15431	2627.121		142.089	
68.20841	2634.187		147.3015	
68.26252	2641.522		152.6251	
68.31663	2649.124		158.0587	
68.37073	2656.992		163.601	
68.42484	2665.128		169.2525	
68.47894	2673.532		175.0112	
68.53305	2682.204		180.8759	
68.58715	2691.143		186.8439	
68.64126	2700.352		192.9153	
68.69537	2709.839		199.0874	
68.74947	2719.611		205.3582	
68.80357	2729.687		211.7248	
68.85768	2740.094		218.1869	
68.91179	2750.849		224.7416	
68.96589	2761.966		231.386	
69.02	2773.456		238.1199	
69.0741	2785.333		244.9406	
69.12821	2797.613		251.8462	
69.18231	2810.307		258.8342	
69.23642	2823.427		265.9047	
69.29053	2836.979		273.0552	
69.34464	2850.975		280.2841	
69.39874	2865.422		287.5886	
69.45284	2880.331		294.9691	
69.50695	2895.706		302.4224	
69.56106	2911.56		309.9463	
69.61516	2927.907		317.537	
69.66927	2944.771		325.1935	
69.72337	2962.159		332.9114	
69.77747	2980.079		340.6855	
69.83158	2998.539		348.5135	
69.88569	3017.539		356.3891	
69.9398	3037.079		364.3065	
69.9939	3057.152		372.2577	
70.048	3077.748		380.2375	
70.10211	3098.845		388.2365	
70.15622	3120.423		396.2451	
70.21032	3142.458		404.2517	
70.26443	3164.949		412.2473	
70.31853	3187.887		420.2182	
70.37263	3211.274		428.1496	
70.42674	3235.122		436.0291	
70.48085	3259.431		443.8401	
70.53496	3284.198		451.566	
70.58906	3309.416		459.1884	
70.64317	3335.087		466.6914	
70.69727	3361.197		474.0554	
70.75138	3387.737		481.2612	
70.80548	3414.699		488.2887	
70.85959	3442.083		495.1204	
70.9137	3469.877		501.736	
70.9678	3498.066		508.1155	
71.0219	3526.657		514.2419	
71.07601	3555.657		520.0963	
71.13012	3585.091		525.6611	
71.18422	3614.978		530.919	
71.23833	3645.349		535.8556	
71.29243	3676.215		540.4552	
71.34654	3707.591		544.7042	
71.40064	3739.487		548.5894	
71.45475	3771.927		552.1003	
71.50886	3804.922		555.2263	
71.56296	3838.48		557.9581	
71.61707	3872.616		560.2886	
71.67117	3907.313		562.2112	
71.72528	3942.548		563.7207	
71.77938	3978.278		564.8132	
71.83349	4014.476		565.4866	
71.8876	4051.098		565.7394	
71.9417	4088.104		565.5715	
71.9958	4125.439		564.9839	
72.04991	4163.061		563.9786	
72.10402	4200.904		562.5584	
72.15812	4238.897		560.7277	
72.21223	4276.979		558.4903	
72.26633	4315.074		555.852	
72.32044	4353.117		552.8187	
72.37454	4391.032		549.3975	
72.42865	4428.753		545.5945	
72.48276	4466.191		541.4177	
72.53687	4503.252		536.8751	
72.59097	4539.837		531.9758	
72.64507	4575.86		526.7272	
72.69918	4611.234		521.1394	
72.75328	4645.867		515.2227	
72.80739	4679.691		508.9857	
72.8615	4712.628		502.4397	
72.9156	4744.621		495.5955	
72.9697	4775.617		488.4656	
73.02381	4805.593		481.0598	
73.07792	4834.527		473.3918	
73.13203	4862.411		465.4745	
73.18613	4889.25		457.3226	
73.24023	4915.07		448.948	
73.29434	4939.895		440.3668	
73.34845	4963.744		431.5943	
73.40255	4986.635		422.648	
73.45666	5008.594		413.5423	
73.51077	5029.639		404.2958	
73.56487	5049.784		394.9278	
73.61897	5069.046		385.4543	
73.67308	5087.426		375.8953	
73.72719	5104.936		366.2701	
73.78129	5121.589		356.5994	
73.8354	5137.428		346.9003	
73.8895	5152.505		337.1936	
73.94361	5166.883		327.4991	
73.99771	5180.618		317.8374	
74.05182	5193.763		308.225	
74.10593	5206.348		298.6818	
74.16003	5218.401		289.2274	
74.21413	5229.951		279.8763	
74.26824	5241.023		270.6467	
74.32235	5251.642		261.5544	
74.37645	5261.831		252.6156	
74.43056	5271.61		243.8416	
74.48466	5280.984		235.2467	
74.53877	5289.945		226.8427	
74.59287	5298.492		218.6416	
74.64698	5306.63		210.6505	
74.70109	5314.379		202.879	
74.75519	5321.767		195.3354	
74.8093	5328.826		188.0232	
74.8634	5335.587		180.9479	
74.91751	5342.082		174.1127	
74.97161	5348.345		167.5205	
75.02572	5354.418		161.1699	
75.07983	5360.338		155.0614	
75.13393	5366.127		149.1932	
75.18803	5371.796		143.5633	
75.24214	5377.355		138.1666	
75.29625	5382.801		132.9991	
75.35035	5388.119		128.0565	
75.40446	5393.288		123.3314	
75.45856	5398.287		118.8184	
75.51267	5403.117		114.5107	
75.56677	5407.789		110.4019	
75.62088	5412.319		106.4835	
75.67499	5416.717		102.7487	
75.7291	5420.986		99.18974	
75.7832	5425.127		95.79946	
75.8373	5429.155		92.56915	
75.89141	5433.086		89.49158	
75.94551	5436.946		86.5595	
75.99962	5440.748		83.76453	
76.05373	5444.496		81.09963	
76.10783	5448.179		78.55749	
76.16193	5451.779		76.1313	
76.21604	5455.269		73.81349	
76.27015	5458.624		71.59777	
76.32426	5461.828		69.4778	
76.37836	5464.879		67.44782	
76.43246	5467.789		65.50151	
76.48657	5470.577		63.63369	
76.54068	5473.273		61.83921	
76.59478	5475.894		60.11348	
76.64889	5478.45		58.45152	
76.703	5480.952		56.84943	
76.7571	5483.405		55.30353	
76.8112	5485.819		53.80979	
76.86531	5488.202		52.3651	
76.91942	5490.555		50.96638	
76.97352	5492.874		49.611	
77.02763	5495.155		48.29596	
77.08173	5497.393		47.01906	
77.13584	5499.584		45.77806	
77.18994	5501.733		44.57106	
77.24405	5503.853		43.39574	
77.29816	5505.958		42.25047	
77.35226	5508.061		41.13367	
77.40636	5510.159		40.04343	
77.46047	5512.247		38.97849	
77.51458	5514.329		37.93749	
77.56868	5516.4		36.91936	
77.62279	5518.448		35.92265	
77.6769	5520.45		34.94648	
77.731	5522.385		33.98988	
77.7851	5524.233		33.05209	
77.83921	5525.99		32.13204	
77.89332	5527.654		31.22918	
77.94742	5529.235		30.34303	
78.00153	5530.749		29.47288	
78.05563	5532.214		28.61854	
78.10974	5533.645		27.77976	
78.16384	5535.046		26.95656	
78.21795	5536.417		26.14874	
78.27206	5537.748		25.35654	
78.32616	5539.016		24.5802	
78.38026	5540.207		23.8201	
78.43437	5541.313		23.07635	
78.48848	5542.336		22.34939	
78.54258	5543.288		21.63972	
78.59669	5544.185		20.94757	
78.65079	5545.04		20.27354	
78.7049	5545.865		19.61818	
78.759	5546.671		18.98216	
78.81311	5547.477		18.36599	
78.86722	5548.296		17.77047	
78.92133	5549.142		17.19643	
78.97543	5550.013		16.64485	
79.02953	5550.9		16.1166	
79.08364	5551.789		15.61281	
79.13774	5552.659		15.13466	
79.19185	5553.491		14.68317	
79.24596	5554.265		14.25951	
79.30006	5554.965		13.86471	
79.35416	5555.579		13.49978	
79.40827	5556.103		13.1654	
79.46238	5556.543		12.86223	
79.51649	5556.914		12.59066	
79.57059	5557.229		12.35084	
79.62469	5557.496		12.14262	
79.6788	5557.722		11.96574	
79.73291	5557.904		11.81969	
79.78701	5558.04		11.70383	
79.84112	5558.123		11.61732	
79.89523	5558.161		11.5593	
79.94933	5558.165		11.52885	
80.00343	5558.151		11.52497	
80.05754	5558.127		11.54662	
80.11165	5558.102		11.59273	
80.16575	5558.084		11.66219	
80.21986	5558.091		11.75396	
80.27396	5558.126		11.86695	
80.32807	5558.192		12.00011	
80.38217	5558.285		12.15235	
80.43628	5558.413		12.32265	
80.49039	5558.581		12.50992	
80.54449	5558.801		12.71306	
80.59859	5559.076		12.93107	
80.6527	5559.41		13.16294	
80.70681	5559.794		13.40777	
80.76091	5560.233		13.66475	
80.81502	5560.728		13.93325	
80.86913	5561.289		14.21269	
80.92323	5561.923		14.50257	
80.97733	5562.631		14.80242	
81.03144	5563.407		15.11189	
81.08555	5564.25		15.43056	
81.13965	5565.15		15.75798	
81.19376	5566.104		16.09387	
81.24786	5567.105		16.43774	
81.30197	5568.151		16.78905	
81.35607	5569.245		17.14708	
81.41018	5570.396		17.51108	
81.46429	5571.616		17.87998	
81.51839	5572.919		18.25262	
81.57249	5574.313		18.62757	
81.6266	5575.795		19.00342	
81.68071	5577.371		19.37845	
81.73481	5579.027		19.75079	
81.78892	5580.74		20.1186	
81.84303	5582.473		20.4798	
81.89713	5584.193		20.83224	
81.95123	5585.876		21.17364	
82.00534	5587.507		21.50176	
82.05945	5589.07		21.81419	
82.11356	5590.563		22.10859	
82.16766	5591.996		22.38266	
82.22176	5593.392		22.63428	
82.27587	5594.771		22.8613	
82.32997	5596.156		23.06168	
82.38408	5597.551		23.23349	
82.43819	5598.965		23.37482	
82.49229	5600.388		23.4838	
82.54639	5601.81		23.55867	
82.6005	5603.212		23.59777	
82.65461	5604.586		23.59963	
82.70872	5605.909		23.56293	
82.76282	5607.175		23.48658	
82.81693	5608.375		23.36955	
82.87103	5609.52		23.21097	
82.92513	5610.625		23.01007	
82.97924	5611.715		22.76611	
83.03335	5612.814		22.47851	
83.08746	5613.954		22.14678	
83.14156	5615.154		21.7706	
83.19566	5616.453		21.3496	
83.24977	5617.864		20.88365	
83.30388	5619.396		20.37265	
83.35798	5621.034		19.81665	
83.41209	5622.756		19.21553	
83.46619	5624.53		18.56944	
83.5203	5626.328		17.87857	
83.5744	5628.105		17.14329	
83.62851	5629.836		16.36382	
83.68262	5631.494		15.54078	
83.73672	5633.065		14.67493	
83.79082	5634.539		13.76667	
83.84493	5635.916		12.81681	
83.89904	5637.198		11.826	
83.95314	5638.409		10.79508	
84.00725	5639.56		9.724442	
84.06136	5640.665		8.614959	
84.11546	5641.718		7.467436	
84.16956	5642.721		6.282934	
84.22367	5643.661		5.062078	
84.27778	5644.532		3.806076	
84.33188	5645.306		2.516244	
84.38599	5645.977		1.193465	
84.44009	5646.528		-0.1607518	
84.4942	5646.954		-1.544995	
84.5483	5647.243		-2.957567	
84.60241	5647.398		-4.397262	
84.65652	5647.427		-5.862179	
84.71062	5647.349		-7.350536	
84.76472	5647.175		-8.860323	
84.81883	5646.928		-10.39016	
84.87294	5646.621		-11.93801	
84.92704	5646.267		-13.50182	
84.98115	5645.866		-15.08012	
85.03526	5645.412		-16.67074	
85.08936	5644.875		-18.27168	
85.14346	5644.224		-19.8806	
85.19757	5643.434		-21.49575	
85.25168	5642.482		-23.11466	
85.30579	5641.346		-24.73508	
85.35989	5639.998		-26.35455	
85.41399	5638.407		-27.97133	
85.4681	5636.567		-29.58304	
85.5222	5634.487		-31.18734	
85.57631	5632.196		-32.78257	
85.63042	5629.725		-34.36649	
85.68452	5627.106		-35.93719	
85.73862	5624.374		-37.49272	
85.79273	5621.551		-39.03198	
85.84684	5618.643		-40.55341	
85.90095	5615.644		-42.05582	
85.95505	5612.556		-43.53798	
86.00916	5609.371		-44.99938	
86.06326	5606.09		-46.439	
86.11736	5602.72		-47.85592	
86.17147	5599.276		-49.24995	
86.22558	5595.775		-50.62037	
86.27969	5592.237		-51.96671	
86.33379	5588.668		-53.28835	
86.38789	5585.082		-54.58526	
86.442	5581.486		-55.85693	
86.49611	5577.894		-57.10307	
86.55021	5574.302		-58.32333	
86.60432	5570.711		-59.5179	
86.65842	5567.116		-60.68648	
86.71253	5563.508		-61.82899	
86.76663	5559.873		-62.94523	
86.82074	5556.203		-64.03551	
86.87485	5552.486		-65.09964	
86.92895	5548.723		-66.13742	
86.98306	5544.899		-67.14909	
87.03716	5541.008		-68.13444	
87.09127	5537.035		-69.09338	
87.14537	5532.992		-70.0257	
87.19948	5528.896		-70.93167	
87.25359	5524.786		-71.8112	
87.30769	5520.683		-72.66443	
87.36179	5516.602		-73.49145	
87.4159	5512.54		-74.29281	
87.47001	5508.499		-75.06882	
87.52411	5504.47		-75.81992	
87.57822	5500.438		-76.54707	
87.63232	5496.383		-77.25101	
87.68643	5492.319		-77.93274	
87.74053	5488.25		-78.59326	
87.79464	5484.192		-79.23396	
87.84875	5480.141		-79.856	
87.90285	5476.094		-80.46058	
87.95695	5472.023		-81.04886	
88.01106	5467.909		-81.62218	
88.06517	5463.733		-82.18167	
88.11927	5459.491		-82.72843	
88.17338	5455.167		-83.26382	
88.22749	5450.762		-83.78892	
88.28159	5446.271		-84.30486	
88.33569	5441.693		-84.8126	
88.3898	5437.012		-85.31324	
88.44391	5432.23		-85.80753	
88.49802	5427.354		-86.29628	
88.55212	5422.409		-86.78011	
88.60622	5417.402		-87.25983	
88.66033	5412.342		-87.73594	
88.71443	5407.226		-88.20889	
88.76854	5402.053		-88.67919	
88.82265	5396.824		-89.14704	
88.87675	5391.555		-89.61249	
88.93085	5386.252		-90.07531	
88.98496	5380.919		-90.53528	
89.03907	5375.55		-90.99181	
89.09318	5370.149		-91.44422	
89.14728	5364.724		-91.89169	
89.20139	5359.299		-92.33346	
89.25549	5353.896		-92.76852	
89.30959	5348.533		-93.19584	
89.3637	5343.216		-93.61455	
89.41781	5337.964		-94.02369	
89.47192	5332.79		-94.42244	
89.52602	5327.692		-94.81007	
89.58012	5322.65		-95.18605	
89.63423	5317.651		-95.54983	
89.68834	5312.673		-95.90099	
89.74244	5307.696		-96.23917	
89.79655	5302.703		-96.56428	
89.85065	5297.68		-96.87609	
89.90476	5292.613		-97.17454	
89.95886	5287.49		-97.45959	
90.01297	5282.305		-97.73151	
90.06708	5277.057		-97.99059	
90.12118	5271.752		-98.23736	
90.17529	5266.399		-98.4726	
90.22939	5261.02		-98.6972	
90.2835	5255.637		-98.9122	
90.3376	5250.266		-99.11874	
90.39171	5244.902		-99.31812	
90.44582	5239.54		-99.51159	
90.49992	5234.162		-99.70049	
90.55402	5228.757		-99.88614	
90.60813	5223.305		-100.07	
90.66224	5217.793		-100.2536	
90.71634	5212.206		-100.4381	
90.77045	5206.54		-100.6251	
90.82455	5200.805		-100.8157	
90.87866	5195.035		-101.011	
90.93276	5189.259		-101.2119	
90.98687	5183.506		-101.4192	
91.04098	5177.781		-101.6333	
91.09509	5172.092		-101.8548	
91.14919	5166.436		-102.0838	
91.20329	5160.814		-102.3202	
91.2574	5155.22		-102.5639	
91.3115	5149.652		-102.8145	
91.36561	5144.096		-103.0715	
91.41972	5138.56		-103.3344	
91.47382	5133.044		-103.6026	
91.52792	5127.559		-103.8754	
91.58203	5122.094		-104.1521	
91.63614	5116.648		-104.4318	
91.69025	5111.208		-104.7138	
91.74435	5105.771		-104.997	
91.79845	5100.332		-105.2808	
91.85256	5094.896		-105.5645	
91.90666	5089.458		-105.8473	
91.96077	5084.017		-106.1288	
92.01488	5078.557		-106.4084	
92.06898	5073.074		-106.6858	
92.12309	5067.555		-106.9607	
92.17719	5061.99		-107.233	
92.2313	5056.369		-107.5026	
92.28541	5050.695		-107.7694	
92.33951	5044.978		-108.0335	
92.39362	5039.239		-108.2951	
92.44772	5033.484		-108.5653	
92.50182	5027.724		-108.8255	
92.55593	5021.949		-109.0778	
92.61004	5016.154		-109.3244	
92.66415	5010.318		-109.5673	
92.71825	5004.424		-109.808	
92.77235	4998.44		-110.0475	
92.82646	4992.354		-110.2865	
92.88057	4986.153		-110.5257	
92.93467	4979.855		-110.7652	
92.98878	4973.475		-111.0053	
93.04288	4967.053		-111.2462	
93.09698	4960.616		-111.4879	
93.15109	4954.192		-111.7305	
93.2052	4947.793		-111.974	
93.25931	4941.439		-112.2182	
93.31341	4935.126		-112.4633	
93.36752	4928.854		-112.7091	
93.42162	4922.608		-112.9555	
93.47573	4916.396		-113.2025	
93.52983	4910.194		-113.45	
93.58394	4903.991		-113.698	
93.63805	4897.776		-113.9463	
93.69215	4891.544		-114.1949	
93.74625	4885.293		-114.4436	
93.80036	4879.03		-114.6924	
93.85447	4872.745		-114.9413	
93.90857	4866.432		-115.1901	
93.96268	4860.07		-115.4387	
94.01678	4853.658		-115.6872	
94.07089	4847.212		-115.9353	
94.12499	4840.671		-116.183	
94.1791	4834.253		-116.4302	
94.23321	4827.927		-116.6769	
94.28732	4821.658		-116.9229	
94.34142	4815.421		-117.1681	
94.39552	4809.2		-117.4125	
94.44963	4802.985		-117.6561	
94.50373	4796.77		-117.8987	
94.55784	4790.548		-118.1403	
94.61195	4784.318		-118.3809	
94.66605	4778.076		-118.6204	
94.72015	4771.823		-118.8588	
94.77426	4765.556		-119.0961	
94.82837	4759.276		-119.3322	
94.88248	4752.987		-119.5672	
94.93658	4746.695		-119.801	
94.99068	4740.403		-120.0336	
