T[Â°C]	330nm [counts / mm]	S.D.	First derivative	S.D. of first derivative
19.99978	7998.853		-116.6621	
20.05377	7992.143		-116.4935	
20.10776	7985.434		-116.3265	
20.16174	7978.724		-116.1614	
20.21573	7972.015		-115.998	
20.26972	7965.308		-115.8365	
20.32371	7958.604		-115.677	
20.37769	7951.905		-115.5195	
20.43168	7945.213		-115.3639	
20.48567	7938.531		-115.2105	
20.53965	7931.86		-115.0592	
20.59364	7925.202		-114.91	
20.64763	7918.558		-114.763	
20.70162	7911.929		-114.6182	
20.7556	7905.315		-114.4756	
20.80959	7898.715		-114.3352	
20.86358	7892.125		-114.197	
20.91757	7885.54		-114.061	
20.97155	7878.945		-113.9271	
21.02554	7872.613		-113.7954	
21.07953	7866.312		-113.6658	
21.13352	7860.046		-113.5381	
21.1875	7853.824		-113.4125	
21.24149	7847.649		-113.2886	
21.29548	7841.519		-113.1665	
21.34946	7835.434		-113.0461	
21.40345	7829.387		-112.9272	
21.45744	7823.377		-112.8096	
21.51143	7817.415		-112.6931	
21.56541	7811.511		-112.5777	
21.6194	7805.675		-112.463	
21.67339	7799.921		-112.3488	
21.72738	7794.253		-112.235	
21.78136	7788.669		-112.1211	
21.83535	7783.157		-112.007	
21.88934	7777.696		-111.8924	
21.94333	7772.266		-111.7769	
21.99731	7766.843		-111.6602	
22.0513	7761.409		-111.5421	
22.10529	7755.95		-111.4221	
22.15928	7750.458		-111.3001	
22.21326	7744.917		-111.1758	
22.26725	7739.317		-111.049	
22.32124	7733.651		-110.9197	
22.37523	7727.91		-110.7885	
22.42921	7722.098		-110.6563	
22.4832	7716.229		-110.5249	
22.53719	7710.331		-110.397	
22.59118	7704.422		-110.2762	
22.64516	7698.514		-110.2071	
22.69915	7692.613		-110.1405	
22.75314	7686.714		-110.0766	
22.80713	7680.803		-110.0155	
22.86111	7674.865		-109.9572	
22.9151	7668.878		-109.9019	
22.96909	7662.815		-109.8494	
23.02307	7656.657		-109.7996	
23.07706	7650.403		-109.7523	
23.13105	7644.073		-109.7071	
23.18504	7637.688		-109.6633	
23.23902	7631.27		-109.6204	
23.29301	7624.841		-109.5774	
23.347	7618.421		-109.5333	
23.40099	7612.036		-109.4871	
23.45497	7605.712		-109.4376	
23.50896	7599.471		-109.3839	
23.56295	7593.316		-109.3248	
23.61694	7587.246		-109.2595	
23.67092	7581.258		-109.1871	
23.72491	7575.352		-109.1068	
23.7789	7569.523		-109.0182	
23.83288	7563.757		-108.9208	
23.88687	7558.027		-108.8144	
23.94086	7552.302		-108.6989	
23.99485	7546.546		-108.5744	
24.04883	7540.735		-108.4412	
24.10282	7534.85		-108.3	
24.15681	7528.892		-108.1514	
24.2108	7522.873		-107.9962	
24.26478	7516.818		-107.8354	
24.31877	7510.75		-107.6701	
24.37276	7504.688		-107.5014	
24.42675	7498.65		-107.3305	
24.48073	7492.642		-107.1585	
24.53472	7486.673		-106.9866	
24.58871	7480.753		-106.8161	
24.64269	7474.886		-106.6479	
24.69668	7469.076		-106.4833	
24.75067	7463.322		-106.3229	
24.80466	7457.612		-106.1678	
24.85864	7451.932		-106.0184	
24.91263	7446.26		-105.8753	
24.96662	7440.585		-105.7391	
25.02061	7434.904		-105.6101	
25.07459	7429.222		-105.4886	
25.12858	7423.552		-105.3748	
25.18257	7417.914		-105.2689	
25.23656	7412.318		-105.171	
25.29054	7406.772		-105.081	
25.34453	7401.286		-104.9988	
25.39852	7395.869		-104.924	
25.45251	7390.521		-104.8562	
25.50649	7385.237		-104.7948	
25.56048	7380.004		-104.7391	
25.61447	7374.81		-104.6884	
25.66846	7369.637		-104.6421	
25.72244	7364.471		-104.5993	
25.77643	7359.303		-104.5592	
25.83042	7354.125		-104.5212	
25.88441	7348.94		-104.4845	
25.93839	7343.742		-104.4486	
25.99238	7338.521		-104.4131	
26.04637	7333.26		-104.3778	
26.10036	7327.95		-104.3423	
26.15434	7322.585		-104.3067	
26.20833	7317.168		-104.2712	
26.26232	7311.694		-104.2361	
26.3163	7306.156		-104.2015	
26.37029	7300.551		-104.168	
26.42428	7294.879		-104.1357	
26.47827	7289.141		-104.105	
26.53225	7283.343		-104.0762	
26.58624	7277.494		-104.0493	
26.64023	7271.608		-104.0245	
26.69422	7265.709		-104.0017	
26.7482	7259.806		-103.9808	
26.80219	7253.902		-103.9616	
26.85618	7247.99		-103.9438	
26.91017	7242.066		-103.9271	
26.96415	7236.122		-103.9113	
27.01814	7230.14		-103.8961	
27.07213	7224.111		-103.8813	
27.12611	7218.038		-103.8668	
27.1801	7211.927		-103.8526	
27.23409	7205.8		-103.8385	
27.28808	7199.69		-103.8244	
27.34206	7193.636		-103.8102	
27.39605	7187.661		-103.7954	
27.45004	7181.774		-103.7799	
27.50403	7175.985		-103.763	
27.55801	7170.302		-103.7441	
27.612	7164.714		-103.7228	
27.66599	7159.197		-103.6982	
27.71998	7153.719		-103.6697	
27.77396	7148.25		-103.6365	
27.82795	7142.767		-103.5978	
27.88194	7137.272		-103.5529	
27.93592	7131.775		-103.5013	
27.98991	7126.282		-103.4425	
28.0439	7120.793		-103.3761	
28.09789	7115.301		-103.3021	
28.15187	7109.813		-103.2205	
28.20586	7104.342		-103.1317	
28.25985	7098.9		-103.0362	
28.31384	7093.489		-102.9346	
28.36782	7088.106		-102.8278	
28.42181	7082.75		-102.7165	
28.4758	7077.419		-102.6014	
28.52979	7072.103		-102.4833	
28.58377	7066.79		-102.3627	
28.63776	7061.472		-102.2401	
28.69175	7056.138		-102.1162	
28.74574	7050.767		-101.9911	
28.79972	7045.345		-101.8655	
28.85371	7039.881		-101.7397	
28.9077	7034.4		-101.614	
28.96169	7028.923		-101.4891	
29.01567	7023.471		-101.3657	
29.06966	7018.058		-101.2445	
29.12365	7012.687		-101.1263	
29.17764	7007.354		-101.0121	
29.23162	7002.053		-100.9028	
29.28561	6996.773		-100.7993	
29.3396	6991.498		-100.7024	
29.39359	6986.201		-100.6129	
29.44757	6980.864		-100.5313	
29.50156	6975.469		-100.4582	
29.55555	6970.009		-100.3936	
29.60953	6964.487		-100.3376	
29.66352	6958.915		-100.29	
29.71751	6953.298		-100.2504	
29.7715	6947.645		-100.2183	
29.82548	6941.963		-100.193	
29.87947	6936.268		-100.1738	
29.93346	6930.581		-100.1598	
29.98745	6924.928		-100.1501	
30.04143	6919.325		-100.1439	
30.09542	6913.781		-100.1404	
30.14941	6908.295		-100.1388	
30.2034	6902.866		-100.1384	
30.25738	6897.484		-100.1386	
30.31137	6892.128		-100.1388	
30.36536	6886.775		-100.1384	
30.41934	6881.413		-100.1369	
30.47333	6876.035		-100.1338	
30.52732	6870.636		-100.1286	
30.58131	6865.224		-100.1207	
30.63529	6859.82		-100.1096	
30.68928	6854.452		-100.0949	
30.74327	6849.133		-100.0761	
30.79726	6843.866		-100.0527	
30.85124	6838.652		-100.0244	
30.90523	6833.491		-99.99078	
30.95922	6828.383		-99.95176	
31.01321	6823.322		-99.90726	
31.06719	6818.29		-99.85739	
31.12118	6813.261		-99.80244	
31.17517	6808.208		-99.7428	
31.22916	6803.103		-99.67894	
31.28314	6797.927		-99.61143	
31.33713	6792.673		-99.54086	
31.39112	6787.344		-99.46795	
31.4451	6781.941		-99.39341	
31.49909	6776.458		-99.31794	
31.55308	6770.889		-99.24219	
31.60707	6765.239		-99.16667	
31.66105	6759.52		-99.09187	
31.71504	6753.76		-99.01817	
31.76903	6747.998		-98.94584	
31.82302	6742.255		-98.87509	
31.877	6736.544		-98.80604	
31.93099	6730.878		-98.73866	
31.98498	6725.261		-98.67287	
32.03897	6719.7		-98.60851	
32.09295	6714.202		-98.54535	
32.14694	6708.767		-98.48317	
32.20093	6703.395		-98.42174	
32.25492	6698.073		-98.36079	
32.3089	6692.786		-98.3001	
32.36289	6687.518		-98.23946	
32.41688	6682.263		-98.17872	
32.47087	6677.015		-98.11782	
32.52485	6671.766		-98.05679	
32.57884	6666.511		-97.99567	
32.63283	6661.251		-97.93452	
32.68681	6656.001		-97.87344	
32.7408	6650.765		-97.81253	
32.79479	6645.548		-97.7519	
32.84878	6640.354		-97.69164	
32.90276	6635.188		-97.63187	
32.95675	6630.062		-97.57269	
33.01074	6624.979		-97.5142	
33.06473	6619.932		-97.4565	
33.11871	6614.906		-97.39971	
33.1727	6609.879		-97.34393	
33.22669	6604.83		-97.28928	
33.28068	6599.736		-97.23583	
33.33466	6594.586		-97.1837	
33.38865	6589.377		-97.13302	
33.44264	6584.118		-97.08397	
33.49662	6578.819		-97.03683	
33.55061	6573.489		-96.99184	
33.6046	6568.136		-96.94927	
33.65859	6562.769		-96.90927	
33.71257	6557.407		-96.8719	
33.76656	6552.071		-96.8371	
33.82055	6546.781		-96.80463	
33.87454	6541.555		-96.77409	
33.92852	6536.396		-96.74493	
33.98251	6531.295		-96.71638	
34.0365	6526.235		-96.68754	
34.09049	6521.202		-96.65738	
34.14447	6516.186		-96.62486	
34.19846	6511.169		-96.589	
34.25245	6506.136		-96.54884	
34.30643	6501.072		-96.50359	
34.36042	6495.973		-96.45255	
34.41441	6490.84		-96.39525	
34.4684	6485.678		-96.33144	
34.52238	6480.501		-96.26112	
34.57637	6475.321		-96.18455	
34.63036	6470.153		-96.10218	
34.68435	6465.001		-96.01463	
34.73833	6459.86		-95.92265	
34.79232	6454.719		-95.82705	
34.84631	6449.57		-95.72871	
34.9003	6444.409		-95.62849	
34.95428	6439.232		-95.52728	
35.00827	6434.025		-95.42588	
35.06226	6428.767		-95.32502	
35.11625	6423.442		-95.22533	
35.17023	6418.051		-95.12733	
35.22422	6412.599		-95.03152	
35.27821	6407.097		-94.9383	
35.3322	6401.551		-94.84805	
35.38618	6395.973		-94.76115	
35.44017	6390.385		-94.67802	
35.49416	6384.808		-94.59904	
35.54815	6379.26		-94.52465	
35.60213	6373.761		-94.4552	
35.65612	6368.321		-94.39098	
35.71011	6362.944		-94.33215	
35.7641	6357.633		-94.27873	
35.81808	6352.387		-94.23053	
35.87207	6347.207		-94.18718	
35.92606	6342.087		-94.14809	
35.98005	6337.016		-94.11247	
36.03403	6331.982		-94.07938	
36.08802	6326.982		-94.04778	
36.14201	6322.018		-94.01659	
36.196	6317.091		-93.9847	
36.24998	6312.218		-93.95116	
36.30397	6307.419		-93.91508	
36.35796	6302.713		-93.87578	
36.41195	6298.101		-93.83273	
36.46593	6293.576		-93.78564	
36.51992	6289.132		-93.7344	
36.57391	6284.749		-93.67912	
36.6279	6280.395		-93.62015	
36.68188	6276.034		-93.55798	
36.73587	6271.632		-93.49328	
36.78986	6267.162		-93.4268	
36.84384	6262.604		-93.35943	
36.89783	6257.955		-93.29208	
36.95182	6253.209		-93.22576	
37.00581	6248.36		-93.16144	
37.05979	6243.409		-93.10004	
37.11378	6238.362		-93.04237	
37.16777	6233.235		-92.9891	
37.22176	6228.043		-92.94074	
37.27574	6222.813		-92.89769	
37.32973	6217.552		-92.86024	
37.38372	6212.27		-92.82863	
37.43771	6206.971		-92.80296	
37.49169	6201.654		-92.78322	
37.54568	6196.316		-92.76926	
37.59967	6190.954		-92.76078	
37.65365	6185.568		-92.75736	
37.70764	6180.167		-92.75849	
37.76163	6174.76		-92.76353	
37.81562	6169.361		-92.77171	
37.8696	6163.98		-92.78213	
37.92359	6158.632		-92.79377	
37.97758	6153.33		-92.80555	
38.03157	6148.09		-92.81631	
38.08555	6142.921		-92.82484	
38.13954	6137.82		-92.8299	
38.19353	6132.782		-92.83031	
38.24752	6127.801		-92.82488	
38.3015	6122.872		-92.8126	
38.35549	6117.993		-92.79251	
38.40948	6113.154		-92.76386	
38.46346	6108.361		-92.72601	
38.51745	6103.613		-92.67845	
38.57144	6098.899		-92.62084	
38.62543	6094.188		-92.55298	
38.67941	6089.448		-92.47488	
38.7334	6084.651		-92.38674	
38.78739	6079.774		-92.28903	
38.84138	6074.806		-92.18237	
38.89536	6069.744		-92.0676	
38.94935	6064.598		-91.94572	
39.00334	6059.386		-91.81786	
39.05733	6054.131		-91.68523	
39.11131	6048.862		-91.54913	
39.1653	6043.604		-91.41079	
39.21929	6038.38		-91.27141	
39.27327	6033.209		-91.13216	
39.32726	6028.099		-90.99409	
39.38125	6023.052		-90.85821	
39.43524	6018.063		-90.72534	
39.48922	6013.114		-90.5962	
39.54321	6008.176		-90.47128	
39.5972	6003.233		-90.35096	
39.65119	5998.282		-90.23545	
39.70517	5993.33		-90.12493	
39.75916	5988.398		-90.01945	
39.81315	5983.501		-89.91903	
39.86714	5978.643		-89.82362	
39.92112	5973.822		-89.73315	
39.97511	5969.037		-89.64754	
40.0291	5964.306		-89.5667	
40.08308	5959.644		-89.49057	
40.13707	5955.051		-89.41911	
40.19106	5950.522		-89.35229	
40.24505	5946.042		-89.29012	
40.29903	5941.587		-89.23254	
40.35302	5937.133		-89.1795	
40.40701	5932.66		-89.13084	
40.461	5928.153		-89.08629	
40.51498	5923.609		-89.04557	
40.56897	5919.029		-89.00833	
40.62296	5914.416		-88.97421	
40.67695	5909.78		-88.94286	
40.73093	5905.135		-88.91401	
40.78492	5900.486		-88.88745	
40.83891	5895.828		-88.86308	
40.89289	5891.152		-88.84088	
40.94688	5886.451		-88.82091	
41.00087	5881.717		-88.80325	
41.05486	5876.943		-88.78805	
41.10884	5872.134		-88.7754	
41.16283	5867.303		-88.76535	
41.21682	5862.458		-88.75789	
41.27081	5857.595		-88.75288	
41.32479	5852.722		-88.75011	
41.37878	5847.845		-88.74918	
41.43277	5842.977		-88.74963	
41.48676	5838.113		-88.75087	
41.54074	5833.244		-88.75224	
41.59473	5828.359		-88.75302	
41.64872	5823.448		-88.75246	
41.70271	5818.515		-88.74982	
41.75669	5813.572		-88.74432	
41.81068	5808.64		-88.73524	
41.86467	5803.739		-88.72191	
41.91866	5798.875		-88.7037	
41.97264	5794.049		-88.68012	
42.02663	5789.263		-88.65075	
42.08062	5784.511		-88.61537	
42.13461	5779.78		-88.57394	
42.18859	5775.06		-88.52659	
42.24258	5770.336		-88.47364	
42.29657	5765.597		-88.41549	
42.35056	5760.839		-88.35255	
42.40454	5756.061		-88.28519	
42.45853	5751.254		-88.21371	
42.51252	5746.412		-88.13839	
42.56651	5741.52		-88.05952	
42.62049	5736.57		-87.97738	
42.67448	5731.564		-87.89218	
42.72847	5726.515		-87.80415	
42.78246	5721.43		-87.7135	
42.83644	5716.329		-87.62043	
42.89043	5711.225		-87.52518	
42.94442	5706.145		-87.42804	
42.99841	5701.115		-87.32932	
43.05239	5696.143		-87.22939	
43.10638	5691.23		-87.12852	
43.16037	5686.378		-87.02699	
43.21436	5681.579		-86.92496	
43.26834	5676.829		-86.8225	
43.32233	5672.12		-86.7196	
43.37632	5667.446		-86.61617	
43.4303	5662.798		-86.51208	
43.48429	5658.168		-86.40714	
43.53828	5653.561		-86.30124	
43.59227	5648.984		-86.19427	
43.64625	5644.443		-86.08617	
43.70024	5639.938		-85.97694	
43.75423	5635.48		-85.86662	
43.80822	5631.082		-85.75527	
43.8622	5626.749		-85.6431	
43.91619	5622.48		-85.53033	
43.97018	5618.27		-85.4173	
44.02417	5614.104		-85.3044	
44.07815	5609.967		-85.19209	
44.13214	5605.83		-85.08089	
44.18613	5601.673		-84.97141	
44.24011	5597.469		-84.86433	
44.2941	5593.193		-84.76035	
44.34809	5588.831		-84.66019	
44.40208	5584.374		-84.56447	
44.45606	5579.829		-84.47376	
44.51005	5575.209		-84.38852	
44.56404	5570.533		-84.30911	
44.61803	5565.824		-84.23576	
44.67201	5561.105		-84.16854	
44.726	5556.388		-84.1074	
44.77999	5551.671		-84.05215	
44.83398	5546.948		-84.00251	
44.88796	5542.214		-83.95809	
44.94195	5537.487		-83.91845	
44.99594	5532.788		-83.88306	
45.04992	5528.126		-83.85136	
45.10391	5523.499		-83.82266	
45.1579	5518.899		-83.7962	
45.21189	5514.315		-83.7711	
45.26587	5509.746		-83.7464	
45.31986	5505.192		-83.72113	
45.37385	5500.654		-83.69432	
45.42784	5496.127		-83.66505	
45.48182	5491.616		-83.63249	
45.53581	5487.119		-83.5959	
45.5898	5482.63		-83.55463	
45.64379	5478.146		-83.50812	
45.69777	5473.679		-83.4559	
45.75176	5469.249		-83.39767	
45.80575	5464.872		-83.33327	
45.85973	5460.548		-83.26263	
45.91372	5456.267		-83.18585	
45.96771	5452.013		-83.10318	
46.0217	5447.771		-83.01499	
46.07568	5443.511		-82.92182	
46.12967	5439.213		-82.82432	
46.18366	5434.854		-82.72327	
46.23765	5430.412		-82.61957	
46.29163	5425.868		-82.51426	
46.34562	5421.217		-82.40843	
46.39961	5416.46		-82.30325	
46.4536	5411.607		-82.19986	
46.50758	5406.681		-82.09934	
46.56157	5401.716		-82.00266	
46.61556	5396.755		-81.91064	
46.66954	5391.838		-81.82396	
46.72353	5386.994		-81.74313	
46.77752	5382.23		-81.66853	
46.83151	5377.54		-81.6004	
46.88549	5372.916		-81.53889	
46.93948	5368.36		-81.48396	
46.99347	5363.872		-81.43549	
47.04746	5359.442		-81.39317	
47.10144	5355.068		-81.35657	
47.15543	5350.749		-81.32507	
47.20942	5346.481		-81.29795	
47.26341	5342.267		-81.27437	
47.31739	5338.104		-81.25346	
47.37138	5333.992		-81.23431	
47.42537	5329.928		-81.21611	
47.47936	5325.911		-81.19813	
47.53334	5321.93		-81.17971	
47.58733	5317.97		-81.16029	
47.64132	5314.018		-81.1394	
47.6953	5310.07		-81.11665	
47.74929	5306.128		-81.0918	
47.80328	5302.201		-81.06475	
47.85727	5298.283		-81.03548	
47.91125	5294.368		-81.00409	
47.96524	5290.434		-80.9707	
48.01923	5286.458		-80.93561	
48.07322	5282.419		-80.89917	
48.1272	5278.306		-80.86189	
48.18119	5274.11		-80.82439	
48.23518	5269.834		-80.78744	
48.28917	5265.481		-80.75188	
48.34315	5261.061		-80.71864	
48.39714	5256.58		-80.68861	
48.45113	5252.052		-80.66259	
48.50512	5247.489		-80.64135	
48.5591	5242.897		-80.62547	
48.61309	5238.279		-80.61533	
48.66708	5233.643		-80.61114	
48.72107	5228.998		-80.61292	
48.77505	5224.355		-80.62051	
48.82904	5219.717		-80.63355	
48.88303	5215.089		-80.65157	
48.93702	5210.465		-80.67393	
48.991	5205.84		-80.69989	
49.04499	5201.206		-80.72859	
49.09898	5196.569		-80.75908	
49.15297	5191.94		-80.79031	
49.20695	5187.333		-80.82121	
49.26094	5182.761		-80.85062	
49.31493	5178.234		-80.87737	
49.36892	5173.755		-80.90027	
49.4229	5169.32		-80.91821	
49.47689	5164.921		-80.93011	
49.53088	5160.548		-80.935	
49.58487	5156.188		-80.93196	
49.63885	5151.839		-80.92021	
49.69284	5147.5		-80.89906	
49.74683	5143.179		-80.86797	
49.80082	5138.879		-80.8265	
49.8548	5134.614		-80.77436	
49.90879	5130.394		-80.71135	
49.96278	5126.221		-80.63741	
50.01676	5122.091		-80.5526	
50.07075	5117.995		-80.45718	
50.12474	5113.911		-80.35159	
50.17873	5109.81		-80.23647	
50.23271	5105.664		-80.11273	
50.2867	5101.446		-79.98138	
50.34069	5097.13		-79.8436	
50.39468	5092.712		-79.70056	
50.44866	5088.209		-79.55354	
50.50265	5083.649		-79.40368	
50.55664	5079.061		-79.25215	
50.61063	5074.467		-79.09997	
50.66461	5069.89		-78.94812	
50.7186	5065.349		-78.79743	
50.77259	5060.85		-78.64867	
50.82658	5056.398		-78.50246	
50.88056	5051.997		-78.35933	
50.93455	5047.642		-78.21968	
50.98854	5043.317		-78.08379	
51.04252	5039.012		-77.95184	
51.09651	5034.724		-77.82382	
51.1505	5030.462		-77.69969	
51.20449	5026.235		-77.57928	
51.25847	5022.045		-77.46246	
51.31246	5017.896		-77.34902	
51.36645	5013.792		-77.23879	
51.42044	5009.732		-77.1316	
51.47442	5005.71		-77.02731	
51.52841	5001.715		-76.9258	
51.5824	4997.74		-76.82701	
51.63639	4993.783		-76.73091	
51.69037	4989.84		-76.63753	
51.74436	4985.91		-76.54692	
51.79835	4981.987		-76.45913	
51.85233	4978.064		-76.37421	
51.90632	4974.129		-76.29221	
51.96031	4970.181		-76.21316	
52.0143	4966.218		-76.13708	
52.06828	4962.243		-76.0641	
52.12227	4958.255		-75.99434	
52.17626	4954.258		-75.92802	
52.23025	4950.256		-75.86545	
52.28423	4946.248		-75.80699	
52.33822	4942.223		-75.75304	
52.39221	4938.182		-75.70402	
52.4462	4934.124		-75.6603	
52.50018	4930.055		-75.62221	
52.55417	4925.98		-75.58997	
52.60816	4921.905		-75.56368	
52.66214	4917.833		-75.54335	
52.71613	4913.772		-75.52885	
52.77012	4909.721		-75.51995	
52.82411	4905.684		-75.51636	
52.87809	4901.663		-75.51767	
52.93208	4897.659		-75.52338	
52.98607	4893.665		-75.5329	
53.04006	4889.673		-75.54551	
53.09404	4885.677		-75.56038	
53.14803	4881.672		-75.5766	
53.20202	4877.653		-75.59319	
53.25601	4873.613		-75.60914	
53.30999	4869.55		-75.62343	
53.36398	4865.464		-75.63507	
53.41797	4861.352		-75.64309	
53.47195	4857.22		-75.64657	
53.52594	4853.073		-75.64467	
53.57993	4848.923		-75.63665	
53.63392	4844.781		-75.62193	
53.6879	4840.66		-75.60009	
53.74189	4836.567		-75.57082	
53.79588	4832.501		-75.53397	
53.84987	4828.453		-75.48951	
53.90385	4824.411		-75.4375	
53.95784	4820.367		-75.37807	
54.01183	4816.32		-75.31145	
54.06582	4812.264		-75.23794	
54.1198	4808.193		-75.15792	
54.17379	4804.099		-75.07189	
54.22778	4799.972		-74.98047	
54.28176	4795.805		-74.88435	
54.33575	4791.592		-74.78431	
54.38974	4787.327		-74.68123	
54.44373	4783.013		-74.57597	
54.49771	4778.666		-74.46942	
54.5517	4774.305		-74.36243	
54.60569	4769.946		-74.25586	
54.65968	4765.606		-74.15041	
54.71367	4761.296		-74.04681	
54.76765	4757.015		-73.94563	
54.82164	4752.756		-73.84747	
54.87563	4748.518		-73.75282	
54.92962	4744.289		-73.66212	
54.9836	4740.062		-73.57572	
55.03759	4735.842		-73.49389	
55.09158	4731.639		-73.41678	
55.14557	4727.478		-73.34444	
55.19955	4723.382		-73.27681	
55.25354	4719.372		-73.21374	
55.30753	4715.453		-73.15498	
55.36152	4711.619		-73.10022	
55.4155	4707.854		-73.04906	
55.46949	4704.147		-73.0011	
55.52348	4700.493		-72.95589	
55.57747	4696.879		-72.91296	
55.63145	4693.301		-72.8719	
55.68544	4689.752		-72.83228	
55.73943	4686.23		-72.79375	
55.79342	4682.732		-72.75599	
55.8474	4679.25		-72.71875	
55.90139	4675.768		-72.68183	
55.95538	4672.279		-72.64506	
56.00936	4668.788		-72.60834	
56.06335	4665.288		-72.5716	
56.11734	4661.778		-72.53485	
56.17133	4658.248		-72.49806	
56.22531	4654.692		-72.46125	
56.2793	4651.101		-72.4244	
56.33329	4647.461		-72.38751	
56.38728	4643.754		-72.35054	
56.44126	4639.979		-72.31344	
56.49525	4636.132		-72.27614	
56.54924	4632.226		-72.23858	
56.60323	4628.267		-72.20071	
56.65721	4624.272		-72.16248	
56.7112	4620.253		-72.12386	
56.76519	4616.221		-72.08481	
56.81917	4612.189		-72.04534	
56.87316	4608.163		-72.00547	
56.92715	4604.131		-71.96521	
56.98114	4600.093		-71.92457	
57.03512	4596.044		-71.88353	
57.08911	4591.983		-71.84202	
57.1431	4587.9		-71.7999	
57.19709	4583.789		-71.75692	
57.25107	4579.652		-71.71273	
57.30506	4575.496		-71.6669	
57.35905	4571.317		-71.61891	
57.41304	4567.107		-71.56818	
57.46702	4562.872		-71.51403	
57.52101	4558.624		-71.45575	
57.575	4554.386		-71.39263	
57.62898	4550.173		-71.32393	
57.68297	4545.997		-71.24894	
57.73696	4541.871		-71.16702	
57.79095	4537.797		-71.07751	
57.84493	4533.766		-70.97991	
57.89892	4529.77		-70.87375	
57.95291	4525.803		-70.7587	
58.0069	4521.855		-70.63457	
58.06088	4517.92		-70.50137	
58.11487	4513.993		-70.35912	
58.16886	4510.084		-70.20803	
58.22285	4506.203		-70.04832	
58.27683	4502.35		-69.88038	
58.33082	4498.515		-69.7046	
58.38481	4494.691		-69.52148	
58.43879	4490.875		-69.33165	
58.49278	4487.069		-69.13573	
58.54677	4483.286		-68.93449	
58.60076	4479.538		-68.72865	
58.65474	4475.844		-68.51904	
58.70873	4472.223		-68.30643	
58.76272	4468.693		-68.09167	
58.81671	4465.256		-67.87559	
58.87069	4461.891		-67.65907	
58.92468	4458.569		-67.44297	
58.97867	4455.266		-67.22829	
59.03266	4451.961		-67.01598	
59.08664	4448.636		-66.80707	
59.14063	4445.271		-66.60251	
59.19462	4441.859		-66.40318	
59.2486	4438.402		-66.2099	
59.30259	4434.912		-66.02328	
59.35658	4431.394		-65.84394	
59.41057	4427.856		-65.67226	
59.46455	4424.311		-65.50857	
59.51854	4420.767		-65.35301	
59.57253	4417.231		-65.20571	
59.62652	4413.708		-65.06664	
59.6805	4410.216		-64.93571	
59.73449	4406.763		-64.81273	
59.78848	4403.353		-64.69744	
59.84247	4399.981		-64.58949	
59.89645	4396.64		-64.48846	
59.95044	4393.315		-64.39383	
60.00443	4389.997		-64.30503	
60.05841	4386.67		-64.22148	
60.1124	4383.331		-64.14249	
60.16639	4379.98		-64.0673	
60.22038	4376.622		-63.99511	
60.27436	4373.26		-63.92507	
60.32835	4369.904		-63.85631	
60.38234	4366.559		-63.78793	
60.43633	4363.229		-63.71904	
60.49031	4359.923		-63.64872	
60.5443	4356.634		-63.57601	
60.59829	4353.351		-63.49995	
60.65228	4350.062		-63.41948	
60.70626	4346.763		-63.33353	
60.76025	4343.455		-63.24095	
60.81424	4340.128		-63.14063	
60.86823	4336.768		-63.03143	
60.92221	4333.361		-62.91229	
60.9762	4329.898		-62.7822	
61.03019	4326.377		-62.64024	
61.08418	4322.799		-62.48558	
61.13816	4319.174		-62.31742	
61.19215	4315.52		-62.13511	
61.24614	4311.847		-61.938	
61.30013	4308.167		-61.72558	
61.35411	4304.488		-61.49734	
61.4081	4300.82		-61.25286	
61.46209	4297.165		-60.99174	
61.51608	4293.527		-60.71368	
61.57006	4289.91		-60.41837	
61.62405	4286.315		-60.10567	
61.67804	4282.743		-59.77539	
61.73203	4279.207		-59.42738	
61.78601	4275.721		-59.06157	
61.84	4272.289		-58.67791	
61.89399	4268.907		-58.27648	
61.94798	4265.567		-57.85728	
62.00196	4262.263		-57.42049	
62.05595	4258.987		-56.9662	
62.10994	4255.734		-56.49476	
62.16393	4252.491		-56.00638	
62.21791	4249.252		-55.50152	
62.2719	4246.008		-54.98049	
62.32589	4242.754		-54.4439	
62.37988	4239.485		-53.89219	
62.43386	4236.208		-53.32595	
62.48785	4232.931		-52.7456	
62.54184	4229.667		-52.15176	
62.59582	4226.432		-51.54484	
62.64981	4223.251		-50.92519	
62.7038	4220.15		-50.29319	
62.75779	4217.156		-49.64891	
62.81177	4214.281		-48.99252	
62.86576	4211.526		-48.32386	
62.91975	4208.877		-47.64286	
62.97374	4206.313		-46.94913	
63.02772	4203.813		-46.24236	
63.08171	4201.359		-45.52188	
63.1357	4198.936		-44.78715	
63.18969	4196.537		-44.03732	
63.24367	4194.172		-43.27174	
63.29766	4191.859		-42.48946	
63.35165	4189.612		-41.68972	
63.40563	4187.441		-40.8715	
63.45962	4185.349		-40.03375	
63.51361	4183.342		-39.17555	
63.5676	4181.425		-38.29569	
63.62158	4179.603		-37.39318	
63.67557	4177.868		-36.46674	
63.72956	4176.215		-35.51532	
63.78355	4174.622		-34.53751	
63.83753	4173.07		-33.53217	
63.89152	4171.533		-32.49774	
63.94551	4169.995		-31.43301	
63.9995	4168.441		-30.33641	
64.05348	4166.866		-29.20671	
64.10747	4165.262		-28.04244	
64.16145	4163.632		-26.84229	
64.21545	4161.987		-25.60495	
64.26943	4160.348		-24.32958	
64.32342	4158.733		-23.01501	
64.3774	4157.158		-21.66015	
64.4314	4155.631		-20.26397	
64.48538	4154.163		-18.82581	
64.53937	4152.757		-17.34459	
64.59335	4151.406		-15.81926	
64.64735	4150.093		-14.24868	
64.70133	4148.811		-12.63207	
64.75532	4147.557		-10.96802	
64.8093	4146.328		-9.255044	
64.8633	4145.116		-7.491552	
64.91728	4143.913		-5.676272	
64.97127	4142.725		-3.807243	
65.02525	4141.57		-1.8825	
65.07924	4140.459		0.1000173	
65.13323	4139.405		2.142578	
65.18722	4138.426		4.24699	
65.2412	4137.549		6.415833	
65.29519	4136.809		8.651728	
65.34918	4136.234		10.95737	
65.40317	4135.839		13.33495	
65.45715	4135.626		15.7875	
65.51114	4135.592		18.31803	
65.56513	4135.739		20.92958	
65.61912	4136.076		23.62452	
65.6731	4136.606		26.40609	
65.72709	4137.326		29.27744	
65.78108	4138.231		32.24173	
65.83507	4139.317		35.30127	
65.88905	4140.578		38.45935	
65.94304	4142.011		41.71905	
65.99702	4143.612		45.08331	
66.05102	4145.396		48.55525	
66.105	4147.373		52.13683	
66.15899	4149.552		55.83111	
66.21297	4151.941		59.64087	
66.26697	4154.546		63.56882	
66.32095	4157.365		67.61647	
66.37494	4160.4		71.78657	
66.42892	4163.648		76.08156	
66.48292	4167.103		80.5039	
66.5369	4170.753		85.05466	
66.59089	4174.594		89.73637	
66.64487	4178.621		94.55121	
66.69886	4182.833		99.50124	
66.75285	4187.232		104.589	
66.80684	4191.827		109.815	
66.86082	4196.624		115.1826	
66.91481	4201.637		120.6937	
66.9688	4206.884		126.3514	
67.02279	4212.377		132.1563	
67.07677	4218.126		138.112	
67.13076	4224.145		144.2212	
67.18475	4230.453		150.4873	
67.23874	4237.074		156.9115	
67.29272	4244.027		163.4982	
67.34671	4251.326		170.2509	
67.4007	4258.978		177.1743	
67.45469	4266.983		184.2704	
67.50867	4275.343		191.5449	
67.56266	4284.05		199.0021	
67.61665	4293.104		206.647	
67.67064	4302.511		214.4851	
67.72462	4312.284		222.5192	
67.77861	4322.445		230.7556	
67.8326	4333.022		239.1989	
67.88659	4344.041		247.8546	
67.94057	4355.509		256.7242	
67.99456	4367.447		265.8133	
68.04855	4379.871		275.1251	
68.10254	4392.793		284.6631	
68.15652	4406.224		294.4269	
68.21051	4420.177		304.4196	
68.2645	4434.658		314.6414	
68.31849	4449.68		325.0939	
68.37247	4465.247		335.7723	
68.42646	4481.362		346.6767	
68.48045	4498.027		357.804	
68.53443	4515.253		369.1505	
68.58842	4533.061		380.7126	
68.64241	4551.465		392.481	
68.6964	4570.489		404.4512	
68.75038	4590.149		416.6153	
68.80437	4610.463		428.9661	
68.85836	4631.435		441.4904	
68.91235	4653.084		454.1802	
68.96633	4675.424		467.0244	
69.02032	4698.467		480.0125	
69.07431	4722.217		493.1286	
69.1283	4746.686		506.3619	
69.18228	4771.876		519.6988	
69.23627	4797.795		533.1253	
69.29026	4824.456		546.6287	
69.34425	4851.874		560.1904	
69.39823	4880.077		573.7972	
69.45222	4909.104		587.4336	
69.50621	4938.991		601.0852	
69.5602	4969.761		614.7319	
69.61418	5001.444		628.359	
69.66817	5034.076		641.9493	
69.72216	5067.686		655.4871	
69.77615	5102.294		668.9507	
69.83013	5137.936		682.3237	
69.88412	5174.647		695.5868	
69.93811	5212.474		708.7228	
69.9921	5251.437		721.7079	
70.04608	5291.555		734.5234	
70.10007	5332.838		747.1483	
70.15405	5375.295		759.5605	
70.20805	5418.934		771.7401	
70.26203	5463.73		783.6606	
70.31602	5509.685		795.2999	
70.37	5556.764		806.6337	
70.424	5604.923		817.6395	
70.47798	5654.084		828.2895	
70.53197	5704.193		838.559	
70.58595	5755.188		848.4224	
70.63995	5807.012		857.856	
70.69393	5859.588		866.8315	
70.74792	5912.854		875.3236	
70.8019	5966.741		883.3075	
70.85589	6021.187		890.7578	
70.90988	6076.128		897.6533	
70.96387	6131.479		903.9673	
71.01785	6187.196		909.6798	
71.07184	6243.241		914.77	
71.12583	6299.589		919.2209	
71.17982	6356.191		923.0145	
71.2338	6413.027		926.1349	
71.28779	6470.067		928.5688	
71.34178	6527.302		930.3067	
71.39577	6584.707		931.3392	
71.44975	6642.295		931.6581	
71.50374	6700.078		931.2592	
71.55773	6758.072		930.1413	
71.61172	6816.267		928.3051	
71.6657	6874.67		925.7512	
71.71969	6933.259		922.485	
71.77367	6991.994		918.5126	
71.82767	7050.822		913.844	
71.88165	7109.662		908.4914	
71.93564	7168.445		902.4659	
71.98962	7227.084		895.7823	
72.04362	7285.482		888.4578	
72.0976	7343.519		880.5128	
72.15159	7401.089		871.9646	
72.20557	7458.087		862.8344	
72.25957	7514.423		853.1444	
72.31355	7570.001		842.9204	
72.36754	7624.737		832.1837	
72.42152	7678.526		820.9593	
72.47552	7731.264		809.2701	
72.5295	7782.853		797.1464	
72.58349	7833.219		784.6102	
72.63747	7882.286		771.6879	
72.69146	7929.969		758.4045	
72.74545	7976.21		744.7847	
72.79944	8020.938		730.8576	
72.85342	8064.113		716.6459	
72.90741	8105.691		702.1749	
72.9614	8145.652		687.4684	
73.01539	8183.968		672.5552	
73.06937	8220.655		657.458	
73.12336	8255.734		642.2017	
73.17735	8289.239		626.809	
73.23134	8321.196		611.3087	
73.28532	8351.662		595.723	
73.33931	8380.68		580.0764	
73.3933	8408.294		564.3931	
73.44729	8434.559		548.6947	
73.50127	8459.542		533.0097	
73.55526	8483.333		517.3597	
73.60925	8506.004		501.7684	
73.66324	8527.608		486.2563	
73.71722	8548.168		470.8504	
73.77121	8567.717		455.5714	
73.8252	8586.281		440.4413	
73.87919	8603.886		425.4785	
73.93317	8620.553		410.7078	
73.98716	8636.34		396.1473	
74.04115	8651.319		381.8158	
74.09514	8665.564		367.7282	
74.14912	8679.141		353.9051	
74.20311	8692.106		340.3609	
74.2571	8704.519		327.1093	
74.31108	8716.435		314.1637	
74.36507	8727.902		301.5331	
74.41906	8738.949		289.2311	
74.47305	8749.6		277.2653	
74.52703	8759.87		265.6426	
74.58102	8769.76		254.3662	
74.63501	8779.259		243.4432	
74.689	8788.366		232.875	
74.74298	8797.103		222.6625	
74.79697	8805.465		212.8027	
74.85096	8813.45		203.2964	
74.90495	8821.063		194.1391	
74.95893	8828.324		185.3255	
75.01292	8835.262		176.8499	
75.06691	8841.917		168.7027	
75.1209	8848.321		160.8788	
75.17488	8854.527		153.3676	
75.22887	8860.587		146.1593	
75.28286	8866.54		139.2418	
75.33685	8872.383		132.6059	
75.39083	8878.076		126.2396	
75.44482	8883.576		120.1309	
75.49881	8888.854		114.2668	
75.5528	8893.897		108.6368	
75.60678	8898.706		103.2286	
75.66077	8903.281		98.03024	
75.71476	8907.636		93.02929	
75.76875	8911.781		88.21593	
75.82273	8915.722		83.57896	
75.87672	8919.442		79.10781	
75.9307	8922.925		74.79268	
75.9847	8926.16		70.6232	
76.03868	8929.153		66.59145	
76.09267	8931.922		62.68843	
76.14665	8934.472		58.90604	
76.20065	8936.804		55.2361	
76.25463	8938.912		51.6728	
76.30862	8940.798		48.20951	
76.3626	8942.474		44.8406	
76.4166	8943.958		41.56042	
76.47058	8945.26		38.36556	
76.52457	8946.378		35.25183	
76.57855	8947.296		32.21582	
76.63255	8948.011		29.25433	
76.68653	8948.552		26.36564	
76.74052	8948.955		23.54752	
76.7945	8949.251		20.79829	
76.84849	8949.461		18.11668	
76.90248	8949.603		15.5011	
76.95647	8949.692		12.95131	
77.01045	8949.744		10.46614	
77.06444	8949.746		8.044658	
77.11843	8949.684		5.685512	
77.17242	8949.54		3.388418	
77.2264	8949.306		1.152069	
77.28039	8948.987		-1.024789	
77.33438	8948.586		-3.143968	
77.38837	8948.101		-5.206422	
77.44235	8947.532		-7.214126	
77.49634	8946.873		-9.169104	
77.55032	8946.11		-11.07339	
77.60432	8945.236		-12.92953	
77.6583	8944.251		-14.73922	
77.71229	8943.169		-16.50493	
77.76627	8941.99		-18.22902	
77.82027	8940.707		-19.91412	
77.87425	8939.306		-21.56198	
77.92824	8937.771		-23.17491	
77.98222	8936.081		-24.75507	
78.03622	8934.216		-26.30475	
78.0902	8932.177		-27.82538	
78.14419	8929.973		-29.3187	
78.19817	8927.619		-30.78605	
78.25217	8925.13		-32.22864	
78.30615	8922.527		-33.64673	
78.36014	8919.844		-35.04074	
78.41412	8917.118		-36.41061	
78.46811	8914.394		-37.75582	
78.5221	8911.685		-39.07585	
78.57609	8908.998		-40.36934	
78.63007	8906.343		-41.63525	
78.68406	8903.719		-42.87215	
78.73805	8901.119		-44.0787	
78.79204	8898.533		-45.25284	
78.84602	8895.944		-46.39297	
78.90001	8893.338		-47.49731	
78.954	8890.724		-48.56437	
79.00799	8888.133		-49.59228	
79.06197	8885.591		-50.5797	
79.11596	8883.112		-51.52544	
79.16994	8880.694		-52.42846	
79.22394	8878.333		-53.28833	
79.27792	8876.023		-54.10434	
79.33191	8873.754		-54.87662	
79.38589	8871.506		-55.6054	
79.43989	8869.254		-56.2915	
79.49387	8866.948		-56.93573	
79.54786	8864.519		-57.53943	
79.60184	8861.89		-58.10416	
79.65584	8859.022		-58.63188	
79.70982	8855.901		-59.12445	
79.76381	8852.519		-59.5841	
79.81779	8848.86		-60.01313	
79.87179	8844.954		-60.41402	
79.92577	8840.828		-60.78905	
79.97976	8836.511		-61.14058	
80.03374	8832.02		-61.47086	
80.08773	8827.394		-61.78195	
80.14172	8822.688		-62.07579	
80.19571	8817.955		-62.35398	
80.24969	8813.22		-62.61786	
80.30368	8808.496		-62.86849	
80.35767	8803.787		-63.10662	
80.41166	8799.104		-63.33249	
80.46564	8794.455		-63.54589	
80.51963	8789.82		-63.74628	
80.57362	8785.201		-63.93279	
80.62761	8780.632		-64.10412	
80.68159	8776.159		-64.25871	
80.73558	8771.832		-64.39488	
80.78957	8767.691		-64.51083	
80.84356	8763.758		-64.6048	
80.89754	8760.041		-64.67505	
80.95153	8756.556		-64.72004	
81.00552	8753.32		-64.7384	
81.05951	8750.333		-64.72908	
81.11349	8747.557		-64.69131	
81.16748	8744.935		-64.62468	
81.22147	8742.402		-64.52921	
81.27546	8739.897		-64.40539	
81.32944	8737.369		-64.2542	
81.38343	8734.78		-64.07706	
81.43742	8732.11		-63.8759	
81.49141	8729.34		-63.65322	
81.54539	8726.458		-63.41203	
81.59938	8723.458		-63.15569	
81.65337	8720.354		-62.88794	
81.70735	8717.165		-62.6128	
81.76134	8713.911		-62.3345	
81.81533	8710.622		-62.05756	
81.86932	8707.316		-61.78654	
81.9233	8703.999		-61.52607	
81.97729	8700.646		-61.28065	
82.03128	8697.228		-61.0548	
82.08527	8693.722		-60.85274	
82.13925	8690.12		-60.67844	
82.19324	8686.425		-60.53555	
82.24723	8682.646		-60.42747	
82.30122	8678.812		-60.35722	
82.3552	8674.961		-60.32729	
82.40919	8671.162		-60.33967	
82.46318	8667.455		-60.39589	
82.51717	8663.86		-60.49707	
82.57115	8660.404		-60.64364	
82.62514	8657.104		-60.83566	
82.67913	8653.966		-61.07265	
82.73312	8650.979		-61.35374	
82.7871	8648.115		-61.67785	
82.84109	8645.331		-62.04355	
82.89508	8642.586		-62.44914	
82.94907	8639.852		-62.89266	
83.00305	8637.121		-63.37223	
83.05704	8634.402		-63.88578	
83.11103	8631.712		-64.43127	
83.16502	8629.071		-65.00667	
83.219	8626.493		-65.61043	
83.27299	8623.987		-66.24107	
83.32697	8621.548		-66.89738	
83.38097	8619.144		-67.57845	
83.43495	8616.734		-68.28358	
83.48894	8614.283		-69.0126	
83.54292	8611.752		-69.76569	
83.59692	8609.105		-70.54336	
83.6509	8606.305		-71.34613	
83.70489	8603.313		-72.17522	
83.75887	8600.115		-73.03186	
83.81287	8596.708		-73.91756	
83.86685	8593.091		-74.83369	
83.92084	8589.276		-75.78214	
83.97482	8585.299		-76.7647	
84.02882	8581.186		-77.78324	
84.0828	8576.963		-78.83918	
84.13679	8572.649		-79.9343	
84.19077	8568.259		-81.06989	
84.24476	8563.801		-82.24709	
84.29875	8559.278		-83.4668	
84.35274	8554.69		-84.72909	
84.40672	8550.019		-86.03427	
84.46071	8545.239		-87.38197	
84.5147	8540.321		-88.77157	
84.56869	8535.249		-90.20153	
84.62267	8530.026		-91.67065	
84.67666	8524.683		-93.17718	
84.73065	8519.258		-94.71932	
84.78464	8513.804		-96.29445	
84.83862	8508.354		-97.90047	
84.89261	8502.941		-99.53484	
84.9466	8497.576		-101.1952	
85.00059	8492.254		-102.8784	
85.05457	8486.955		-104.5819	
85.10856	8481.66		-106.303	
85.16254	8476.347		-108.039	
85.21654	8470.995		-109.7875	
85.27052	8465.586		-111.5454	
85.32451	8460.081		-113.3103	
85.37849	8454.445		-115.0798	
85.43249	8448.641		-116.8514	
85.48647	8442.667		-118.6226	
85.54046	8436.52		-120.3914	
85.59444	8430.223		-122.1559	
85.64844	8423.792		-123.9147	
85.70242	8417.247		-125.6657	
85.75641	8410.589		-127.4078	
85.81039	8403.844		-129.1398	
85.86438	8397.022		-130.8608	
85.91837	8390.147		-132.5699	
85.97236	8383.214		-134.2659	
86.02634	8376.214		-135.9482	
86.08033	8369.111		-137.616	
86.13432	8361.875		-139.2688	
86.18831	8354.457		-140.9052	
86.24229	8346.831		-142.5245	
86.29628	8338.977		-144.1256	
86.35027	8330.901		-145.7077	
86.40426	8322.632		-147.269	
86.45824	8314.207		-148.8081	
86.51223	8305.643		-150.3234	
86.56622	8296.951		-151.8133	
86.62021	8288.136		-153.2755	
86.67419	8279.22		-154.7083	
86.72818	8270.229		-156.1096	
86.78217	8261.187		-157.4773	
86.83616	8252.09		-158.8093	
86.89014	8242.944		-160.1033	
86.94413	8233.737		-161.3571	
86.99812	8224.46		-162.5688	
87.05211	8215.103		-163.7367	
87.10609	8205.67		-164.859	
87.16008	8196.166		-165.934	
87.21407	8186.6		-166.9607	
87.26806	8176.972		-167.9381	
87.32204	8167.292		-168.8652	
87.37603	8157.552		-169.7413	
87.43002	8147.752		-170.5661	
87.48401	8137.882		-171.3395	
87.53799	8127.935		-172.0613	
87.59198	8117.913		-172.7319	
87.64597	8107.824		-173.352	
87.69995	8097.673		-173.9221	
87.75394	8087.461		-174.4435	
87.80793	8077.205		-174.9171	
87.86192	8066.919		-175.3443	
87.9159	8056.622		-175.7268	
87.96989	8046.318		-176.0665	
88.02388	8036.021		-176.3652	
88.07787	8025.722		-176.625	
88.13185	8015.422		-176.8483	
88.18584	8005.124		-177.0373	
88.23983	7994.842		-177.1945	
88.29382	7984.575		-177.3221	
88.3478	7974.312		-177.4228	
88.40179	7964.04		-177.4988	
88.45578	7953.771		-177.5526	
88.50977	7943.53		-177.5866	
88.56375	7933.346		-177.6028	
88.61774	7923.245		-177.6034	
88.67173	7913.268		-177.5906	
88.72572	7903.44		-177.5663	
88.7797	7893.771		-177.5321	
88.83369	7884.25		-177.4897	
88.88768	7874.866		-177.4405	
88.94167	7865.606		-177.3856	
88.99565	7856.468		-177.3262	
89.04964	7847.428		-177.2631	
89.10363	7838.449		-177.197	
89.15762	7829.474		-177.1289	
89.2116	7820.468		-177.0594	
89.26559	7811.405		-176.9894	
89.31957	7802.312		-176.9199	
89.37357	7793.216		-176.8519	
89.42755	7784.165		-176.7863	
89.48154	7775.172		-176.7244	
89.53552	7766.251		-176.6675	
89.58952	7757.382		-176.6167	
89.6435	7748.566		-176.5734	
89.69749	7739.773		-176.5388	
89.75147	7730.978		-176.5138	
89.80547	7722.146		-176.4993	
89.85945	7713.269		-176.496	
89.91344	7704.325		-176.5046	
89.96742	7695.319		-176.5253	
90.02141	7686.233		-176.5584	
90.0754	7677.06		-176.6039	
90.12939	7667.797		-176.6618	
90.18337	7658.46		-176.7321	
90.23736	7649.075		-176.8147	
90.29135	7639.671		-176.9094	
90.34534	7630.249		-177.0161	
90.39932	7620.798		-177.1347	
90.45331	7611.294		-177.2647	
90.5073	7601.717		-177.4058	
90.56129	7592.051		-177.5572	
90.61527	7582.299		-177.7181	
90.66926	7572.473		-177.8876	
90.72325	7562.58		-178.0644	
90.77724	7552.624		-178.2473	
90.83122	7542.606		-178.4346	
90.88521	7532.531		-178.6249	
90.93919	7522.418		-178.8163	
90.99319	7512.304		-179.0074	
91.04717	7502.229		-179.1964	
91.10116	7492.2		-179.3819	
91.15514	7482.212		-179.5623	
91.20914	7472.239		-179.7362	
91.26312	7462.263		-179.9025	
91.31711	7452.274		-180.0598	
91.37109	7442.271		-180.2074	
91.42509	7432.256		-180.3447	
91.47907	7422.234		-180.4715	
91.53306	7412.199		-180.5876	
91.58704	7402.17		-180.6932	
91.64104	7392.167		-180.7886	
91.69502	7382.203		-180.8741	
91.74901	7372.277		-180.9502	
91.80299	7362.384		-181.0176	
91.85698	7352.518		-181.077	
91.91097	7342.671		-181.129	
91.96496	7332.832		-181.1744	
92.01894	7322.98		-181.2138	
92.07293	7313.106		-181.2478	
92.12692	7303.184		-181.2769	
92.18091	7293.209		-181.3017	
92.23489	7283.19		-181.3225	
92.28888	7273.16		-181.34	
92.34287	7263.139		-181.3545	
92.39686	7253.161		-181.3666	
92.45084	7243.235		-181.3982	
92.50483	7233.379		-181.4418	
92.55882	7223.589		-181.4933	
92.61281	7213.867		-181.5491	
92.66679	7204.192		-181.6066	
92.72078	7194.542		-181.6642	
92.77477	7184.888		-181.7209	
92.82876	7175.228		-181.7764	
92.88274	7165.548		-181.8302	
92.93673	7155.868		-181.8825	
92.99072	7146.205		-181.9332	
93.04471	7136.59		-181.9825	
93.09869	7127.042		-182.0306	
93.15268	7117.591		-182.0776	
93.20667	7108.236		-182.1237	
93.26066	7098.982		-182.1691	
93.31464	7089.813		-182.2139	
93.36863	7080.725		-182.2585	
93.42262	7071.673		-182.3029	
93.4766	7062.607		-182.3474	
93.53059	7053.457		-182.3922	
93.58458	7044.18		-182.4374	
93.63857	7034.757		-182.4833	
93.69255	7025.173		-182.53	
93.74654	7015.431		-182.5776	
93.80053	7005.583		-182.6264	
93.85452	6995.657		-182.6765	
93.9085	6985.659		-182.728	
93.96249	6975.575		-182.781	
94.01648	6965.407		-182.8358	
94.07047	6954.901		-182.8923	
94.12445	6944.478		-182.9508	
94.17844	6934.144		-183.0112	
94.23243	6923.857		-183.0736	
94.28642	6913.594		-183.138	
94.3404	6903.333		-183.2046	
94.39439	6893.064		-183.2733	
94.44838	6882.78		-183.3442	
94.50237	6872.484		-183.4172	
94.55635	6862.173		-183.4924	
94.61034	6851.848		-183.5698	
94.66433	6841.509		-183.6493	
94.71832	6831.162		-183.7309	
94.7723	6820.802		-183.8146	
94.82629	6810.432		-183.9003	
94.88028	6800.051		-183.9881	
94.93427	6789.668		-184.0779	
94.98825	6779.287		-184.1695	
