T[Â°C]	350nm [counts / mm]	S.D.	First derivative	S.D. of first derivative
20.00003	7026.18	11.67983	-101.7244	7.4537
20.05401	7020.565	12.03279	-101.6269	7.268923
20.108	7014.956	12.37458	-101.5296	7.084729
20.16199	7009.351	12.70437	-101.4326	6.901158
20.21597	7003.752	13.0222	-101.3358	6.718255
20.26996	6998.157	13.32893	-101.2393	6.536077
20.32394	6992.568	13.62463	-101.1431	6.354674
20.37793	6986.983	13.91031	-101.0472	6.174109
20.43192	6981.403	14.18644	-100.9517	5.994436
20.4859	6975.828	14.45375	-100.8564	5.815731
20.53989	6970.255	14.71377	-100.7616	5.638049
20.59388	6964.686	14.96809	-100.6671	5.461466
20.64786	6959.118	15.21773	-100.573	5.286052
20.70185	6953.551	15.46497	-100.4793	5.111883
20.75584	6947.986	15.71084	-100.3859	4.939033
20.80982	6942.423	15.95558	-100.293	4.767577
20.86381	6936.863	16.19836	-100.2006	4.597599
20.9178	6931.316	16.427	-100.1085	4.429173
20.97178	6925.798	16.60092	-100.0169	4.262387
21.02577	6920.364	16.70177	-99.92568	4.097319
21.07975	6914.943	16.83712	-99.83489	3.934058
21.13374	6909.537	17.01488	-99.74452	3.772682
21.18773	6904.147	17.22746	-99.65455	3.613289
21.24171	6898.776	17.45324	-99.56496	3.455967
21.2957	6893.422	17.6746	-99.47575	3.3008
21.34969	6888.08	17.87822	-99.38689	3.147899
21.40367	6882.744	18.06081	-99.29836	2.997358
21.45766	6877.415	18.22249	-99.21012	2.849293
21.51164	6872.104	18.36417	-99.12216	2.703813
21.56563	6866.817	18.49172	-99.03445	2.561043
21.61962	6861.555	18.6147	-98.94696	2.421131
21.6736	6856.313	18.74161	-98.85967	2.284219
21.72759	6851.083	18.88473	-98.77254	2.150486
21.78158	6845.855	19.05224	-98.68555	2.020121
21.83556	6840.62	19.24455	-98.59864	1.893364
21.88955	6835.365	19.4566	-98.51179	1.770491
21.94353	6830.082	19.67455	-98.42493	1.651839
21.99752	6824.777	19.88208	-98.33802	1.537842
22.05151	6819.462	20.05273	-98.25098	1.429052
22.1055	6814.154	20.14628	-98.16375	1.326188
22.15948	6808.868	20.13252	-98.07626	1.23021
22.21347	6803.607	20.00259	-97.98843	1.142359
22.26745	6798.374	19.76989	-97.90018	1.064228
22.32144	6793.165	19.45337	-97.8115	0.997749
22.37543	6787.971	19.07162	-97.72236	0.9450853
22.42941	6782.787	18.63688	-97.63288	0.9083166
22.4834	6777.603	18.16204	-97.5433	0.8888602
22.53739	6772.407	17.66334	-97.45414	0.8868331
22.59137	6767.189	17.15597	-97.36616	0.9007933
22.64536	6761.948	16.65314	-97.30527	0.8660865
22.69934	6756.686	16.168	-97.24767	0.8312895
22.75333	6751.409	15.70881	-97.19337	0.7960815
22.80732	6746.121	15.27912	-97.14236	0.7601473
22.8613	6740.829	14.87849	-97.09463	0.7231694
22.91529	6735.534	14.50755	-97.0501	0.6848518
22.96928	6730.244	14.17129	-97.00873	0.6449407
23.02326	6724.967	13.87486	-96.97044	0.6032634
23.07725	6719.716	13.61766	-96.93511	0.5596986
23.13124	6714.499	13.39481	-96.90263	0.5142077
23.18522	6709.313	13.19458	-96.87282	0.4667858
23.23921	6704.155	13.00964	-96.8455	0.4174944
23.29319	6699.017	12.83884	-96.82042	0.3664927
23.34718	6693.883	12.68788	-96.79735	0.3141574
23.40117	6688.736	12.56259	-96.77599	0.261358
23.45515	6683.571	12.46772	-96.75608	0.2100827
23.50914	6678.39	12.40327	-96.7373	0.1651601
23.56313	6673.187	12.36778	-96.71938	0.1376224
23.61711	6667.962	12.36037	-96.702	0.1427827
23.6711	6662.721	12.3845	-96.68494	0.1813472
23.72508	6657.479	12.44348	-96.66797	0.2400823
23.77907	6652.257	12.54399	-96.65097	0.3093123
23.83306	6647.065	12.70045	-96.63385	0.3843995
23.88704	6641.909	12.91946	-96.61655	0.4629537
23.94103	6636.779	13.19982	-96.59908	0.5434688
23.99502	6631.659	13.53261	-96.58146	0.6247941
24.049	6626.535	13.90463	-96.56377	0.7059156
24.10299	6621.396	14.29884	-96.5461	0.7858763
24.15698	6616.235	14.69162	-96.52856	0.8637142
24.21096	6611.055	15.06261	-96.51123	0.9384925
24.26495	6605.861	15.39801	-96.49422	1.009279
24.31894	6600.652	15.69056	-96.47762	1.075194
24.37292	6595.428	15.93891	-96.46153	1.135398
24.42691	6590.19	16.14808	-96.44605	1.189143
24.48089	6584.944	16.33196	-96.43126	1.235799
24.53488	6579.695	16.5042	-96.41725	1.27487
24.58887	6574.441	16.68164	-96.40413	1.306025
24.64285	6569.177	16.87731	-96.39199	1.329054
24.69684	6563.898	17.09341	-96.38088	1.343856
24.75083	6558.609	17.32301	-96.37084	1.350408
24.80481	6553.314	17.5621	-96.36189	1.348785
24.8588	6548.021	17.80459	-96.35402	1.339169
24.91278	6542.727	18.04266	-96.34724	1.321855
24.96677	6537.433	18.2729	-96.3415	1.297225
25.02076	6532.142	18.49322	-96.33672	1.265753
25.07474	6526.861	18.70029	-96.33276	1.227962
25.12873	6521.599	18.89143	-96.32947	1.184397
25.18272	6516.36	19.06006	-96.32667	1.135611
25.2367	6511.149	19.19598	-96.3242	1.08213
25.29069	6505.964	19.29368	-96.3219	1.024482
25.34468	6500.798	19.35576	-96.31957	0.9631737
25.39866	6495.647	19.39423	-96.31702	0.8987058
25.45265	6490.505	19.42029	-96.31403	0.8315687
25.50664	6485.36	19.44232	-96.31036	0.7622554
25.56062	6480.21	19.4638	-96.30585	0.6912737
25.61461	6475.05	19.48632	-96.30028	0.6191195
25.66859	6469.883	19.51371	-96.29353	0.546282
25.72258	6464.71	19.54669	-96.28546	0.4731892
25.77657	6459.534	19.58476	-96.27602	0.4001892
25.83055	6454.359	19.62807	-96.26515	0.3275492
25.88454	6449.195	19.66963	-96.25284	0.2554872
25.93853	6444.048	19.6944	-96.2391	0.1841901
25.99251	6438.922	19.68503	-96.22398	0.1138665
26.0465	6433.817	19.62633	-96.20751	0.04492549
26.10048	6428.729	19.50383	-96.18971	0.02537632
26.15447	6423.656	19.30682	-96.17053	0.09140214
26.20846	6418.587	19.02885	-96.14993	0.1569334
26.26244	6413.5	18.6748	-96.12786	0.2211783
26.31643	6408.375	18.25957	-96.10426	0.284021
26.37042	6403.19	17.80556	-96.07908	0.345376
26.4244	6397.946	17.33861	-96.05222	0.4051369
26.47839	6392.659	16.88272	-96.02365	0.4631158
26.53238	6387.346	16.46314	-95.99332	0.5190562
26.58636	6382.025	16.10036	-95.96124	0.5726264
26.64035	6376.709	15.80114	-95.92745	0.6234711
26.69433	6371.413	15.55843	-95.89202	0.6711972
26.74832	6366.149	15.36166	-95.85503	0.7154329
26.80231	6360.927	15.20084	-95.81661	0.7558446
26.85629	6355.741	15.06885	-95.77686	0.7921284
26.91028	6350.587	14.95709	-95.73591	0.8240699
26.96427	6345.456	14.85779	-95.69383	0.8515058
27.01825	6340.337	14.76283	-95.65075	0.8743813
27.07224	6335.217	14.67221	-95.6067	0.8927451
27.12623	6330.078	14.59589	-95.56173	0.9067523
27.18021	6324.909	14.54907	-95.51582	0.9166612
27.2342	6319.708	14.54159	-95.46896	0.9227934
27.28819	6314.48	14.57977	-95.42117	0.9255275
27.34217	6309.238	14.6714	-95.37245	0.925226
27.39616	6303.983	14.82475	-95.32286	0.9221938
27.45014	6298.72	15.04312	-95.27245	0.9166602
27.50413	6293.456	15.32291	-95.22131	0.9087288
27.55812	6288.207	15.65307	-95.16956	0.898406
27.6121	6282.992	16.01903	-95.11738	0.8855874
27.66609	6277.825	16.39887	-95.06494	0.8701108
27.72008	6272.706	16.76585	-95.01244	0.8518004
27.77406	6267.625	17.09706	-94.96006	0.8304806
27.82805	6262.566	17.37642	-94.9079	0.8059955
27.88203	6257.515	17.5948	-94.85605	0.7782171
27.93602	6252.456	17.75578	-94.8046	0.7470227
27.99001	6247.377	17.87066	-94.75363	0.7123512
28.04399	6242.267	17.95848	-94.70318	0.6742321
28.09798	6237.125	18.04015	-94.6533	0.6327741
28.15197	6231.954	18.13095	-94.604	0.5881856
28.20595	6226.764	18.23761	-94.55529	0.5407988
28.25994	6221.562	18.3651	-94.50718	0.4911118
28.31392	6216.358	18.51278	-94.45966	0.4398662
28.36791	6211.165	18.67072	-94.41272	0.3882134
28.4219	6205.995	18.82377	-94.36636	0.338024
28.47589	6200.854	18.95922	-94.32059	0.2923789
28.52987	6195.744	19.0669	-94.27534	0.2563277
28.58386	6190.664	19.14181	-94.23058	0.2369426
28.63784	6185.614	19.18421	-94.18616	0.2406126
28.69183	6180.602	19.19457	-94.14196	0.2680462
28.74582	6175.634	19.17303	-94.09779	0.3139919
28.7998	6170.699	19.12185	-94.05343	0.3718963
28.85379	6165.777	19.05104	-94.00861	0.4367107
28.90778	6160.853	18.97424	-93.96307	0.5049974
28.96176	6155.914	18.90096	-93.91656	0.5743547
29.01575	6150.952	18.83586	-93.8689	0.6429955
29.06973	6145.968	18.7808	-93.81994	0.7094672
29.12372	6140.962	18.73791	-93.76956	0.7725316
29.17771	6135.946	18.70243	-93.71773	0.8311123
29.23169	6130.939	18.66386	-93.66442	0.8842807
29.28568	6125.955	18.61385	-93.60973	0.9312618
29.33967	6120.996	18.55143	-93.55376	0.9714643
29.39365	6116.06	18.47231	-93.4967	1.004468
29.44764	6111.134	18.36597	-93.43878	1.029983
29.50163	6106.21	18.21687	-93.38023	1.047868
29.55561	6101.279	18.01435	-93.32133	1.058126
29.6096	6096.336	17.75927	-93.26235	1.060923
29.66358	6091.376	17.46059	-93.20354	1.05662
29.71757	6086.393	17.13269	-93.14514	1.045718
29.77156	6081.375	16.78846	-93.08731	1.028807
29.82554	6076.32	16.43082	-93.03019	1.006509
29.87953	6071.22	16.06419	-92.97385	0.9794751
29.93352	6066.074	15.69681	-92.91836	0.948305
29.9875	6060.885	15.33721	-92.86378	0.913518
30.04149	6055.662	14.99263	-92.81015	0.8754726
30.09547	6050.423	14.67181	-92.75754	0.8344175
30.14946	6045.184	14.37263	-92.70599	0.7904277
30.20345	6039.956	14.09724	-92.65557	0.7434767
30.25743	6034.753	13.84648	-92.60627	0.6934522
30.31142	6029.589	13.62072	-92.5581	0.6402252
30.36541	6024.479	13.42512	-92.51106	0.5836565
30.41939	6019.426	13.26585	-92.46518	0.5236816
30.47338	6014.42	13.14727	-92.42047	0.4603155
30.52737	6009.442	13.0729	-92.37693	0.3937075
30.58135	6004.469	13.04944	-92.3345	0.3243156
30.63534	5999.483	13.08213	-92.29308	0.2532712
30.68933	5994.481	13.16729	-92.25249	0.183777
30.74331	5989.467	13.29287	-92.2125	0.1265535
30.7973	5984.446	13.44645	-92.1728	0.1134336
30.85128	5979.427	13.6148	-92.13302	0.1621259
30.90527	5974.414	13.78422	-92.09279	0.2410023
30.95926	5969.414	13.94554	-92.05171	0.3313377
31.01324	5964.428	14.09685	-92.00945	0.4271834
31.06723	5959.458	14.2409	-91.96569	0.5260201
31.12122	5954.512	14.38519	-91.92023	0.6263067
31.1752	5949.596	14.53356	-91.87298	0.7268389
31.22919	5944.713	14.69029	-91.82395	0.8265694
31.28317	5939.865	14.86158	-91.77325	0.9245055
31.33716	5935.047	15.0558	-91.72106	1.019754
31.39115	5930.255	15.27596	-91.66756	1.11143
31.44513	5925.485	15.52323	-91.61303	1.198706
31.49912	5920.728	15.78657	-91.55772	1.280792
31.55311	5915.967	16.04649	-91.50195	1.356936
31.60709	5911.184	16.28529	-91.44604	1.426487
31.66108	5906.367	16.49505	-91.39027	1.488888
31.71507	5901.505	16.6766	-91.33493	1.543737
31.76905	5896.598	16.8279	-91.28028	1.590772
31.82304	5891.654	16.94539	-91.22652	1.629876
31.87703	5886.688	17.02866	-91.17384	1.661047
31.93101	5881.713	17.07885	-91.12241	1.684402
31.985	5876.744	17.10364	-91.07239	1.700189
32.03898	5871.793	17.12834	-91.02392	1.70875
32.09297	5866.868	17.17878	-90.97713	1.71053
32.14696	5861.96	17.27332	-90.93212	1.706032
32.20094	5857.063	17.41816	-90.88897	1.695812
32.25493	5852.171	17.60891	-90.8477	1.680464
32.30891	5847.282	17.83699	-90.80833	1.66061
32.3629	5842.395	18.09223	-90.77085	1.636871
32.41689	5837.504	18.3561	-90.73523	1.609824
32.47087	5832.6	18.60728	-90.70142	1.58
32.52486	5827.675	18.83072	-90.66934	1.547842
32.57885	5822.727	19.01799	-90.63895	1.513707
32.63284	5817.765	19.16497	-90.61015	1.477824
32.68682	5812.795	19.27497	-90.58283	1.440335
32.74081	5807.833	19.35998	-90.55688	1.401291
32.79479	5802.888	19.43259	-90.53221	1.360647
32.84878	5797.969	19.50229	-90.50871	1.318319
32.90277	5793.083	19.57666	-90.48627	1.274141
32.95675	5788.226	19.6584	-90.46481	1.227878
33.01074	5783.393	19.74315	-90.44418	1.179273
33.06472	5778.581	19.82687	-90.42429	1.128028
33.11871	5773.784	19.90473	-90.40504	1.073884
33.1727	5768.996	19.97177	-90.38636	1.016592
33.22668	5764.208	20.01975	-90.36821	0.9559923
33.28067	5759.41	20.04327	-90.35056	0.8920252
33.33466	5754.594	20.03729	-90.33341	0.8247828
33.38864	5749.756	20.00285	-90.3167	0.754586
33.44263	5744.9	19.94008	-90.30045	0.6820714
33.49662	5740.024	19.84624	-90.28464	0.6083678
33.5506	5735.135	19.716	-90.26935	0.5354252
33.60459	5730.236	19.54747	-90.25468	0.4665824
33.65857	5725.33	19.34231	-90.24084	0.4074284
33.71256	5720.412	19.10875	-90.22803	0.3665417
33.76655	5715.478	18.85823	-90.21645	0.3539353
33.82053	5710.522	18.60754	-90.20631	0.3752585
33.87452	5705.55	18.37431	-90.19784	0.4271326
33.9285	5700.564	18.17099	-90.19119	0.5008124
33.98249	5695.577	18.00517	-90.18654	0.5879943
34.03648	5690.601	17.87657	-90.18399	0.6827263
34.09047	5685.643	17.77378	-90.1836	0.7809927
34.14445	5680.706	17.68558	-90.18538	0.8800516
34.19844	5675.791	17.60613	-90.18928	0.9779494
34.25243	5670.906	17.53422	-90.19519	1.073273
34.30641	5666.059	17.47654	-90.20298	1.164998
34.3604	5661.257	17.43773	-90.21245	1.252423
34.41438	5656.495	17.42023	-90.22338	1.335084
34.46837	5651.754	17.42471	-90.23553	1.412738
34.52236	5647.017	17.45081	-90.24858	1.485316
34.57634	5642.269	17.49522	-90.26225	1.55289
34.63033	5637.5	17.55691	-90.27622	1.615685
34.68431	5632.708	17.64132	-90.29019	1.674047
34.7383	5627.896	17.75284	-90.30383	1.728393
34.79229	5623.069	17.88984	-90.31684	1.779158
34.84628	5618.239	18.04708	-90.32892	1.826737
34.90026	5613.413	18.21369	-90.33975	1.87145
34.95425	5608.599	18.37664	-90.34904	1.913518
35.00823	5603.801	18.52744	-90.35646	1.953074
35.06222	5599.019	18.66579	-90.36172	1.990117
35.11621	5594.25	18.78987	-90.36452	2.024568
35.17019	5589.489	18.89056	-90.36463	2.05629
35.22418	5584.729	18.95937	-90.36176	2.085104
35.27816	5579.962	18.99301	-90.35566	2.110838
35.33215	5575.176	18.99591	-90.34604	2.133345
35.38614	5570.358	18.97806	-90.3326	2.152509
35.44012	5565.499	18.95199	-90.31507	2.168261
35.49411	5560.594	18.93306	-90.29323	2.18056
35.5481	5555.646	18.93953	-90.2669	2.189393
35.60209	5550.662	18.98578	-90.23603	2.194742
35.65607	5545.652	19.07601	-90.20065	2.196588
35.71006	5540.626	19.20716	-90.16086	2.19493
35.76404	5535.596	19.3698	-90.11687	2.189758
35.81803	5530.578	19.55779	-90.06894	2.181081
35.87202	5525.581	19.76731	-90.01736	2.168943
35.926	5520.612	20.00208	-89.96246	2.153422
35.97999	5515.674	20.26641	-89.90458	2.13465
36.03397	5510.764	20.55768	-89.84402	2.112832
36.08796	5505.873	20.86682	-89.78107	2.08822
36.14195	5500.985	21.18702	-89.71595	2.061163
36.19593	5496.082	21.51278	-89.64886	2.032051
36.24992	5491.154	21.84129	-89.57993	2.001282
36.30391	5486.202	22.16525	-89.50932	1.969289
36.35789	5481.235	22.47972	-89.43713	1.936495
36.41188	5476.258	22.78704	-89.3635	1.903326
36.46587	5471.28	23.09068	-89.2886	1.870194
36.51985	5466.308	23.38769	-89.21255	1.837466
36.57384	5461.344	23.67318	-89.13555	1.805507
36.62782	5456.393	23.94321	-89.05775	1.774617
36.68181	5451.457	24.19921	-88.97934	1.745053
36.7358	5446.535	24.43867	-88.90053	1.716974
36.78978	5441.627	24.65449	-88.8215	1.690442
36.84377	5436.732	24.83639	-88.74243	1.665377
36.89775	5431.847	24.97226	-88.66345	1.6416
36.95174	5426.972	25.05295	-88.58462	1.618809
37.00573	5422.104	25.07708	-88.50595	1.596646
37.05972	5417.241	25.04566	-88.42744	1.574695
37.1137	5412.385	24.96067	-88.34906	1.552542
37.16769	5407.536	24.83277	-88.27076	1.529791
37.22168	5402.699	24.67393	-88.19247	1.506132
37.27566	5397.884	24.49754	-88.11407	1.481328
37.32965	5393.103	24.31451	-88.03545	1.455248
37.38363	5388.372	24.13104	-87.9565	1.427845
37.43762	5383.699	23.94759	-87.87711	1.399155
37.49161	5379.085	23.76677	-87.7972	1.36924
37.54559	5374.53	23.59586	-87.71674	1.33818
37.59958	5370.025	23.44244	-87.63576	1.306062
37.65356	5365.554	23.31317	-87.55428	1.272969
37.70755	5361.099	23.21127	-87.47242	1.239029
37.76154	5356.646	23.1413	-87.39033	1.204396
37.81553	5352.19	23.10632	-87.30818	1.169208
37.86951	5347.725	23.10518	-87.2262	1.133598
37.9235	5343.256	23.12777	-87.1446	1.097637
37.97748	5338.786	23.16473	-87.06363	1.061352
38.03147	5334.312	23.20361	-86.98354	1.024724
38.08546	5329.828	23.23458	-86.9046	0.9876463
38.13944	5325.326	23.25451	-86.82704	0.9499636
38.19343	5320.796	23.26963	-86.75108	0.9114618
38.24741	5316.232	23.2894	-86.6769	0.8718823
38.3014	5311.632	23.32174	-86.60471	0.830951
38.35539	5306.992	23.37551	-86.53471	0.7883815
38.40937	5302.315	23.45717	-86.46706	0.7439106
38.46336	5297.612	23.56605	-86.40192	0.6973307
38.51735	5292.89	23.69851	-86.33949	0.6485295
38.57133	5288.155	23.85227	-86.27988	0.5975681
38.62532	5283.415	24.0261	-86.22324	0.5446877
38.67931	5278.676	24.217	-86.16971	0.4903607
38.73329	5273.947	24.41977	-86.11939	0.4354084
38.78728	5269.232	24.62359	-86.07242	0.3811537
38.84127	5264.524	24.81655	-86.02892	0.3297317
38.89525	5259.817	24.98937	-85.98895	0.2846339
38.94924	5255.106	25.13949	-85.95251	0.251255
39.00322	5250.393	25.26479	-85.91957	0.2364507
39.05721	5245.682	25.36108	-85.89001	0.2451303
39.1112	5240.977	25.43049	-85.86365	0.2762589
39.16518	5236.272	25.48334	-85.84024	0.3243532
39.21917	5231.565	25.53571	-85.8195	0.3838496
39.27316	5226.845	25.60375	-85.80102	0.4509074
39.32714	5222.109	25.69895	-85.78437	0.5231658
39.38113	5217.359	25.82419	-85.76907	0.5991287
39.43512	5212.608	25.97482	-85.7546	0.6777754
39.4891	5207.872	26.13751	-85.74046	0.7583293
39.54309	5203.164	26.29255	-85.72617	0.8401233
39.59707	5198.488	26.42152	-85.71125	0.9225333
39.65106	5193.837	26.50947	-85.69527	1.004903
39.70505	5189.208	26.54687	-85.67786	1.086543
39.75903	5184.593	26.53942	-85.65868	1.166723
39.81302	5179.987	26.50249	-85.63745	1.244659
39.867	5175.385	26.45144	-85.61398	1.31956
39.92099	5170.781	26.40092	-85.58809	1.390656
39.97498	5166.173	26.36173	-85.55971	1.457209
40.02896	5161.558	26.33797	-85.52879	1.518557
40.08295	5156.936	26.3254	-85.49533	1.574137
40.13694	5152.313	26.31212	-85.45941	1.623499
40.19092	5147.698	26.28333	-85.42113	1.666318
40.24491	5143.099	26.23196	-85.38068	1.702398
40.2989	5138.521	26.15957	-85.33824	1.731642
40.35288	5133.966	26.06845	-85.29408	1.75407
40.40687	5129.436	25.95399	-85.24848	1.769783
40.46085	5124.927	25.80579	-85.20174	1.778962
40.51484	5120.432	25.61358	-85.15415	1.781839
40.56883	5115.936	25.37039	-85.10602	1.778675
40.62281	5111.43	25.07341	-85.0576	1.769775
40.6768	5106.912	24.72458	-85.00919	1.755448
40.73079	5102.382	24.33041	-84.96107	1.736003
40.78477	5097.835	23.90313	-84.9135	1.711732
40.83876	5093.267	23.46145	-84.86679	1.682943
40.89275	5088.676	23.01956	-84.82122	1.649933
40.94673	5084.064	22.58587	-84.77707	1.613035
41.00072	5079.434	22.16295	-84.7346	1.57258
41.05471	5074.786	21.75039	-84.69402	1.528922
41.10869	5070.128	21.34511	-84.65553	1.482401
41.16268	5065.474	20.94856	-84.61926	1.433354
41.21666	5060.833	20.56308	-84.58531	1.382119
41.27065	5056.213	20.19273	-84.55372	1.329015
41.32464	5051.616	19.84569	-84.52442	1.274329
41.37862	5047.043	19.53669	-84.49731	1.218351
41.43261	5042.494	19.283	-84.47214	1.161333
41.4866	5037.967	19.09819	-84.44866	1.103527
41.54058	5033.463	18.98726	-84.42657	1.045151
41.59457	5028.969	18.94705	-84.4055	0.9863744
41.64856	5024.475	18.96449	-84.38512	0.9273516
41.70254	5019.971	19.02662	-84.36502	0.8682153
41.75653	5015.456	19.12569	-84.34485	0.8091373
41.81051	5010.935	19.25922	-84.32423	0.7503543
41.8645	5006.42	19.42979	-84.30284	0.6922078
41.91849	5001.917	19.64304	-84.28039	0.6352357
41.97247	4997.432	19.90263	-84.25664	0.5802474
42.02646	4992.964	20.20321	-84.23135	0.5284784
42.08044	4988.507	20.53122	-84.20433	0.4817075
42.13443	4984.05	20.86934	-84.17538	0.4423707
42.18842	4979.582	21.19847	-84.14436	0.4133846
42.2424	4975.092	21.5089	-84.11115	0.3975259
42.29639	4970.577	21.79332	-84.07568	0.3964208
42.35038	4966.038	22.04478	-84.03793	0.4095693
42.40437	4961.478	22.25975	-83.99792	0.4343872
42.45835	4956.905	22.43675	-83.9557	0.4671112
42.51234	4952.325	22.57582	-83.91134	0.5038726
42.56632	4947.738	22.68286	-83.86489	0.5412556
42.62031	4943.15	22.76258	-83.81643	0.5764937
42.6743	4938.565	22.81332	-83.76604	0.6074055
42.72828	4933.979	22.82627	-83.71384	0.6323202
42.78227	4929.394	22.79875	-83.65999	0.6499478
42.83625	4924.813	22.73492	-83.60464	0.659336
42.89024	4920.242	22.64503	-83.54798	0.6598295
42.94423	4915.681	22.53919	-83.49024	0.6510357
42.99821	4911.129	22.43022	-83.43162	0.6328179
43.0522	4906.582	22.33243	-83.37234	0.6052699
43.10619	4902.036	22.25869	-83.31262	0.5686928
43.16017	4897.487	22.22091	-83.25265	0.5235782
43.21416	4892.925	22.22264	-83.19264	0.4705807
43.26815	4888.343	22.26066	-83.1328	0.4105083
43.32213	4883.74	22.33496	-83.07327	0.3443021
43.37612	4879.117	22.44441	-83.01418	0.2731036
43.4301	4874.484	22.58117	-82.95565	0.1985576
43.48409	4869.854	22.73353	-82.89771	0.1243056
43.53808	4865.246	22.89391	-82.84035	0.06759296
43.59206	4860.674	23.05758	-82.78352	0.09017365
43.64605	4856.146	23.21765	-82.7271	0.1640317
43.70004	4851.668	23.36932	-82.67095	0.247125
43.75402	4847.227	23.5119	-82.61488	0.3320172
43.80801	4842.811	23.64526	-82.55872	0.4165107
43.862	4838.407	23.77072	-82.50225	0.4994163
43.91598	4834.007	23.89018	-82.44531	0.5798531
43.96997	4829.607	24.00572	-82.38779	0.6570638
44.02396	4825.208	24.11287	-82.32954	0.7303727
44.07794	4820.811	24.20689	-82.27045	0.7991724
44.13193	4816.413	24.28587	-82.21046	0.8628978
44.18591	4812.012	24.35041	-82.14947	0.92104
44.2399	4807.609	24.39996	-82.08746	0.9731675
44.29389	4803.206	24.42699	-82.02448	1.018919
44.34787	4798.808	24.41785	-81.96062	1.058051
44.40186	4794.419	24.35638	-81.89603	1.090418
44.45584	4790.043	24.22815	-81.83092	1.115983
44.50983	4785.688	24.02511	-81.76549	1.134801
44.56382	4781.359	23.7525	-81.70001	1.147036
44.61781	4777.065	23.42056	-81.63472	1.152946
44.67179	4772.805	23.04245	-81.56989	1.152879
44.72578	4768.569	22.63107	-81.50577	1.147271
44.77976	4764.345	22.20306	-81.4426	1.136613
44.83375	4760.119	21.76961	-81.38062	1.121431
44.88774	4755.875	21.33476	-81.32006	1.102256
44.94172	4751.6	20.89893	-81.26114	1.079553
44.99571	4747.282	20.46935	-81.20403	1.053734
45.04969	4742.918	20.05621	-81.14893	1.025114
45.10368	4738.513	19.67311	-81.09596	0.9939148
45.15767	4734.084	19.32992	-81.04527	0.9602956
45.21165	4729.651	19.03321	-80.99698	0.9243039
45.26564	4725.227	18.79273	-80.95118	0.8859202
45.31963	4720.814	18.62015	-80.90794	0.8450727
45.37362	4716.413	18.52252	-80.86729	0.8016815
45.4276	4712.022	18.4988	-80.8292	0.7556579
45.48159	4707.641	18.53905	-80.79359	0.7069349
45.53557	4703.265	18.6298	-80.76028	0.6554444
45.58956	4698.887	18.75467	-80.72906	0.6011894
45.64355	4694.502	18.89899	-80.6996	0.5442327
45.69753	4690.107	19.05394	-80.67155	0.4847338
45.75152	4685.701	19.21633	-80.64452	0.4229788
45.8055	4681.277	19.38211	-80.61806	0.3593998
45.85949	4676.838	19.54907	-80.59175	0.29468
45.91348	4672.387	19.71457	-80.56516	0.2300031
45.96746	4667.93	19.87604	-80.5379	0.16785
46.02145	4663.478	20.02946	-80.50961	0.1149764
46.07544	4659.047	20.17279	-80.47998	0.09116833
46.12942	4654.651	20.30717	-80.44873	0.1157185
46.18341	4650.3	20.4337	-80.41562	0.1674377
46.2374	4646	20.55371	-80.38046	0.2268543
46.29138	4641.754	20.66718	-80.34307	0.2872983
46.34537	4637.554	20.76762	-80.30338	0.3461334
46.39935	4633.381	20.84787	-80.26134	0.4019012
46.45334	4629.216	20.89977	-80.21695	0.453575
46.50733	4625.033	20.91843	-80.17024	0.5002939
46.56131	4620.815	20.89594	-80.12128	0.5413347
46.6153	4616.555	20.82456	-80.07011	0.5760686
46.66928	4612.255	20.70446	-80.01685	0.6039767
46.72327	4607.923	20.55423	-79.96156	0.6246564
46.77726	4603.565	20.40412	-79.90434	0.63784
46.83125	4599.19	20.2803	-79.84531	0.6434016
46.88523	4594.805	20.20345	-79.78456	0.6413711
46.93922	4590.416	20.18458	-79.72224	0.6319305
46.99321	4586.029	20.23339	-79.65851	0.6154368
47.04719	4581.64	20.34834	-79.59354	0.5924205
47.10118	4577.245	20.52015	-79.52753	0.5635915
47.15516	4572.844	20.73491	-79.46072	0.5298362
47.20915	4568.436	20.98355	-79.39336	0.4922949
47.26314	4564.024	21.26109	-79.32568	0.4524109
47.31712	4559.612	21.56212	-79.25787	0.411993
47.37111	4555.203	21.88113	-79.19014	0.3733965
47.42509	4550.8	22.2105	-79.12266	0.3396005
47.47908	4546.409	22.54131	-79.05553	0.314133
47.53307	4542.032	22.86794	-78.98885	0.3005242
47.58706	4537.675	23.18177	-78.92265	0.3010826
47.64104	4533.339	23.47429	-78.85694	0.3157861
47.69503	4529.028	23.73682	-78.79167	0.3423211
47.74901	4524.744	23.96052	-78.72677	0.3773477
47.803	4520.492	24.14254	-78.66209	0.4176487
47.85699	4516.274	24.28	-78.59748	0.460638
47.91097	4512.093	24.36667	-78.53279	0.5043967
47.96496	4507.944	24.39528	-78.46786	0.5475065
48.01894	4503.822	24.36009	-78.40255	0.5889063
48.07293	4499.721	24.26128	-78.33677	0.6277661
48.12692	4495.633	24.1028	-78.27043	0.6634159
48.1809	4491.551	23.89246	-78.20348	0.6953225
48.23489	4487.469	23.6366	-78.1359	0.7230322
48.28888	4483.384	23.34079	-78.06776	0.7461726
48.34286	4479.295	23.01651	-77.99915	0.7644713
48.39685	4475.204	22.67848	-77.93021	0.7777237
48.45084	4471.105	22.33942	-77.86116	0.7858508
48.50482	4466.993	22.00732	-77.79225	0.7888814
48.55881	4462.861	21.68319	-77.72375	0.786987
48.6128	4458.705	21.3646	-77.65597	0.7804833
48.66678	4454.525	21.05114	-77.58919	0.7697949
48.72077	4450.328	20.74794	-77.5237	0.7554451
48.77475	4446.121	20.45944	-77.45982	0.738032
48.82874	4441.909	20.19552	-77.39778	0.7182019
48.88273	4437.694	19.96116	-77.33787	0.6966058
48.93671	4433.482	19.7628	-77.28029	0.6739207
48.9907	4429.28	19.59899	-77.22526	0.6507786
49.04469	4425.09	19.46827	-77.173	0.6278132
49.09867	4420.913	19.36123	-77.12374	0.6055868
49.15266	4416.743	19.27394	-77.07771	0.5845823
49.20665	4412.577	19.20349	-77.03513	0.565212
49.26063	4408.41	19.15202	-76.99616	0.5478089
49.31462	4404.243	19.12205	-76.96092	0.5326161
49.3686	4400.072	19.11084	-76.92945	0.5197625
49.42259	4395.899	19.10703	-76.90177	0.5092626
49.47658	4391.729	19.10243	-76.87783	0.5010605
49.53056	4387.57	19.09142	-76.85756	0.4950475
49.58455	4383.422	19.07283	-76.84083	0.4911144
49.63853	4379.289	19.0435	-76.82744	0.4891565
49.69252	4375.166	18.99929	-76.81717	0.4890916
49.74651	4371.05	18.93721	-76.80972	0.4908691
49.8005	4366.938	18.85741	-76.80478	0.4943842
49.85448	4362.83	18.7648	-76.80197	0.499453
49.90847	4358.725	18.66703	-76.80092	0.5057486
49.96246	4354.617	18.57408	-76.8012	0.5128203
50.01644	4350.507	18.50087	-76.80238	0.5201063
50.07043	4346.396	18.46384	-76.804	0.5270066
50.12441	4342.289	18.47512	-76.8056	0.5329167
50.1784	4338.187	18.5414	-76.80666	0.5372754
50.23239	4334.094	18.65939	-76.80673	0.539587
50.28637	4330.01	18.822	-76.80535	0.539387
50.34036	4325.937	19.02262	-76.80212	0.5362732
50.39434	4321.869	19.24964	-76.79669	0.5298787
50.44833	4317.8	19.49169	-76.7888	0.5199178
50.50232	4313.722	19.73962	-76.77823	0.5061501
50.5563	4309.634	19.99051	-76.76483	0.488374
50.61029	4305.534	20.24496	-76.7485	0.466459
50.66428	4301.422	20.50118	-76.72921	0.4403316
50.71826	4297.303	20.75473	-76.70692	0.4100061
50.77225	4293.176	21.0049	-76.68165	0.3755868
50.82624	4289.036	21.25503	-76.65343	0.3372795
50.88022	4284.877	21.51057	-76.62233	0.2954138
50.93421	4280.699	21.77079	-76.58836	0.250445
50.98819	4276.504	22.03409	-76.55155	0.2030566
51.04218	4272.297	22.29682	-76.51196	0.1543897
51.09617	4268.085	22.55151	-76.46962	0.1069887
51.15015	4263.875	22.78553	-76.42464	0.06934235
51.20414	4259.677	22.98515	-76.37714	0.06695419
51.25813	4255.494	23.14438	-76.32722	0.1041535
51.31211	4251.323	23.26428	-76.27505	0.1552883
51.3661	4247.156	23.3496	-76.22074	0.210566
51.42009	4242.987	23.40476	-76.1644	0.2672868
51.47407	4238.811	23.4338	-76.10612	0.3243473
51.52806	4234.626	23.43822	-76.04604	0.3811347
51.58205	4230.43	23.4165	-75.98423	0.4371966
51.63603	4226.218	23.36907	-75.92075	0.4922008
51.69002	4221.983	23.29884	-75.85563	0.5458704
51.744	4217.729	23.20911	-75.78894	0.5980121
51.79799	4213.465	23.10124	-75.72072	0.6484979
51.85198	4209.209	22.97321	-75.65102	0.6972579
51.90596	4204.974	22.81877	-75.57993	0.7442569
51.95995	4200.766	22.62947	-75.50748	0.7894717
52.01394	4196.588	22.40151	-75.43375	0.8328762
52.06792	4192.439	22.13253	-75.35881	0.8744468
52.12191	4188.311	21.83101	-75.2827	0.9141396
52.1759	4184.206	21.50717	-75.20541	0.9518833
52.22988	4180.124	21.17197	-75.12696	0.9875877
52.28387	4176.069	20.83827	-75.04732	1.021165
52.33785	4172.039	20.51275	-74.96647	1.052527
52.39184	4168.03	20.193	-74.88444	1.081569
52.44583	4164.032	19.8756	-74.80128	1.108185
52.49981	4160.035	19.55756	-74.71706	1.132282
52.5538	4156.027	19.24496	-74.63189	1.153764
52.60778	4152.002	18.94229	-74.5459	1.172545
52.66177	4147.966	18.65114	-74.45924	1.188501
52.71576	4143.931	18.37801	-74.37214	1.201496
52.76974	4139.912	18.1291	-74.28478	1.211323
52.82373	4135.922	17.90509	-74.19739	1.217735
52.87772	4131.968	17.70123	-74.11015	1.220459
52.93171	4128.051	17.51457	-74.02322	1.219206
52.98569	4124.164	17.34931	-73.93675	1.213679
53.03968	4120.299	17.20937	-73.85086	1.203629
53.09366	4116.448	17.09769	-73.76566	1.188878
53.14765	4112.601	17.01371	-73.68124	1.169341
53.20163	4108.752	16.95675	-73.59769	1.145016
53.25562	4104.896	16.92803	-73.51511	1.115997
53.30961	4101.027	16.93018	-73.43359	1.082469
53.36359	4097.142	16.96282	-73.3532	1.0447
53.41758	4093.244	17.026	-73.27398	1.003042
53.47157	4089.341	17.11833	-73.19597	0.9579325
53.52555	4085.442	17.23822	-73.11922	0.9098791
53.57954	4081.557	17.38256	-73.04374	0.8595022
53.63353	4077.684	17.54444	-72.96956	0.8075423
53.68751	4073.813	17.71024	-72.89668	0.7548752
53.7415	4069.938	17.86656	-72.82512	0.7024688
53.79549	4066.05	18.00508	-72.75489	0.6513785
53.84947	4062.148	18.12274	-72.68597	0.6026821
53.90346	4058.237	18.21856	-72.61835	0.5573902
53.95744	4054.324	18.29293	-72.55201	0.5163538
54.01143	4050.414	18.34908	-72.48695	0.4801589
54.06542	4046.505	18.398	-72.42314	0.4490537
54.1194	4042.599	18.45123	-72.36055	0.4229054
54.17339	4038.697	18.51401	-72.29911	0.4011714
54.22738	4034.798	18.588	-72.23874	0.3829992
54.28136	4030.9	18.67243	-72.17935	0.3672857
54.33535	4026.995	18.76266	-72.12082	0.3528873
54.38934	4023.086	18.85134	-72.06305	0.338769
54.44332	4019.176	18.92839	-72.00592	0.3241012
54.49731	4015.264	18.9865	-71.9493	0.3083781
54.55129	4011.348	19.0219	-71.89307	0.2915123
54.60528	4007.425	19.03073	-71.83717	0.2739263
54.65927	4003.494	19.0134	-71.78152	0.2566963
54.71325	3999.559	18.97722	-71.72614	0.2416783
54.76724	3995.626	18.92821	-71.67104	0.2314592
54.82122	3991.701	18.86993	-71.61627	0.2289703
54.87521	3987.789	18.80657	-71.56188	0.2365392
54.9292	3983.887	18.74909	-71.50797	0.2549067
54.98318	3979.99	18.70901	-71.45461	0.2830619
55.03717	3976.093	18.69462	-71.40187	0.3189771
55.09116	3972.196	18.71008	-71.34985	0.3604411
55.14515	3968.298	18.75547	-71.29863	0.4054965
55.19913	3964.395	18.82948	-71.24828	0.4525152
55.25312	3960.486	18.92979	-71.19888	0.500174
55.3071	3956.57	19.05364	-71.15047	0.5473701
55.36109	3952.651	19.19582	-71.10302	0.5931492
55.41508	3948.729	19.34633	-71.05653	0.6366664
55.46906	3944.807	19.48957	-71.01093	0.6771768
55.52305	3940.89	19.61098	-70.96615	0.7140146
55.57703	3936.99	19.70041	-70.92208	0.7465871
55.63102	3933.117	19.7531	-70.87864	0.7743917
55.68501	3929.275	19.76428	-70.83573	0.7970322
55.73899	3925.463	19.73439	-70.79325	0.8142303
55.79298	3921.681	19.66824	-70.7511	0.8258598
55.84697	3917.921	19.57302	-70.70918	0.8319089
55.90095	3914.174	19.45407	-70.66736	0.832508
55.95494	3910.431	19.3178	-70.62556	0.8279003
56.00893	3906.686	19.16661	-70.58369	0.8184277
56.06291	3902.938	19.00641	-70.54165	0.8045096
56.1169	3899.191	18.84165	-70.49935	0.786632
56.17088	3895.451	18.67149	-70.45668	0.7653354
56.22487	3891.728	18.48577	-70.41351	0.7412306
56.27886	3888.024	18.27369	-70.36969	0.7149613
56.33284	3884.341	18.0274	-70.32505	0.6872393
56.38683	3880.679	17.74046	-70.27943	0.658824
56.44081	3877.035	17.40703	-70.23265	0.6305069
56.4948	3873.398	17.03153	-70.18452	0.6031049
56.54879	3869.757	16.62714	-70.13486	0.5774302
56.60278	3866.098	16.21332	-70.08353	0.5542344
56.65676	3862.409	15.81305	-70.03033	0.5341749
56.71075	3858.679	15.44816	-69.97517	0.5177355
56.76474	3854.912	15.13413	-69.91796	0.5051768
56.81872	3851.117	14.87961	-69.85864	0.4964896
56.87271	3847.309	14.68673	-69.79721	0.491409
56.92669	3843.501	14.55783	-69.7337	0.4894296
56.98068	3839.704	14.49218	-69.66822	0.4898971
57.03467	3835.926	14.48641	-69.60088	0.4920635
57.08865	3832.173	14.53362	-69.53183	0.4951689
57.14264	3828.439	14.62298	-69.46128	0.4984395
57.19662	3824.715	14.74008	-69.38945	0.5011436
57.25061	3820.989	14.87514	-69.31658	0.502556
57.3046	3817.254	15.02566	-69.2429	0.50203
57.35859	3813.504	15.19917	-69.16864	0.4990111
57.41257	3809.731	15.4061	-69.09396	0.4930868
57.46656	3805.93	15.65014	-69.01902	0.4839948
57.52054	3802.097	15.92841	-68.94389	0.4716805
57.57453	3798.235	16.23341	-68.86863	0.4562869
57.62852	3794.35	16.55345	-68.79324	0.438216
57.6825	3790.453	16.87427	-68.7177	0.4181026
57.73649	3786.555	17.18384	-68.64193	0.3968126
57.79047	3782.669	17.4728	-68.56583	0.3754769
57.84446	3778.806	17.7351	-68.4893	0.3553961
57.89845	3774.974	17.96476	-68.41221	0.3379848
57.95243	3771.174	18.15359	-68.33446	0.3245423
58.00642	3767.407	18.29976	-68.25589	0.316007
58.06041	3763.666	18.40917	-68.17638	0.3126454
58.1144	3759.941	18.49181	-68.09576	0.3139668
58.16838	3756.224	18.55622	-68.01391	0.3187765
58.22237	3752.508	18.60641	-67.93063	0.3254169
58.27635	3748.785	18.64313	-67.84573	0.3320902
58.33034	3745.052	18.66046	-67.75901	0.337053
58.38433	3741.31	18.64861	-67.6703	0.3388016
58.43831	3737.564	18.59764	-67.57941	0.3360799
58.4923	3733.824	18.50176	-67.48619	0.3279586
58.54628	3730.105	18.35898	-67.3905	0.3138447
58.60027	3726.418	18.17215	-67.29221	0.2935686
58.65426	3722.768	17.95191	-67.19122	0.2674564
58.70824	3719.156	17.71245	-67.08748	0.236629
58.76223	3715.585	17.46551	-66.9809	0.2035359
58.81622	3712.056	17.22194	-66.87145	0.1732745
58.8702	3708.566	16.99512	-66.75911	0.1553371
58.92419	3705.111	16.79888	-66.64392	0.1614762
58.97818	3701.68	16.64255	-66.52594	0.1948756
59.03216	3698.265	16.53297	-66.40529	0.2481683
59.08615	3694.857	16.4729	-66.28209	0.3132829
59.14013	3691.448	16.45701	-66.15654	0.3850392
59.19412	3688.028	16.47422	-66.02889	0.4602104
59.24811	3684.59	16.50839	-65.8994	0.5365267
59.30209	3681.131	16.54556	-65.76839	0.6121729
59.35608	3677.648	16.57908	-65.63619	0.6856101
59.41006	3674.144	16.60896	-65.50317	0.7554674
59.46405	3670.622	16.64042	-65.36967	0.8205177
59.51804	3667.084	16.68051	-65.23599	0.8796852
59.57203	3663.539	16.73175	-65.10245	0.9319995
59.62601	3659.994	16.79145	-64.96926	0.9766537
59.68	3656.458	16.8565	-64.83665	1.012972
59.73399	3652.933	16.9269	-64.70471	1.040434
59.78797	3649.418	17.00862	-64.57352	1.058693
59.84196	3645.913	17.10596	-64.44309	1.06761
59.89594	3642.415	17.21352	-64.31338	1.067252
59.94993	3638.919	17.32172	-64.18428	1.057866
60.00392	3635.422	17.42057	-64.05563	1.039867
60.0579	3631.916	17.49863	-63.9272	1.013826
60.11189	3628.399	17.54483	-63.79875	0.9804779
60.16587	3624.869	17.55048	-63.66998	0.9407176
60.21986	3621.331	17.51345	-63.54058	0.8956269
60.27385	3617.792	17.43344	-63.41022	0.8464824
60.32784	3614.263	17.31024	-63.27857	0.7947668
60.38182	3610.753	17.14217	-63.14529	0.7421687
60.43581	3607.268	16.92403	-63.01003	0.6905707
60.48979	3603.815	16.65159	-62.87244	0.6420027
60.54378	3600.399	16.32903	-62.73216	0.5985609
60.59777	3597.022	15.96879	-62.58881	0.5622418
60.65175	3593.677	15.58938	-62.44199	0.5346614
60.70574	3590.357	15.2065	-62.29128	0.5167332
60.75972	3587.053	14.83445	-62.13625	0.5083913
60.81371	3583.757	14.48602	-61.97642	0.5085722
60.8677	3580.465	14.17331	-61.81131	0.5154639
60.92168	3577.17	13.90223	-61.64047	0.5268721
60.97567	3573.867	13.67397	-61.46341	0.5405923
61.02966	3570.553	13.48635	-61.27968	0.5546277
61.08364	3567.228	13.33826	-61.08881	0.5672989
61.13763	3563.898	13.22934	-60.89038	0.5772612
61.19162	3560.565	13.15855	-60.68398	0.5834912
61.2456	3557.232	13.1237	-60.46922	0.5852636
61.29959	3553.904	13.12427	-60.2458	0.5821208
61.35358	3550.587	13.15687	-60.0135	0.5738402
61.40756	3547.281	13.22122	-59.77213	0.5604046
61.46155	3543.982	13.32029	-59.5216	0.5419865
61.51553	3540.684	13.45502	-59.26182	0.5189354
61.56952	3537.384	13.62341	-58.99279	0.4917432
61.62351	3534.079	13.82421	-58.71451	0.4610318
61.67749	3530.772	14.05447	-58.42702	0.4275601
61.73148	3527.462	14.30992	-58.13034	0.3922832
61.78547	3524.153	14.58879	-57.82449	0.3564004
61.83945	3520.854	14.88698	-57.50947	0.32141
61.89344	3517.574	15.19911	-57.18523	0.2892295
61.94743	3514.321	15.51785	-56.85173	0.2622001
62.00141	3511.103	15.83541	-56.50891	0.2429228
62.0554	3507.923	16.14205	-56.15667	0.2336426
62.10938	3504.782	16.42349	-55.7949	0.2352594
62.16337	3501.68	16.6665	-55.4235	0.246763
62.21736	3498.61	16.86233	-55.04235	0.2657025
62.27134	3495.57	17.01068	-54.65134	0.2891864
62.32533	3492.554	17.11734	-54.25035	0.3146097
62.37931	3489.559	17.18538	-53.83928	0.3399305
62.4333	3486.577	17.21108	-53.41799	0.3636075
62.48729	3483.602	17.19318	-52.98633	0.3845259
62.54128	3480.635	17.13591	-52.54415	0.4018917
62.59526	3477.677	17.0498	-52.09127	0.4151143
62.64925	3474.736	16.94681	-51.62746	0.4237863
62.70324	3471.818	16.83836	-51.15248	0.4276128
62.75722	3468.928	16.73439	-50.66602	0.4264304
62.81121	3466.07	16.6426	-50.16773	0.4201432
62.86519	3463.243	16.56637	-49.65723	0.4087725
62.91918	3460.448	16.50568	-49.13405	0.3924351
62.97317	3457.681	16.46012	-48.59772	0.371336
63.02715	3454.945	16.43198	-48.04769	0.3457728
63.08114	3452.241	16.41972	-47.48338	0.3161213
63.13512	3449.568	16.41943	-46.90415	0.2828145
63.18911	3446.923	16.42388	-46.30934	0.2464076
63.2431	3444.31	16.42673	-45.69823	0.2075594
63.29708	3441.734	16.42209	-45.07011	0.1672139
63.35107	3439.199	16.40816	-44.42425	0.1269291
63.40506	3436.705	16.38385	-43.75993	0.09011172
63.45904	3434.248	16.34921	-43.07643	0.06617273
63.51303	3431.828	16.30153	-42.37299	0.07114152
63.56702	3429.445	16.24592	-41.64889	0.1005642
63.621	3427.104	16.19122	-40.9034	0.1387689
63.67499	3424.81	16.14631	-40.13578	0.178875
63.72897	3422.566	16.11363	-39.34529	0.2182788
63.78296	3420.376	16.09502	-38.53119	0.2556788
63.83695	3418.243	16.0919	-37.69265	0.2902424
63.89093	3416.161	16.10317	-36.82888	0.3214086
63.94492	3414.126	16.12018	-35.93901	0.3488129
63.99891	3412.132	16.13372	-35.02217	0.3722667
64.05289	3410.17	16.13642	-34.07745	0.391837
64.10688	3408.233	16.12454	-33.10393	0.4078208
64.16087	3406.316	16.09473	-32.1007	0.4208603
64.21485	3404.414	16.04817	-31.06683	0.432015
64.26884	3402.527	15.98837	-30.00135	0.4427693
64.32282	3400.663	15.92079	-28.90326	0.4550776
64.37681	3398.833	15.84999	-27.77159	0.4712402
64.43079	3397.042	15.77975	-26.60529	0.4936848
64.48479	3395.296	15.71118	-25.40332	0.52462
64.53877	3393.596	15.64341	-24.16464	0.5656784
64.59276	3391.944	15.57585	-22.88822	0.6177416
64.64674	3390.34	15.50932	-21.57303	0.6809046
64.70073	3388.783	15.44693	-20.21805	0.7546196
64.75471	3387.275	15.39351	-18.82227	0.8379095
64.8087	3385.817	15.35197	-17.38471	0.9295458
64.86269	3384.412	15.31914	-15.90436	1.028223
64.91667	3383.06	15.28992	-14.38019	1.132633
64.97066	3381.769	15.26311	-12.81114	1.241577
65.02465	3380.545	15.23783	-11.19617	1.353886
65.07864	3379.39	15.21163	-9.53419	1.468553
65.13262	3378.305	15.18226	-7.824032	1.584683
65.18661	3377.295	15.14746	-6.064553	1.701422
65.24059	3376.368	15.10471	-4.254529	1.817985
65.29458	3375.544	15.05201	-2.392702	1.933644
65.34856	3374.835	14.99084	-0.4777671	2.047734
65.40255	3374.253	14.92699	1.491663	2.159653
65.45654	3373.805	14.86458	3.517009	2.268841
65.51052	3373.491	14.8091	5.599777	2.374846
65.56451	3373.304	14.76839	7.74152	2.477231
65.6185	3373.237	14.74805	9.94383	2.575669
65.67249	3373.285	14.75086	12.20838	2.669919
65.72647	3373.446	14.77298	14.53689	2.759851
65.78046	3373.716	14.81151	16.93113	2.845507
65.83444	3374.094	14.86956	19.3929	2.926934
65.88843	3374.581	14.95116	21.92408	3.004423
65.94241	3375.186	15.0556	24.5266	3.078338
65.9964	3375.917	15.17998	27.20244	3.149246
66.05038	3376.787	15.31599	29.95358	3.217768
66.10438	3377.805	15.45283	32.78207	3.28463
66.15836	3378.979	15.58506	35.68996	3.350627
66.21235	3380.312	15.71363	38.67942	3.416548
66.26633	3381.802	15.84274	41.75255	3.483187
66.32032	3383.448	15.97766	44.91161	3.551356
66.37431	3385.251	16.11683	48.15883	3.6217
66.42829	3387.216	16.26234	51.49648	3.694824
66.48228	3389.345	16.41633	54.92685	3.771187
66.53626	3391.642	16.58168	58.45227	3.85113
66.59025	3394.109	16.76052	62.07504	3.934947
66.64424	3396.746	16.95625	65.79742	4.022593
66.69823	3399.561	17.17054	69.62163	4.114207
66.75221	3402.559	17.40793	73.54996	4.209574
66.8062	3405.753	17.66651	77.5845	4.308634
66.86018	3409.147	17.94059	81.72736	4.411085
66.91417	3412.757	18.22021	85.98067	4.516804
66.96815	3416.597	18.49673	90.3465	4.625509
67.02214	3420.676	18.76334	94.82688	4.736977
67.07613	3424.994	19.01985	99.42387	4.850994
67.13011	3429.548	19.26739	104.1396	4.967228
67.1841	3434.328	19.51033	108.9763	5.085407
67.23809	3439.332	19.7457	113.9359	5.205316
67.29208	3444.554	19.96968	119.0207	5.326603
67.34606	3449.99	20.18023	124.233	5.448946
67.40005	3455.639	20.37819	129.575	5.572027
67.45403	3461.505	20.56818	135.0493	5.695583
67.50802	3467.597	20.76278	140.6582	5.819216
67.562	3473.923	20.97534	146.4044	5.942546
67.61599	3480.494	21.21661	152.2904	6.065443
67.66998	3487.329	21.48675	158.319	6.187475
67.72397	3494.446	21.77793	164.4931	6.308591
67.77795	3501.862	22.07979	170.8153	6.428501
67.83194	3509.589	22.38486	177.2885	6.5471
67.88593	3517.635	22.68918	183.9155	6.664327
67.93991	3526.011	22.99215	190.6991	6.780035
67.9939	3534.731	23.29263	197.6416	6.894334
68.04788	3543.803	23.58623	204.7455	7.007218
68.10187	3553.24	23.87228	212.013	7.118731
68.15585	3563.058	24.15336	219.446	7.228973
68.20984	3573.271	24.43946	227.0459	7.338022
68.26383	3583.887	24.74373	234.8141	7.446126
68.31782	3594.921	25.07484	242.7509	7.553233
68.3718	3606.389	25.4392	250.8566	7.659415
68.42579	3618.31	25.84052	259.1307	7.76487
68.47977	3630.698	26.27657	267.5721	7.869638
68.53376	3643.564	26.73838	276.1789	7.973679
68.58775	3656.92	27.21426	284.9489	8.077289
68.64173	3670.776	27.69239	293.8788	8.180378
68.69572	3685.144	28.16043	302.9648	8.28305
68.7497	3700.035	28.60782	312.2023	8.385164
68.8037	3715.451	29.02999	321.5861	8.486814
68.85768	3731.392	29.42783	331.1102	8.587973
68.91167	3747.862	29.80078	340.7679	8.688531
68.96565	3764.861	30.15169	350.5522	8.788406
69.01964	3782.393	30.48866	360.4553	8.887329
69.07362	3800.458	30.82566	370.4688	8.985097
69.12761	3819.057	31.17837	380.584	9.081089
69.18159	3838.196	31.55828	390.7916	9.174804
69.23558	3857.879	31.96995	401.0819	9.265648
69.28957	3878.113	32.41383	411.4446	9.352835
69.34356	3898.905	32.88345	421.8691	9.43547
69.39754	3920.268	33.36998	432.3443	9.512698
69.45153	3942.225	33.86264	442.8586	9.583471
69.50552	3964.798	34.35633	453.4003	9.646809
69.5595	3988.012	34.84095	463.9571	9.701653
69.61349	4011.893	35.30755	474.5165	9.747
69.66747	4036.467	35.74606	485.0656	9.781817
69.72146	4061.756	36.15597	495.5914	9.805073
69.77544	4087.781	36.54254	506.0805	9.815744
69.82943	4114.549	36.91486	516.519	9.812768
69.88342	4142.075	37.28156	526.8932	9.79512
69.93741	4170.367	37.6567	537.1885	9.761827
69.99139	4199.447	38.05494	547.3904	9.711784
70.04538	4229.329	38.49464	557.484	9.643993
70.09937	4260.027	38.98811	567.4542	9.557339
70.15335	4291.556	39.54221	577.2854	9.450885
70.20734	4323.937	40.15872	586.9619	9.323561
70.26132	4357.183	40.83304	596.4676	9.174587
70.31531	4391.308	41.5563	605.7859	9.003275
70.36929	4426.314	42.31671	614.9	8.809073
70.42329	4462.199	43.10055	623.7927	8.591518
70.47727	4498.942	43.89495	632.4464	8.350357
70.53126	4536.52	44.68705	640.8432	8.085541
70.58524	4574.894	45.46432	648.9649	7.797194
70.63923	4614.022	46.21125	656.793	7.485735
70.69321	4653.856	46.91466	664.309	7.151541
70.7472	4694.338	47.56951	671.4941	6.795778
70.80119	4735.406	48.17507	678.3297	6.419597
70.85517	4776.998	48.73518	684.7974	6.024126
70.90916	4819.055	49.25161	690.879	5.611223
70.96315	4861.521	49.72773	696.5568	5.183157
71.01714	4904.341	50.17212	701.8135	4.741977
71.07112	4947.466	50.59834	706.6329	4.290984
71.12511	4990.859	51.01741	710.9995	3.833941
71.17909	5034.492	51.43765	714.8983	3.376476
71.23308	5078.343	51.85971	718.316	2.92557
71.28706	5122.389	52.2771	721.2404	2.492777
71.34105	5166.614	52.68365	723.6602	2.096833
71.39503	5211.01	53.08011	725.5657	1.769646
71.44902	5255.573	53.46632	726.9488	1.560711
71.50301	5300.297	53.83698	727.8026	1.522798
71.557	5345.179	54.18041	728.1224	1.66846
71.61098	5390.209	54.48236	727.9042	1.956676
71.66497	5435.382	54.73597	727.147	2.332582
71.71896	5480.687	54.94024	725.8503	2.757979
71.77294	5526.106	55.09588	724.0162	3.209955
71.82693	5571.614	55.20314	721.6478	3.675799
71.88091	5617.174	55.25945	718.7501	4.147462
71.9349	5662.75	55.26389	715.3301	4.619946
71.98888	5708.302	55.21767	711.3951	5.089962
72.04288	5753.781	55.12677	706.9553	5.555149
72.09686	5799.133	54.99835	702.0214	6.013894
72.15085	5844.306	54.83516	696.6056	6.465062
72.20483	5889.248	54.62803	690.7214	6.907703
72.25882	5933.904	54.36536	684.3833	7.341152
72.31281	5978.208	54.02705	677.6069	7.764813
72.36679	6022.082	53.59257	670.4085	8.17848
72.42078	6065.435	53.0439	662.8053	8.5811
72.47476	6108.168	52.37076	654.8153	8.972622
72.52875	6150.193	51.56711	646.4566	9.352748
72.58274	6191.425	50.63506	637.748	9.721039
72.63673	6231.799	49.57973	628.7087	10.07706
72.69071	6271.248	48.42111	619.3574	10.42078
72.7447	6309.708	47.18301	609.7139	10.75175
72.79868	6347.113	45.89911	599.797	11.06948
72.85267	6383.416	44.6052	589.6262	11.3737
72.90665	6418.577	43.33662	579.2205	11.66387
72.96064	6452.576	42.12041	568.5989	11.93947
73.01463	6485.396	40.973	557.78	12.1998
73.06861	6517.032	39.89776	546.7827	12.44407
73.1226	6547.485	38.89676	535.6251	12.67142
73.17659	6576.768	37.96636	524.3253	12.8809
73.23058	6604.89	37.08577	512.9015	13.07128
73.28456	6631.865	36.22936	501.3715	13.24148
73.33855	6657.708	35.38046	489.7529	13.39035
73.39253	6682.446	34.53492	478.0634	13.51667
73.44652	6706.113	33.69903	466.3206	13.61934
73.5005	6728.749	32.88265	454.5417	13.69727
73.55449	6750.392	32.09386	442.7443	13.74953
73.60847	6771.079	31.34392	430.9456	13.7754
73.66246	6790.84	30.64488	419.163	13.77426
73.71645	6809.704	30.00884	407.4135	13.7457
73.77044	6827.707	29.44561	395.7143	13.68954
73.82442	6844.887	28.96219	384.0822	13.60576
73.87841	6861.279	28.55924	372.5338	13.49458
73.9324	6876.917	28.22617	361.0855	13.35637
73.98638	6891.829	27.94693	349.7532	13.19172
74.04037	6906.049	27.69901	338.5524	13.00169
74.09435	6919.615	27.45843	327.4979	12.78705
74.14834	6932.573	27.19956	316.604	12.54895
74.20232	6944.976	26.90453	305.8846	12.28873
74.25632	6956.878	26.56089	295.3526	12.00802
74.3103	6968.341	26.16701	285.0205	11.70815
74.36429	6979.411	25.73202	274.8996	11.39102
74.41827	6990.118	25.27284	265.0008	11.05875
74.47226	7000.478	24.80251	255.3334	10.71335
74.52625	7010.486	24.32902	245.9062	10.35711
74.58023	7020.143	23.86107	236.7267	9.992414
74.63422	7029.46	23.41557	227.8014	9.621738
74.6882	7038.458	23.00511	219.1355	9.247626
74.74219	7047.156	22.62896	210.733	8.872527
74.79618	7055.563	22.28182	202.5972	8.498896
74.85017	7063.687	21.95601	194.7292	8.129434
74.90415	7071.539	21.64491	187.1296	7.766113
74.95814	7079.136	21.33128	179.7975	7.411083
75.01212	7086.495	20.99704	172.7308	7.066148
75.06611	7093.629	20.63067	165.9262	6.733056
75.12009	7100.554	20.23763	159.3793	6.412781
75.17408	7107.295	19.82277	153.0846	6.10641
75.22807	7113.871	19.3932	147.0359	5.814808
75.28205	7120.283	18.95682	141.2257	5.538209
75.33604	7126.517	18.53158	135.6462	5.276772
75.39003	7132.55	18.14142	130.2888	5.03041
75.44402	7138.364	17.81495	125.1444	4.798763
75.498	7143.943	17.57672	120.2037	4.581316
75.55199	7149.283	17.44107	115.457	4.377321
75.60597	7154.38	17.40915	110.8948	4.185972
75.65996	7159.235	17.46969	106.5074	4.006539
75.71394	7163.848	17.60417	102.285	3.837916
75.76793	7168.234	17.78854	98.21837	3.679172
75.82191	7172.409	17.99962	94.29834	3.529307
75.87591	7176.384	18.2164	90.51598	3.387391
75.92989	7180.168	18.42619	86.86282	3.252394
75.98388	7183.764	18.6217	83.33061	3.123497
76.03786	7187.174	18.80244	79.91171	3.000048
76.09185	7190.403	18.97478	76.59875	2.881311
76.14584	7193.453	19.14577	73.385	2.766796
76.19982	7196.324	19.31996	70.26426	2.656105
76.25381	7199.021	19.50184	67.23088	2.548976
76.30779	7201.554	19.70093	64.27973	2.445322
76.36178	7203.941	19.93209	61.40623	2.345233
76.41577	7206.208	20.20607	58.60641	2.249021
76.46976	7208.373	20.51871	55.87672	2.157228
76.52374	7210.443	20.85269	53.21407	2.07047
76.57773	7212.427	21.18664	50.61589	1.989542
76.63171	7214.337	21.50225	48.07996	1.915264
76.6857	7216.19	21.77772	45.6044	1.848446
76.73969	7218.011	21.99019	43.18764	1.789696
76.79367	7219.817	22.12	40.82835	1.739511
76.84766	7221.624	22.15918	38.52551	1.698165
76.90164	7223.44	22.10806	36.27816	1.665684
76.95564	7225.271	21.9736	34.08562	1.641897
77.00962	7227.106	21.76873	31.94724	1.626442
77.06361	7228.919	21.51371	29.86242	1.618815
77.11759	7230.682	21.2339	27.83053	1.618442
77.17158	7232.379	20.94818	25.85084	1.62475
77.22556	7233.996	20.6667	23.92257	1.63724
77.27955	7235.52	20.39067	22.0448	1.655528
77.33353	7236.938	20.11926	20.21641	1.679418
77.38752	7238.233	19.8487	18.43631	1.708801
77.44151	7239.393	19.57996	16.70321	1.743665
77.4955	7240.405	19.32122	15.01575	1.784016
77.54948	7241.257	19.08748	13.37242	1.829826
77.60347	7241.937	18.88678	11.7717	1.880914
77.65746	7242.431	18.72149	10.212	1.937021
77.71144	7242.738	18.58774	8.691623	1.997698
77.76543	7242.865	18.48886	7.208925	2.062304
77.81941	7242.819	18.42996	5.762291	2.129993
77.8734	7242.609	18.41519	4.350163	2.199724
77.92738	7242.244	18.44765	2.971081	2.27032
77.98137	7241.732	18.52916	1.623683	2.340501
78.03536	7241.08	18.66406	0.3067965	2.408973
78.08935	7240.305	18.8524	-0.9805946	2.474406
78.14333	7239.428	19.0906	-2.239339	2.535564
78.19732	7238.472	19.37095	-3.469997	2.591215
78.2513	7237.452	19.6804	-4.672891	2.640257
78.30529	7236.381	20.00618	-5.848114	2.681744
78.35928	7235.271	20.33518	-6.995493	2.71497
78.41326	7234.131	20.65901	-8.114553	2.739374
78.46725	7232.97	20.97089	-9.20455	2.754745
78.52123	7231.794	21.26368	-10.26457	2.761046
78.57523	7230.611	21.52898	-11.29347	2.758481
78.62921	7229.425	21.76275	-12.28998	2.747408
78.6832	7228.242	21.9597	-13.25274	2.728328
78.73718	7227.066	22.11394	-14.18032	2.701858
78.79117	7225.902	22.21673	-15.0713	2.668708
78.84515	7224.751	22.2624	-15.92424	2.629681
78.89914	7223.614	22.24737	-16.73776	2.585586
78.95313	7222.495	22.17311	-17.51068	2.537269
79.00711	7221.396	22.04239	-18.24182	2.485465
79.0611	7220.313	21.86353	-18.9302	2.430825
79.11509	7219.238	21.64446	-19.57504	2.373899
79.16908	7218.161	21.38744	-20.17584	2.315151
79.22306	7217.069	21.09731	-20.7324	2.254842
79.27705	7215.946	20.78399	-21.24476	2.193229
79.33103	7214.774	20.45884	-21.71335	2.130376
79.38502	7213.542	20.13269	-22.13878	2.06629
79.439	7212.244	19.8161	-22.52191	2.00089
79.49299	7210.876	19.53168	-22.86383	1.934051
79.54697	7209.434	19.30212	-23.16582	1.865612
79.60096	7207.917	19.13848	-23.4294	1.795406
79.65495	7206.326	19.03599	-23.6562	1.723294
79.70894	7204.664	18.98325	-23.84804	1.649085
79.76292	7202.937	18.96991	-24.00687	1.572616
79.81691	7201.149	18.98551	-24.13464	1.493662
79.8709	7199.316	19.01833	-24.23331	1.411996
79.92488	7197.454	19.05687	-24.3048	1.327393
79.97887	7195.573	19.09073	-24.35103	1.239695
80.03285	7193.68	19.11212	-24.37378	1.148784
80.08684	7191.78	19.11585	-24.37478	1.054781
80.14082	7189.872	19.10419	-24.35563	0.9579977
80.19482	7187.959	19.08573	-24.31782	0.859138
80.2488	7186.051	19.07452	-24.26267	0.7595265
80.30279	7184.161	19.08011	-24.19137	0.6615191
80.35677	7182.297	19.1101	-24.10492	0.5693178
80.41076	7180.47	19.17144	-24.00409	0.4902066
80.46474	7178.688	19.26296	-23.88942	0.4358096
80.51873	7176.959	19.37678	-23.76128	0.4199637
80.57272	7175.287	19.49929	-23.61985	0.4497593
80.6267	7173.677	19.61522	-23.46515	0.5189794
80.68069	7172.136	19.70922	-23.29707	0.6147847
80.73468	7170.675	19.76557	-23.11544	0.7260459
80.78867	7169.305	19.76993	-22.92003	0.8451703
80.84265	7168.029	19.71368	-22.71059	0.9671273
80.89664	7166.845	19.5987	-22.48689	1.088332
80.95062	7165.754	19.43942	-22.24877	1.206067
81.00461	7164.756	19.26276	-21.99615	1.318137
81.05859	7163.842	19.10565	-21.72907	1.422742
81.11258	7163.003	18.99923	-21.44777	1.518423
81.16656	7162.229	18.96238	-21.15272	1.60402
81.22055	7161.503	18.99682	-20.84468	1.678668
81.27454	7160.81	19.08717	-20.52473	1.741767
81.32853	7160.138	19.20568	-20.19429	1.79299
81.38251	7159.472	19.3182	-19.85508	1.832286
81.4365	7158.792	19.39739	-19.50914	1.859872
81.49049	7158.084	19.4279	-19.15875	1.876184
81.54447	7157.343	19.40929	-18.80646	1.88186
81.59846	7156.572	19.35191	-18.45498	1.87771
81.65244	7155.776	19.26427	-18.10717	1.864621
81.70643	7154.957	19.15294	-17.76598	1.843595
81.76041	7154.104	19.03101	-17.43437	1.815666
81.81441	7153.205	18.91678	-17.11529	1.781907
81.86839	7152.252	18.82567	-16.81168	1.743408
81.92238	7151.245	18.77105	-16.52634	1.70125
81.97636	7150.196	18.76889	-16.262	1.656479
82.03035	7149.123	18.83117	-16.02121	1.610067
82.08434	7148.044	18.95984	-15.8064	1.562919
82.13832	7146.97	19.1472	-15.61977	1.515815
82.19231	7145.909	19.38118	-15.46333	1.469405
82.24629	7144.869	19.64647	-15.33886	1.424326
82.30028	7143.853	19.9243	-15.248	1.381085
82.35427	7142.871	20.19696	-15.19214	1.340114
82.40826	7141.935	20.44743	-15.17249	1.301786
82.46224	7141.053	20.66275	-15.19	1.266365
82.51623	7140.232	20.83367	-15.24547	1.234015
82.57021	7139.479	20.95431	-15.33934	1.204755
82.6242	7138.794	21.02497	-15.47188	1.178541
82.67818	7138.18	21.05224	-15.64314	1.15518
82.73217	7137.635	21.04758	-15.853	1.134377
82.78616	7137.154	21.02288	-16.10119	1.115744
82.84014	7136.725	20.99094	-16.38731	1.098828
82.89413	7136.346	20.96256	-16.71087	1.083212
82.94812	7136.02	20.94175	-17.07124	1.068489
83.00211	7135.749	20.92405	-17.46769	1.054362
83.05609	7135.533	20.89239	-17.89942	1.040952
83.11008	7135.371	20.82745	-18.36562	1.028804
83.16406	7135.252	20.7231	-18.86547	1.019084
83.21805	7135.162	20.58263	-19.3982	1.013636
83.27203	7135.082	20.40215	-19.96313	1.014969
83.32602	7134.984	20.18409	-20.55979	1.026181
83.38	7134.836	19.94273	-21.18774	1.050418
83.434	7134.611	19.69736	-21.84681	1.090564
83.48798	7134.291	19.46152	-22.537	1.148668
83.54197	7133.871	19.25915	-23.2585	1.225643
83.59595	7133.356	19.11774	-24.01171	1.321236
83.64994	7132.755	19.06124	-24.79712	1.434268
83.70393	7132.069	19.10392	-25.61541	1.562997
83.75791	7131.3	19.24969	-26.46734	1.705374
83.8119	7130.443	19.49371	-27.35369	1.859281
83.86588	7129.489	19.81951	-28.2753	2.022565
83.91987	7128.423	20.20672	-29.23298	2.193232
83.97386	7127.239	20.62402	-30.2275	2.369396
84.02785	7125.937	21.03419	-31.25953	2.549291
84.08183	7124.514	21.40975	-32.32967	2.731229
84.13582	7122.967	21.72705	-33.43847	2.913671
84.1898	7121.303	21.97219	-34.58619	3.095125
84.24379	7119.53	22.1532	-35.77298	3.274188
84.29778	7117.655	22.29262	-36.99884	3.449542
84.35176	7115.688	22.41342	-38.2636	3.619957
84.40575	7113.627	22.53581	-39.56694	3.784278
84.45973	7111.472	22.67763	-40.90842	3.941424
84.51373	7109.224	22.85134	-42.28747	4.090347
84.56771	7106.882	23.05974	-43.70333	4.23009
84.6217	7104.451	23.29136	-45.15515	4.359705
84.67568	7101.938	23.52372	-46.64188	4.478287
84.72967	7099.351	23.72332	-48.16239	4.585011
84.78365	7096.696	23.85421	-49.71539	4.679139
84.83764	7093.969	23.88908	-51.29949	4.760013
84.89162	7091.164	23.81368	-52.91319	4.827095
84.94561	7088.272	23.63422	-54.5549	4.879951
84.9996	7085.292	23.37202	-56.22281	4.918314
85.05359	7082.233	23.0513	-57.915	4.942055
85.10757	7079.114	22.70311	-59.6294	4.951214
85.16156	7075.949	22.36533	-61.36383	4.94595
85.21555	7072.751	22.06503	-63.11597	4.926574
85.26953	7069.525	21.8144	-64.88344	4.893511
85.32352	7066.259	21.62182	-66.66379	4.847296
85.3775	7062.93	21.49013	-68.45455	4.788571
85.43149	7059.506	21.40802	-70.25329	4.718011
85.48547	7055.963	21.34758	-72.05762	4.636333
85.53946	7052.286	21.28146	-73.86527	4.544278
85.59345	7048.48	21.18684	-75.67402	4.442603
85.64744	7044.543	21.05122	-77.48174	4.332075
85.70142	7040.489	20.87293	-79.28645	4.213482
85.75541	7036.324	20.66296	-81.08622	4.087569
85.80939	7032.068	20.44333	-82.87921	3.955142
85.86338	7027.725	20.25003	-84.66367	3.816966
85.91737	7023.302	20.10768	-86.43792	3.67385
85.97135	7018.795	20.03381	-88.20036	3.526591
86.02534	7014.201	20.03826	-89.94951	3.376031
86.07932	7009.501	20.12393	-91.68398	3.223008
86.13332	7004.687	20.27505	-93.4024	3.068382
86.1873	6999.742	20.47144	-95.10343	2.913024
86.24129	6994.661	20.6998	-96.78575	2.757782
86.29527	6989.433	20.95124	-98.44805	2.60345
86.34926	6984.061	21.21569	-100.089	2.45083
86.40324	6978.544	21.48443	-101.7074	2.300587
86.45723	6972.896	21.75856	-103.3019	2.153326
86.51122	6967.124	22.04637	-104.8714	2.009542
86.5652	6961.231	22.35845	-106.4147	1.869696
86.61919	6955.213	22.69509	-107.9309	1.734048
86.67317	6949.069	23.0474	-109.4191	1.602872
86.72717	6942.812	23.39524	-110.8784	1.476349
86.78115	6936.451	23.71309	-112.3083	1.354622
86.83514	6929.987	23.98016	-113.7084	1.237805
86.88912	6923.41	24.18235	-115.0781	1.12599
86.94311	6916.712	24.31058	-116.4172	1.019341
86.99709	6909.885	24.3604	-117.7254	0.9180362
87.05108	6902.923	24.3367	-119.0024	0.8223675
87.10506	6895.822	24.25388	-120.2481	0.7328071
87.15905	6888.582	24.12867	-121.4621	0.6500551
87.21304	6881.209	23.97633	-122.6442	0.575091
87.26703	6873.721	23.8175	-123.7941	0.5092911
87.32101	6866.135	23.68086	-124.9116	0.4544855
87.375	6858.474	23.59006	-125.996	0.4127468
87.42899	6850.744	23.55401	-127.0473	0.3858688
87.48297	6842.955	23.56991	-128.0648	0.3744594
87.53696	6835.121	23.62575	-129.0484	0.3772161
87.59094	6827.259	23.70733	-129.9977	0.3910642
87.64493	6819.385	23.79872	-130.9124	0.4121353
87.69891	6811.51	23.87528	-131.7923	0.4367279
87.7529	6803.64	23.91394	-132.6373	0.4616595
87.80689	6795.778	23.90676	-133.4472	0.4847278
87.86088	6787.933	23.85243	-134.222	0.504187
87.91486	6780.099	23.75246	-134.9616	0.5188829
87.96885	6772.274	23.61625	-135.6662	0.5280538
88.02283	6764.449	23.46307	-136.336	0.5313478
88.07682	6756.625	23.31348	-136.9716	0.5287861
88.13081	6748.805	23.18309	-137.5734	0.5207342
88.18479	6740.996	23.08425	-138.1422	0.5078971
88.23878	6733.206	23.02041	-138.6788	0.4916699
88.29276	6725.439	22.98769	-139.1842	0.4740548
88.34676	6717.705	22.97245	-139.6594	0.4579558
88.40074	6710.01	22.95571	-140.1057	0.447195
88.45473	6702.367	22.9105	-140.5242	0.4462231
88.50871	6694.778	22.81801	-140.9163	0.4592435
88.5627	6687.237	22.66821	-141.2832	0.4888985
88.61668	6679.728	22.45766	-141.6266	0.5356336
88.67067	6672.245	22.18898	-141.9479	0.5977725
88.72466	6664.782	21.87756	-142.2487	0.6725076
88.77864	6657.324	21.54709	-142.5307	0.756713
88.83263	6649.85	21.23326	-142.7954	0.8473635
88.88662	6642.344	20.97396	-143.0446	0.9417527
88.94061	6634.794	20.79636	-143.2799	1.0375
88.99459	6627.202	20.7122	-143.5029	1.132493
89.04858	6619.573	20.72556	-143.7151	1.224882
89.10256	6611.919	20.82524	-143.9179	1.313014
89.15655	6604.246	20.99182	-144.1126	1.395455
89.21053	6596.558	21.20295	-144.3005	1.470915
89.26452	6588.855	21.44153	-144.4826	1.538221
89.3185	6581.139	21.69286	-144.6598	1.596373
89.37249	6573.399	21.93801	-144.8331	1.644441
89.42648	6565.634	22.16052	-145.0029	1.681725
89.48047	6557.833	22.35069	-145.1696	1.707671
89.53445	6549.997	22.50745	-145.3336	1.721939
89.58844	6542.13	22.64948	-145.4949	1.724449
89.64243	6534.244	22.80319	-145.6534	1.715324
89.69641	6526.339	22.99032	-145.809	1.694985
89.7504	6518.416	23.22344	-145.9613	1.6641
89.80438	6510.476	23.51241	-146.1099	1.623647
89.85837	6502.533	23.85667	-146.2543	1.574857
89.91235	6494.606	24.24282	-146.3936	1.519201
89.96635	6486.709	24.64925	-146.5274	1.458341
90.02033	6478.842	25.05059	-146.6547	1.394047
90.07432	6471.009	25.42604	-146.7751	1.328184
90.1283	6463.203	25.75455	-146.8877	1.262683
90.18229	6455.41	26.0167	-146.992	1.199492
90.23627	6447.611	26.19984	-147.0875	1.140542
90.29026	6439.793	26.30472	-147.1738	1.087787
90.34425	6431.947	26.34759	-147.2505	1.043013
90.39823	6424.076	26.3464	-147.3174	1.007789
90.45222	6416.181	26.31535	-147.3745	0.9832875
90.50621	6408.257	26.26439	-147.4215	0.9702131
90.5602	6400.29	26.19802	-147.4585	0.968725
90.61418	6392.278	26.11444	-147.4855	0.9784071
90.66817	6384.227	26.00764	-147.5028	0.9983589
90.72215	6376.14	25.86885	-147.5104	1.027455
90.77614	6368.019	25.69496	-147.5087	1.064403
90.83012	6359.858	25.48774	-147.498	1.107895
90.88411	6351.65	25.25143	-147.4787	1.156708
90.9381	6343.383	24.9912	-147.4513	1.209691
90.99208	6335.051	24.70783	-147.4164	1.265896
91.04607	6326.653	24.39692	-147.3746	1.324373
91.10006	6318.185	24.05377	-147.3265	1.384345
91.15405	6309.653	23.67797	-147.2728	1.445073
91.20803	6301.071	23.27559	-147.214	1.505867
91.26202	6292.464	22.8591	-147.1507	1.566075
91.316	6283.855	22.4448	-147.0837	1.625042
91.36999	6275.268	22.05077	-147.0135	1.682155
91.42397	6266.723	21.6932	-146.9406	1.736783
91.47796	6258.237	21.38211	-146.8658	1.788277
91.53194	6249.826	21.11953	-146.7896	1.836037
91.58594	6241.509	20.89913	-146.7123	1.879502
91.63992	6233.306	20.71306	-146.6343	1.918157
91.69391	6225.224	20.54567	-146.556	1.951543
91.74789	6217.257	20.38269	-146.4775	1.979317
91.80188	6209.394	20.21654	-146.3988	2.001203
91.85587	6201.621	20.04259	-146.3199	2.017015
91.90985	6193.923	19.86078	-146.2409	2.026674
91.96384	6186.284	19.67466	-146.1615	2.030128
92.01782	6178.691	19.49326	-146.0817	2.027447
92.07181	6171.139	19.32549	-146.0014	2.018737
92.1258	6163.625	19.17543	-145.9205	2.004196
92.17979	6156.144	19.04451	-145.8392	1.984064
92.23377	6148.687	18.93223	-145.7575	1.958582
92.28776	6141.247	18.83955	-145.6755	1.928077
92.34174	6133.811	18.76641	-145.5935	1.892834
92.39573	6126.375	18.71551	-145.5116	1.853264
92.44971	6118.938	18.69141	-145.5036	1.780087
92.5037	6111.498	18.69864	-145.5025	1.716814
92.55769	6104.053	18.73897	-145.5051	1.666067
92.61167	6096.598	18.81127	-145.509	1.628848
92.66566	6089.118	18.90815	-145.5126	1.605193
92.71965	6081.609	19.0217	-145.5155	1.5946
92.77364	6074.061	19.14555	-145.5173	1.596328
92.82762	6066.461	19.26999	-145.5181	1.609586
92.88161	6058.796	19.38473	-145.5182	1.633598
92.93559	6051.072	19.48451	-145.518	1.667673
92.98958	6043.302	19.56962	-145.5177	1.711161
93.04356	6035.509	19.6484	-145.5178	1.763503
93.09755	6027.711	19.72729	-145.5184	1.824187
93.15154	6019.928	19.81053	-145.5198	1.892732
93.20553	6012.17	19.89764	-145.5224	1.968734
93.25951	6004.454	19.98918	-145.5262	2.051823
93.3135	5996.781	20.084	-145.5314	2.141646
93.36749	5989.15	20.18378	-145.5383	2.23792
93.42147	5981.541	20.2864	-145.547	2.340365
93.47546	5973.928	20.38492	-145.5575	2.448758
93.52944	5966.28	20.46765	-145.57	2.562891
93.58343	5958.577	20.52926	-145.5846	2.682579
93.63741	5950.815	20.57026	-145.6014	2.807655
93.6914	5942.995	20.58633	-145.6203	2.937972
93.74539	5935.12	20.57116	-145.6416	3.073384
93.79938	5927.204	20.51628	-145.6651	3.213794
93.85336	5919.253	20.41638	-145.691	3.359068
93.90735	5911.26	20.27414	-145.7192	3.509108
93.96133	5903.221	20.09647	-145.7499	3.66381
94.01532	5895.135	19.89092	-145.7829	3.823042
94.06931	5886.905	19.55906	-145.8183	3.986716
94.12329	5878.738	19.23599	-145.8562	4.154713
94.17728	5870.624	18.94017	-145.8963	4.326913
94.23126	5862.538	18.67046	-145.9389	4.503211
94.28526	5854.463	18.42222	-145.9837	4.68349
94.33924	5846.391	18.19126	-146.0308	4.867628
94.39323	5838.315	17.97391	-146.0802	5.055504
94.44721	5830.234	17.76835	-146.1318	5.247004
94.5012	5822.147	17.57319	-146.1855	5.442016
94.55518	5814.055	17.38723	-146.2413	5.640403
94.60917	5805.958	17.20963	-146.2992	5.84205
94.66315	5797.855	17.04004	-146.3591	6.046841
94.71714	5789.748	16.87879	-146.4209	6.254654
94.77113	5781.636	16.72623	-146.4846	6.46536
94.82512	5773.52	16.58341	-146.5501	6.678858
94.8791	5765.402	16.451	-146.6173	6.895007
94.93309	5757.285	16.32963	-146.6862	7.11371
94.98708	5749.172	16.21947	-146.7568	7.33485
