T[Â°C]	330nm [counts / mm]	S.D.	First derivative	S.D. of first derivative
20.00003	8086.055	13.39263	-116.8914	7.132103
20.05401	8079.603	13.89159	-116.7265	6.933828
20.108	8073.158	14.38811	-116.562	6.737312
20.16199	8066.722	14.88047	-116.3979	6.542614
20.21597	8060.293	15.36728	-116.234	6.349776
20.26996	8053.873	15.84791	-116.0705	6.158858
20.32394	8047.461	16.32155	-115.9075	5.9699
20.37793	8041.056	16.78859	-115.7448	5.782964
20.43192	8034.658	17.24915	-115.5825	5.598094
20.4859	8028.264	17.70445	-115.4206	5.415341
20.53989	8021.875	18.15549	-115.2592	5.234751
20.59388	8015.485	18.60341	-115.0982	5.056369
20.64786	8009.095	19.05035	-114.9377	4.880242
20.70185	8002.7	19.49828	-114.7777	4.70642
20.75584	7996.299	19.95006	-114.6181	4.534931
20.80982	7989.887	20.40714	-114.4589	4.365826
20.86381	7983.465	20.86996	-114.3003	4.199141
20.9178	7977.039	21.3277	-114.142	4.034916
20.97178	7970.636	21.73924	-113.9842	3.873182
21.02577	7964.341	22.02786	-113.8269	3.71399
21.07975	7958.094	22.30437	-113.6699	3.55737
21.13374	7951.902	22.56489	-113.5132	3.403363
21.18773	7945.769	22.79849	-113.3569	3.252016
21.24171	7939.697	22.99112	-113.2008	3.103368
21.2957	7933.684	23.13012	-113.0449	2.957483
21.34969	7927.722	23.20734	-112.8893	2.81442
21.40367	7921.796	23.22515	-112.7337	2.674253
21.45766	7915.898	23.19235	-112.5782	2.53707
21.51164	7910.02	23.12158	-112.4228	2.402979
21.56563	7904.149	23.03096	-112.2673	2.27211
21.61962	7898.275	22.94258	-112.1117	2.144609
21.6736	7892.399	22.86769	-111.956	2.020674
21.72759	7886.527	22.81178	-111.8002	1.900535
21.78158	7880.66	22.77239	-111.6442	1.78448
21.83556	7874.793	22.73911	-111.488	1.672868
21.88955	7868.924	22.69766	-111.3315	1.566178
21.94353	7863.047	22.64433	-111.1747	1.464984
21.99752	7857.166	22.57828	-111.0175	1.370035
22.05151	7851.278	22.49416	-110.86	1.282282
22.1055	7845.384	22.37813	-110.7021	1.202893
22.15948	7839.486	22.21259	-110.5438	1.133295
22.21347	7833.583	21.9857	-110.385	1.075109
22.26745	7827.665	21.69634	-110.2258	1.030002
22.32144	7821.72	21.34955	-110.0661	0.999386
22.37543	7815.742	20.95668	-109.9063	0.983899
22.42941	7809.731	20.52219	-109.7465	0.9827942
22.4834	7803.688	20.04506	-109.5873	0.9933359
22.53739	7797.617	19.52571	-109.4296	1.010657
22.59137	7791.523	18.97262	-109.2748	1.028627
22.64536	7785.416	18.39921	-109.1541	0.9564766
22.69934	7779.306	17.82571	-109.0384	0.8819797
22.75333	7773.205	17.27334	-108.9275	0.8055127
22.80732	7767.126	16.76194	-108.8215	0.727506
22.8613	7761.084	16.30456	-108.7201	0.6484526
22.91529	7755.086	15.91046	-108.6233	0.5689844
22.96928	7749.143	15.58234	-108.531	0.4900109
23.02326	7743.262	15.32404	-108.4428	0.4129306
23.07725	7737.45	15.1369	-108.3587	0.3400476
23.13124	7731.703	15.01556	-108.2783	0.2754584
23.18522	7726.007	14.94689	-108.2013	0.2264735
23.23921	7720.349	14.91597	-108.1274	0.203816
23.29319	7714.712	14.9078	-108.0561	0.2143043
23.34718	7709.08	14.91184	-107.9871	0.2518258
23.40117	7703.44	14.92725	-107.9199	0.3045525
23.45515	7697.789	14.95518	-107.854	0.3640947
23.50914	7692.125	14.9975	-107.7889	0.4260579
23.56313	7686.446	15.06253	-107.7242	0.4883272
23.61711	7680.75	15.16677	-107.6594	0.549977
23.6711	7675.041	15.32676	-107.594	0.6107545
23.72508	7669.332	15.55774	-107.5279	0.6707522
23.77907	7663.632	15.86922	-107.4609	0.7302803
23.83306	7657.949	16.26491	-107.393	0.7896948
23.88704	7652.28	16.74073	-107.3243	0.8493177
23.94103	7646.62	17.28327	-107.255	0.909384
23.99502	7640.955	17.87316	-107.1853	0.9699789
24.049	7635.278	18.49134	-107.1155	1.030994
24.10299	7629.581	19.11639	-107.046	1.092093
24.15698	7623.854	19.71892	-106.9773	1.152699
24.21096	7618.089	20.26876	-106.9098	1.212039
24.26495	7612.286	20.74202	-106.8439	1.269221
24.31894	7606.445	21.13128	-106.7802	1.323239
24.37292	7600.574	21.43673	-106.7188	1.373078
24.42691	7594.689	21.66025	-106.6602	1.41775
24.48089	7588.809	21.81512	-106.6047	1.456334
24.53488	7582.945	21.92077	-106.5523	1.488025
24.58887	7577.101	22.0003	-106.5032	1.512177
24.64285	7571.271	22.07354	-106.4573	1.528337
24.69684	7565.448	22.14978	-106.4147	1.536247
24.75083	7559.627	22.23464	-106.3754	1.535837
24.80481	7553.811	22.33267	-106.3391	1.527199
24.8588	7547.997	22.44128	-106.306	1.510616
24.91278	7542.182	22.55002	-106.2758	1.486541
24.96677	7536.365	22.6491	-106.2486	1.455599
25.02076	7530.551	22.73358	-106.2241	1.41855
25.07474	7524.748	22.79809	-106.2022	1.376213
25.12873	7518.972	22.83726	-106.1823	1.32943
25.18272	7513.24	22.8451	-106.1643	1.279013
25.2367	7507.554	22.81813	-106.1476	1.225748
25.29069	7501.907	22.75138	-106.1318	1.17037
25.34468	7496.28	22.65125	-106.1166	1.113532
25.39866	7490.65	22.53084	-106.1013	1.055864
25.45265	7485	22.4098	-106.0856	0.9979192
25.50664	7479.322	22.30916	-106.0689	0.9401923
25.56062	7473.629	22.2429	-106.0506	0.8831256
25.61461	7467.932	22.21726	-106.0301	0.827078
25.66859	7462.24	22.23469	-106.0068	0.7723165
25.72258	7456.558	22.28593	-105.9803	0.7190219
25.77657	7450.878	22.35815	-105.9499	0.6672391
25.83055	7445.195	22.44072	-105.9153	0.6169012
25.88454	7439.507	22.51855	-105.8761	0.5678118
25.93853	7433.813	22.57287	-105.832	0.5196571
25.99251	7428.12	22.58805	-105.7829	0.4720224
26.0465	7422.442	22.55747	-105.7285	0.4243982
26.10048	7416.79	22.47504	-105.6688	0.3762847
26.15447	7411.165	22.33268	-105.6037	0.3273088
26.20846	7405.552	22.12499	-105.5334	0.2774463
26.26244	7399.923	21.85682	-105.4579	0.2274337
26.31643	7394.25	21.54395	-105.3774	0.1797637
26.37042	7388.517	21.20437	-105.2923	0.141203
26.4244	7382.73	20.86	-105.2027	0.1263224
26.47839	7376.911	20.53003	-105.109	0.1474586
26.53238	7371.081	20.2369	-105.0117	0.1962756
26.58636	7365.262	19.99448	-104.9109	0.2592904
26.64035	7359.469	19.79966	-104.8072	0.3292157
26.69433	7353.717	19.64022	-104.7008	0.4025277
26.74832	7348.013	19.50909	-104.5922	0.4772179
26.80231	7342.357	19.39879	-104.4817	0.5519482
26.85629	7336.736	19.30754	-104.3699	0.625702
26.91028	7331.139	19.23732	-104.257	0.6976615
26.96427	7325.556	19.19731	-104.1436	0.7671315
27.01825	7319.964	19.19204	-104.03	0.8335509
27.07224	7314.348	19.22047	-103.9167	0.8964042
27.12623	7308.7	19.28367	-103.804	0.9552471
27.18021	7303.018	19.38401	-103.692	1.009672
27.2342	7297.31	19.51983	-103.5809	1.0593
27.28819	7291.582	19.68654	-103.4709	1.103793
27.34217	7285.834	19.87425	-103.3622	1.142784
27.39616	7280.06	20.07825	-103.2551	1.175876
27.45014	7274.246	20.29646	-103.1497	1.202659
27.50413	7268.399	20.52735	-103.0462	1.222691
27.55812	7262.538	20.77146	-102.945	1.235511
27.6121	7256.693	21.03069	-102.8462	1.240662
27.66609	7250.902	21.29937	-102.7501	1.237746
27.72008	7245.192	21.56543	-102.6567	1.226464
27.77406	7239.573	21.82315	-102.5662	1.206634
27.82805	7234.045	22.07271	-102.4784	1.178237
27.88203	7228.589	22.3079	-102.3934	1.141377
27.93602	7223.183	22.5225	-102.3109	1.09635
27.99001	7217.798	22.71765	-102.2309	1.043602
28.04399	7212.419	22.89938	-102.1532	0.9837746
28.09798	7207.05	23.07511	-102.0777	0.9176951
28.15197	7201.696	23.2457	-102.0043	0.8463716
28.20595	7196.364	23.40966	-101.9327	0.7709723
28.25994	7191.051	23.56281	-101.8629	0.6928873
28.31392	7185.754	23.69892	-101.7946	0.6138329
28.36791	7180.468	23.81194	-101.7279	0.5361027
28.4219	7175.19	23.89956	-101.6625	0.4630299
28.47589	7169.917	23.96937	-101.5986	0.3996652
28.52987	7164.649	24.0292	-101.536	0.3535219
28.58386	7159.39	24.08249	-101.4749	0.3336686
28.63784	7154.15	24.13543	-101.4153	0.3459293
28.69183	7148.934	24.19267	-101.3571	0.3878782
28.74582	7143.742	24.25173	-101.3004	0.4513646
28.7998	7138.558	24.30604	-101.245	0.5282099
28.85379	7133.36	24.34926	-101.1908	0.6125454
28.90778	7128.129	24.38257	-101.1377	0.7004704
28.96176	7122.845	24.40764	-101.0858	0.7893372
29.01575	7117.495	24.42182	-101.0348	0.8772721
29.06973	7112.082	24.41706	-100.9849	0.9628884
29.12372	7106.611	24.38675	-100.936	1.045092
29.17771	7101.102	24.32764	-100.8879	1.122992
29.23169	7095.578	24.24652	-100.8405	1.195859
29.28568	7090.056	24.15588	-100.7939	1.263123
29.33967	7084.547	24.06861	-100.7479	1.324371
29.39365	7079.052	23.98597	-100.7026	1.379362
29.44764	7073.564	23.89412	-100.658	1.427974
29.50163	7068.074	23.77918	-100.6142	1.470209
29.55561	7062.572	23.63209	-100.5713	1.50615
29.6096	7057.06	23.44159	-100.5294	1.535925
29.66358	7051.542	23.19135	-100.4885	1.559699
29.71757	7046.029	22.87211	-100.4488	1.577634
29.77156	7040.532	22.48949	-100.4102	1.589819
29.82554	7035.052	22.0489	-100.3724	1.596315
29.87953	7029.578	21.55887	-100.3354	1.59708
29.93352	7024.1	21.0344	-100.2988	1.592026
29.9875	7018.603	20.49166	-100.2623	1.580989
30.04149	7013.076	19.94767	-100.2256	1.563785
30.09547	7007.519	19.41817	-100.1885	1.540206
30.14946	7001.936	18.91402	-100.1506	1.510045
30.20345	6996.338	18.44345	-100.1117	1.473096
30.25743	6990.742	18.00843	-100.0715	1.429196
30.31142	6985.165	17.60979	-100.0298	1.378266
30.36541	6979.616	17.25426	-99.98625	1.320331
30.41939	6974.095	16.95182	-99.94061	1.255541
30.47338	6968.593	16.71127	-99.89266	1.184174
30.52737	6963.1	16.53494	-99.8422	1.106637
30.58135	6957.607	16.42692	-99.78907	1.023437
30.63534	6952.112	16.38929	-99.73312	0.9351929
30.68933	6946.618	16.41663	-99.67421	0.8426704
30.74331	6941.131	16.49506	-99.61217	0.7467906
30.7973	6935.665	16.60958	-99.54679	0.6488161
30.85128	6930.228	16.74314	-99.47787	0.5506009
30.90527	6924.817	16.88078	-99.4052	0.4551276
30.95926	6919.422	17.01799	-99.32863	0.3677815
31.01324	6914.03	17.1523	-99.24802	0.298783
31.06723	6908.636	17.28235	-99.16333	0.2650505
31.12122	6903.247	17.40894	-99.07457	0.2803426
31.1752	6897.871	17.53315	-98.98188	0.3376504
31.22919	6892.518	17.66068	-98.88548	0.4190134
31.28317	6887.205	17.80614	-98.78568	0.5116291
31.33716	6881.947	17.98442	-98.68288	0.6086771
31.39115	6876.753	18.20255	-98.57755	0.7065008
31.44513	6871.619	18.46234	-98.47017	0.802876
31.49912	6866.528	18.76325	-98.36127	0.8962803
31.55311	6861.459	19.09067	-98.2514	0.9855651
31.60709	6856.391	19.41853	-98.14111	1.069864
31.66108	6851.308	19.72335	-98.03091	1.14853
31.71507	6846.205	19.99026	-97.92131	1.22112
31.76905	6841.077	20.20982	-97.81276	1.287375
31.82304	6835.923	20.37772	-97.70564	1.347165
31.87703	6830.742	20.49514	-97.60024	1.400531
31.93101	6825.536	20.56354	-97.49683	1.447645
31.985	6820.313	20.59581	-97.39561	1.48878
32.03898	6815.078	20.6186	-97.29677	1.524302
32.09297	6809.827	20.66015	-97.2005	1.554641
32.14696	6804.557	20.7457	-97.10705	1.580281
32.20094	6799.271	20.88826	-97.01665	1.601749
32.25493	6793.975	21.09054	-96.92957	1.619534
32.30891	6788.677	21.35045	-96.84607	1.634139
32.3629	6783.382	21.65638	-96.76637	1.645967
32.41689	6778.09	21.98686	-96.69064	1.655358
32.47087	6772.806	22.31665	-96.61902	1.662526
32.52486	6767.533	22.62495	-96.55161	1.66755
32.57885	6762.271	22.88955	-96.48848	1.670356
32.63284	6757.02	23.09312	-96.42972	1.67072
32.68682	6751.772	23.22557	-96.37538	1.668281
32.74081	6746.523	23.29387	-96.3255	1.662592
32.79479	6741.272	23.31298	-96.28008	1.653159
32.84878	6736.027	23.29805	-96.23906	1.639485
32.90277	6730.799	23.26485	-96.20231	1.621092
32.95675	6725.592	23.2208	-96.16966	1.59754
33.01074	6720.417	23.16524	-96.14093	1.568485
33.06472	6715.281	23.10032	-96.11589	1.53368
33.11871	6710.185	23.03032	-96.09433	1.493015
33.1727	6705.118	22.95612	-96.07604	1.446524
33.22668	6700.067	22.87656	-96.06083	1.394399
33.28067	6695.029	22.79113	-96.0485	1.337003
33.33466	6689.997	22.69457	-96.03886	1.274884
33.38864	6684.964	22.57773	-96.03175	1.208801
33.44263	6679.928	22.43571	-96.02694	1.139752
33.49662	6674.884	22.2684	-96.02423	1.069007
33.5506	6669.826	22.0724	-96.02345	0.9981784
33.60459	6664.747	21.84285	-96.02446	0.9293197
33.65857	6659.643	21.58176	-96.02718	0.864998
33.71256	6654.511	21.29868	-96.03156	0.8083579
33.76655	6649.341	21.01052	-96.03758	0.7629567
33.82053	6644.125	20.73531	-96.04521	0.7323794
33.87452	6638.863	20.48595	-96.05442	0.7195164
33.9285	6633.565	20.27132	-96.06512	0.7257357
33.98249	6628.244	20.0956	-96.07722	0.7504394
34.03648	6622.919	19.9512	-96.09056	0.7913127
34.09047	6617.606	19.82541	-96.10501	0.8451366
34.14445	6612.32	19.71103	-96.12043	0.9085721
34.19844	6607.074	19.60946	-96.13671	0.9787113
34.25243	6601.87	19.53241	-96.15374	1.053243
34.30641	6596.709	19.49112	-96.17139	1.130447
34.3604	6591.583	19.48902	-96.18948	1.20919
34.41438	6586.481	19.52609	-96.20783	1.28875
34.46837	6581.392	19.60524	-96.22622	1.368743
34.52236	6576.304	19.72518	-96.24442	1.448994
34.57634	6571.206	19.88174	-96.26218	1.52945
34.63033	6566.089	20.07027	-96.27932	1.610107
34.68431	6560.955	20.28947	-96.29562	1.690974
34.7383	6555.807	20.54191	-96.31092	1.771995
34.79229	6550.648	20.82875	-96.32506	1.853008
34.84628	6545.485	21.15176	-96.33781	1.933666
34.90026	6540.315	21.50664	-96.34898	2.01347
34.95425	6535.14	21.88158	-96.35835	2.09175
35.00823	6529.967	22.25913	-96.36569	2.167691
35.06222	6524.795	22.62253	-96.3708	2.240409
35.11621	6519.625	22.95269	-96.37342	2.308943
35.17019	6514.452	23.22943	-96.37329	2.37234
35.22418	6509.273	23.44265	-96.37007	2.429706
35.27816	6504.081	23.59519	-96.3634	2.480202
35.33215	6498.865	23.69896	-96.35284	2.523134
35.38614	6493.62	23.77193	-96.33802	2.55791
35.44012	6488.339	23.83692	-96.31852	2.584129
35.49411	6483.016	23.91231	-96.29399	2.601536
35.5481	6477.646	24.01242	-96.26414	2.610052
35.60209	6472.233	24.14339	-96.22877	2.609703
35.65607	6466.795	24.29939	-96.18776	2.600583
35.71006	6461.359	24.47052	-96.14111	2.582872
35.76404	6455.944	24.65009	-96.08893	2.556778
35.81803	6450.569	24.83792	-96.03143	2.522537
35.87202	6445.239	25.03502	-95.96889	2.480458
35.926	6439.953	25.24591	-95.90162	2.430915
35.97999	6434.707	25.47271	-95.82993	2.374359
36.03397	6429.495	25.71613	-95.7541	2.311307
36.08796	6424.309	25.97727	-95.67439	2.242379
36.14195	6419.14	26.25946	-95.59096	2.168283
36.19593	6413.979	26.56039	-95.504	2.089782
36.24992	6408.816	26.87917	-95.41361	2.007671
36.30391	6403.645	27.21217	-95.31988	1.922802
36.35789	6398.458	27.55526	-95.22289	1.836044
36.41188	6393.259	27.91054	-95.12273	1.748304
36.46587	6388.056	28.27922	-95.0195	1.660502
36.51985	6382.863	28.65602	-94.91337	1.573562
36.57384	6377.693	29.03246	-94.8045	1.488409
36.62782	6372.55	29.39609	-94.69316	1.405921
36.68181	6367.43	29.73759	-94.57961	1.326877
36.7358	6362.321	30.04898	-94.4642	1.251886
36.78978	6357.212	30.31761	-94.34726	1.181377
36.84377	6352.091	30.52317	-94.22917	1.115538
36.89775	6346.954	30.64732	-94.11028	1.054363
36.95174	6341.807	30.67996	-93.99093	0.997648
37.00573	6336.652	30.62214	-93.87148	0.9450383
37.05972	6331.497	30.48013	-93.75224	0.8960855
37.1137	6326.347	30.2625	-93.63347	0.8503437
37.16769	6321.2	29.9795	-93.51536	0.80746
37.22168	6316.056	29.64531	-93.39803	0.767181
37.27566	6310.914	29.27636	-93.28151	0.7294279
37.32965	6305.785	28.89049	-93.16579	0.6943105
37.38363	6300.687	28.50346	-93.05083	0.6621159
37.43762	6295.639	28.12001	-92.93661	0.6333013
37.49161	6290.653	27.74933	-92.82313	0.6084107
37.54559	6285.726	27.40358	-92.71046	0.5880262
37.59958	6280.845	27.09733	-92.59867	0.572625
37.65356	6276.001	26.83888	-92.48789	0.5624982
37.70755	6271.188	26.62874	-92.37829	0.5576376
37.76154	6266.401	26.46869	-92.2701	0.5576779
37.81553	6261.639	26.35543	-92.16364	0.5619262
37.86951	6256.895	26.27733	-92.05925	0.5694678
37.9235	6252.166	26.21239	-91.95731	0.5792913
37.97748	6247.442	26.14233	-91.8582	0.5903866
38.03147	6242.717	26.05726	-91.76227	0.6018664
38.08546	6237.983	25.96311	-91.66981	0.6129307
38.13944	6233.231	25.87191	-91.58106	0.6229149
38.19343	6228.46	25.79818	-91.49619	0.6312452
38.24741	6223.666	25.75387	-91.41532	0.6374184
38.3014	6218.838	25.74489	-91.33848	0.6409769
38.35539	6213.969	25.7679	-91.26564	0.6415293
38.40937	6209.053	25.81996	-91.19673	0.6387272
38.46336	6204.094	25.89264	-91.13165	0.6323394
38.51735	6199.103	25.98354	-91.07023	0.6221982
38.57133	6194.099	26.08742	-91.01233	0.6082726
38.62532	6189.108	26.19645	-90.95779	0.5906515
38.67931	6184.147	26.3079	-90.90642	0.5695254
38.73329	6179.224	26.42208	-90.85804	0.5452016
38.78728	6174.338	26.53578	-90.81246	0.5180708
38.84127	6169.472	26.65218	-90.76949	0.4885935
38.89525	6164.608	26.77835	-90.72891	0.45732
38.94924	6159.729	26.92036	-90.69055	0.4248497
39.00322	6154.823	27.08136	-90.65423	0.3918307
39.05721	6149.89	27.26254	-90.61977	0.3589895
39.1112	6144.935	27.47122	-90.58695	0.3271767
39.16518	6139.959	27.71398	-90.55555	0.2974949
39.21917	6134.97	27.99857	-90.52528	0.2713841
39.27316	6129.972	28.32264	-90.49577	0.250846
39.32714	6124.974	28.67632	-90.46667	0.2384166
39.38113	6119.991	29.04618	-90.43753	0.2367171
39.43512	6115.042	29.4191	-90.40794	0.2474792
39.4891	6110.14	29.77761	-90.37749	0.2707861
39.54309	6105.291	30.10567	-90.34585	0.3052682
39.59707	6100.485	30.38991	-90.31265	0.3489859
39.65106	6095.711	30.62688	-90.2776	0.4000342
39.70505	6090.957	30.82362	-90.24039	0.4568022
39.75903	6086.21	30.99393	-90.20081	0.5179451
39.81302	6081.462	31.14786	-90.1587	0.5822988
39.867	6076.705	31.28847	-90.11395	0.6488403
39.92099	6071.922	31.41673	-90.06653	0.7166324
39.97498	6067.103	31.52692	-90.01649	0.7848034
40.02896	6062.234	31.60896	-89.96394	0.8525541
40.08295	6057.305	31.65085	-89.90902	0.9191598
40.13694	6052.328	31.64476	-89.85195	0.9839873
40.19092	6047.325	31.58478	-89.79301	1.046531
40.24491	6042.314	31.47427	-89.73255	1.106395
40.2989	6037.31	31.32277	-89.67097	1.163305
40.35288	6032.322	31.13806	-89.60869	1.217099
40.40687	6027.359	30.92015	-89.5461	1.26771
40.46085	6022.422	30.66747	-89.48356	1.315085
40.51484	6017.505	30.38071	-89.42141	1.35923
40.56883	6012.602	30.06789	-89.3599	1.400154
40.62281	6007.706	29.73869	-89.29926	1.43787
40.6768	6002.816	29.39775	-89.23962	1.472364
40.73079	5997.933	29.04265	-89.18105	1.503568
40.78477	5993.054	28.67167	-89.12358	1.53134
40.83876	5988.175	28.28899	-89.06717	1.555447
40.89275	5983.296	27.89165	-89.01175	1.575572
40.94673	5978.418	27.47176	-88.95729	1.591356
41.00072	5973.542	27.02357	-88.90374	1.602399
41.05471	5968.672	26.55057	-88.85112	1.608306
41.10869	5963.816	26.06091	-88.79942	1.608709
41.16268	5958.982	25.57435	-88.74863	1.603303
41.21666	5954.183	25.10923	-88.69875	1.591843
41.27065	5949.429	24.67583	-88.64971	1.574185
41.32464	5944.729	24.27938	-88.60143	1.550241
41.37862	5940.085	23.92775	-88.55377	1.519999
41.43261	5935.496	23.63249	-88.50656	1.483502
41.4866	5930.954	23.40415	-88.45963	1.440839
41.54058	5926.441	23.23914	-88.41281	1.392131
41.59457	5921.935	23.12819	-88.36594	1.337546
41.64856	5917.413	23.0533	-88.31881	1.277269
41.70254	5912.857	22.99724	-88.27123	1.211508
41.75653	5908.258	22.94286	-88.22298	1.140485
41.81051	5903.615	22.87829	-88.17387	1.06444
41.8645	5898.937	22.80558	-88.12372	0.9836375
41.91849	5894.237	22.73762	-88.07239	0.8983864
41.97247	5889.532	22.68734	-88.01981	0.8090561
42.02646	5884.824	22.66311	-87.966	0.7160728
42.08044	5880.105	22.67342	-87.91098	0.6199549
42.13443	5875.375	22.72533	-87.85487	0.5213419
42.18842	5870.635	22.82552	-87.79781	0.420978
42.2424	5865.887	22.98238	-87.74001	0.3197412
42.29639	5861.128	23.19897	-87.68174	0.218681
42.35038	5856.36	23.46653	-87.6233	0.1193741
42.40437	5851.585	23.76406	-87.56504	0.03203443
42.45835	5846.808	24.06558	-87.50723	0.08307394
42.51234	5842.027	24.35064	-87.45014	0.1730318
42.56632	5837.244	24.60925	-87.39394	0.2600489
42.62031	5832.458	24.83714	-87.33877	0.342042
42.6743	5827.67	25.0302	-87.2847	0.418074
42.72828	5822.887	25.188	-87.23178	0.4874733
42.78227	5818.109	25.31628	-87.18005	0.5497265
42.83625	5813.339	25.42427	-87.12946	0.6045052
42.89024	5808.581	25.51861	-87.07999	0.6516387
42.94423	5803.83	25.61022	-87.03159	0.6911535
42.99821	5799.085	25.71482	-86.98417	0.7232314
43.0522	5794.35	25.84877	-86.93768	0.7481991
43.10619	5789.62	26.02618	-86.89201	0.7664996
43.16017	5784.889	26.25554	-86.84711	0.778684
43.21416	5780.141	26.53098	-86.80289	0.7853782
43.26815	5775.374	26.83136	-86.75924	0.7872464
43.32213	5770.589	27.12898	-86.71605	0.7849576
43.37612	5765.792	27.40163	-86.67316	0.779139
43.4301	5760.992	27.63406	-86.63042	0.7703911
43.48409	5756.197	27.81546	-86.58764	0.7592995
43.53808	5751.416	27.94502	-86.54465	0.7464263
43.59206	5746.653	28.03075	-86.50122	0.7323165
43.64605	5741.919	28.08529	-86.45716	0.7175151
43.70004	5737.217	28.11968	-86.41227	0.7025678
43.75402	5732.542	28.14473	-86.36635	0.6880191
43.80801	5727.887	28.16657	-86.31923	0.6744042
43.862	5723.246	28.18808	-86.27077	0.6621649
43.91598	5718.616	28.20898	-86.22079	0.6516579
43.96997	5714.003	28.227	-86.1692	0.6430895
44.02396	5709.403	28.24106	-86.11588	0.6365288
44.07794	5704.809	28.24702	-86.0607	0.6319009
44.13193	5700.215	28.24158	-86.00362	0.6290201
44.18591	5695.625	28.22374	-85.94456	0.6276292
44.2399	5691.039	28.19532	-85.88357	0.6274402
44.29389	5686.458	28.15878	-85.82069	0.6281483
44.34787	5681.886	28.10852	-85.75607	0.6294971
44.40186	5677.327	28.02997	-85.68985	0.6313237
44.45584	5672.785	27.90911	-85.62218	0.6335901
44.50983	5668.26	27.74064	-85.55322	0.6363886
44.56382	5663.746	27.52902	-85.48311	0.6399439
44.61781	5659.237	27.27869	-85.41195	0.6445846
44.67179	5654.729	26.99771	-85.33986	0.6507145
44.72578	5650.221	26.69898	-85.26701	0.6587219
44.77976	5645.714	26.39576	-85.19358	0.6689181
44.83375	5641.204	26.0955	-85.11982	0.6814509
44.88774	5636.676	25.8011	-85.04598	0.6962133
44.94172	5632.123	25.51008	-84.97234	0.7128091
44.99571	5627.54	25.22128	-84.89916	0.7305697
45.04969	5622.935	24.93771	-84.82668	0.7486321
45.10368	5618.32	24.66767	-84.75513	0.7660207
45.15767	5613.707	24.41989	-84.68475	0.7817189
45.21165	5609.105	24.2034	-84.61574	0.7947289
45.26564	5604.518	24.0247	-84.54834	0.804163
45.31963	5599.944	23.88836	-84.48275	0.8092722
45.37362	5595.375	23.79586	-84.41908	0.8095503
45.4276	5590.802	23.74742	-84.35741	0.8046983
45.48159	5586.224	23.74126	-84.29775	0.7946446
45.53557	5581.638	23.77177	-84.24007	0.7795223
45.58956	5577.043	23.83153	-84.18428	0.7596516
45.64355	5572.441	23.91241	-84.13029	0.7355069
45.69753	5567.824	24.01045	-84.07796	0.707679
45.75152	5563.188	24.12406	-84.02714	0.6768774
45.8055	5558.538	24.24646	-83.9777	0.6438856
45.85949	5553.883	24.36824	-83.9295	0.6095965
45.91348	5549.236	24.47742	-83.88239	0.574981
45.96746	5544.606	24.56206	-83.83622	0.5410767
46.02145	5540.001	24.61646	-83.7908	0.5089411
46.07544	5535.426	24.64464	-83.74597	0.4796158
46.12942	5530.882	24.65593	-83.70155	0.4540523
46.18341	5526.367	24.66054	-83.65738	0.4329839
46.2374	5521.876	24.67083	-83.61327	0.4168503
46.29138	5517.403	24.69659	-83.56902	0.4057196
46.34537	5512.941	24.73678	-83.52442	0.3992669
46.39935	5508.487	24.78246	-83.47922	0.3967825
46.45334	5504.043	24.8264	-83.43314	0.3972507
46.50733	5499.606	24.86666	-83.3859	0.3995009
46.56131	5495.169	24.89587	-83.33719	0.4023296
46.6153	5490.729	24.89947	-83.28671	0.4046423
46.66928	5486.289	24.87122	-83.23418	0.4055848
46.72327	5481.851	24.81905	-83.17939	0.4046163
46.77726	5477.417	24.76188	-83.12219	0.401644
46.83125	5472.986	24.71852	-83.0625	0.3970522
46.88523	5468.559	24.70196	-83.00027	0.3918073
46.93922	5464.133	24.72017	-82.93551	0.3874733
46.99321	5459.707	24.77872	-82.86832	0.3861023
47.04719	5455.279	24.88585	-82.79883	0.3899835
47.10118	5450.846	25.04724	-82.7272	0.4012356
47.15516	5446.41	25.25944	-82.65369	0.421319
47.20915	5441.97	25.51782	-82.57863	0.4507256
47.26314	5437.53	25.81513	-82.50237	0.488968
47.31712	5433.084	26.13918	-82.42532	0.5348493
47.37111	5428.626	26.47043	-82.34783	0.5867966
47.42509	5424.149	26.79031	-82.27028	0.6431398
47.47908	5419.649	27.08941	-82.19299	0.702258
47.53307	5415.134	27.36449	-82.11628	0.7626517
47.58706	5410.617	27.61109	-82.04047	0.8229535
47.64104	5406.111	27.82552	-81.96578	0.8819486
47.69503	5401.621	28.00229	-81.89246	0.938571
47.74901	5397.143	28.13383	-81.82068	0.9919116
47.803	5392.674	28.22167	-81.75054	1.041209
47.85699	5388.212	28.27022	-81.68215	1.085839
47.91097	5383.756	28.27978	-81.61559	1.125313
47.96496	5379.313	28.24724	-81.55093	1.159268
48.01894	5374.885	28.16796	-81.48827	1.187457
48.07293	5370.472	28.04035	-81.42776	1.209717
48.12692	5366.073	27.86849	-81.36952	1.225959
48.1809	5361.682	27.65982	-81.31374	1.236173
48.23489	5357.299	27.42316	-81.26053	1.240427
48.28888	5352.92	27.16425	-81.21004	1.238871
48.34286	5348.541	26.89448	-81.16235	1.231751
48.39685	5344.152	26.62585	-81.11752	1.219422
48.45084	5339.755	26.36245	-81.07552	1.202351
48.50482	5335.351	26.10342	-81.03632	1.18116
48.55881	5330.943	25.83991	-80.99973	1.156612
48.6128	5326.532	25.56069	-80.96558	1.129659
48.66678	5322.124	25.25756	-80.93363	1.10139
48.72077	5317.724	24.93392	-80.90358	1.073028
48.77475	5313.343	24.60244	-80.87513	1.045843
48.82874	5308.989	24.27763	-80.84795	1.021058
48.88273	5304.664	23.96714	-80.82171	0.9997433
48.93671	5300.368	23.66961	-80.79607	0.9826975
48.9907	5296.102	23.37851	-80.77076	0.9704078
49.04469	5291.86	23.09449	-80.74554	0.962998
49.09867	5287.636	22.81913	-80.7202	0.9602497
49.15266	5283.423	22.55891	-80.69462	0.9616283
49.20665	5279.213	22.32624	-80.66871	0.9663658
49.26063	5274.999	22.138	-80.64243	0.9735659
49.31462	5270.774	22.00229	-80.61575	0.9822821
49.3686	5266.538	21.91681	-80.58871	0.9915627
49.42259	5262.291	21.87127	-80.56133	1.00051
49.47658	5258.031	21.86057	-80.53372	1.008364
49.53056	5253.759	21.88037	-80.50595	1.01452
49.58455	5249.478	21.92506	-80.47811	1.018559
49.63853	5245.199	21.98477	-80.45022	1.020232
49.69252	5240.925	22.04619	-80.42229	1.019465
49.74651	5236.654	22.09987	-80.39426	1.016341
49.8005	5232.379	22.14141	-80.36605	1.011056
49.85448	5228.091	22.17233	-80.3375	1.003849
49.90847	5223.789	22.19517	-80.30846	0.9949906
49.96246	5219.469	22.2093	-80.27876	0.9847271
50.01644	5215.128	22.21939	-80.24825	0.9732708
50.07043	5210.766	22.23479	-80.2168	0.96075
50.12441	5206.383	22.2706	-80.18434	0.9472376
50.1784	5201.984	22.33904	-80.15078	0.9327087
50.23239	5197.577	22.4422	-80.11604	0.9170652
50.28637	5193.166	22.57714	-80.08007	0.9001371
50.34036	5188.75	22.7411	-80.04284	0.8817406
50.39434	5184.33	22.92987	-80.00431	0.8616768
50.44833	5179.905	23.13913	-79.96451	0.839751
50.50232	5175.482	23.36285	-79.92342	0.8158542
50.5563	5171.063	23.59013	-79.88105	0.7899294
50.61029	5166.647	23.80746	-79.83733	0.7620337
50.66428	5162.229	24.00431	-79.7922	0.7323614
50.71826	5157.807	24.17894	-79.74554	0.7012613
50.77225	5153.377	24.3368	-79.69724	0.6692948
50.82624	5148.938	24.48381	-79.64713	0.6372973
50.88022	5144.49	24.63433	-79.59504	0.6064054
50.93421	5140.041	24.79588	-79.54076	0.5781116
50.98819	5135.603	24.96846	-79.48412	0.5542745
51.04218	5131.188	25.1472	-79.42495	0.5369858
51.09617	5126.813	25.32557	-79.36311	0.5283633
51.15015	5122.486	25.49942	-79.29853	0.5301569
51.20414	5118.208	25.65925	-79.23118	0.5433783
51.25813	5113.972	25.79142	-79.16113	0.5680776
51.31211	5109.756	25.88573	-79.08851	0.6034166
51.3661	5105.547	25.935	-79.01353	0.6479044
51.42009	5101.335	25.93857	-78.93649	0.699735
51.47407	5097.112	25.90332	-78.8577	0.7570314
51.52806	5092.869	25.83877	-78.77752	0.8180204
51.58205	5088.601	25.7518	-78.69629	0.8811132
51.63603	5084.311	25.64574	-78.6143	0.9449119
51.69002	5080.003	25.52221	-78.53179	1.008197
51.744	5075.685	25.38144	-78.44901	1.069916
51.79799	5071.369	25.22709	-78.36614	1.129161
51.85198	5067.068	25.06529	-78.28333	1.185158
51.90596	5062.794	24.89767	-78.20074	1.237267
51.95995	5058.551	24.71862	-78.11853	1.284927
52.01394	5054.339	24.51982	-78.03682	1.327685
52.06792	5050.157	24.29135	-77.95574	1.365155
52.12191	5045.997	24.0343	-77.8754	1.397006
52.1759	5041.862	23.75759	-77.79591	1.422933
52.22988	5037.75	23.47292	-77.71736	1.44267
52.28387	5033.658	23.18575	-77.63982	1.455971
52.33785	5029.575	22.8986	-77.56339	1.462642
52.39184	5025.493	22.60864	-77.48812	1.46254
52.44583	5021.398	22.32101	-77.41413	1.455592
52.49981	5017.286	22.04209	-77.34147	1.441813
52.5538	5013.157	21.77469	-77.2702	1.421304
52.60778	5009.014	21.51375	-77.20039	1.394208
52.66177	5004.862	21.25422	-77.13207	1.360765
52.71576	5000.716	20.99212	-77.06528	1.321237
52.76974	4996.587	20.72468	-77.00003	1.275899
52.82373	4992.485	20.45404	-76.93628	1.225029
52.87772	4988.415	20.1894	-76.87394	1.168912
52.93171	4984.381	19.93437	-76.81289	1.107891
52.98569	4980.379	19.6852	-76.75294	1.04233
53.03968	4976.402	19.43217	-76.69391	0.9726158
53.09366	4972.44	19.17765	-76.63555	0.8991925
53.14765	4968.48	18.93323	-76.57767	0.8225899
53.20163	4964.51	18.71034	-76.52007	0.7434726
53.25562	4960.515	18.5184	-76.46256	0.6626575
53.30961	4956.482	18.36723	-76.40501	0.581181
53.36359	4952.409	18.26982	-76.34732	0.5003734
53.41758	4948.298	18.23959	-76.28942	0.4220873
53.47157	4944.157	18.2802	-76.23132	0.3491797
53.52555	4939.997	18.38539	-76.17303	0.2864866
53.57954	4935.824	18.54871	-76.11462	0.2421028
53.63353	4931.646	18.76016	-76.05617	0.2262236
53.68751	4927.462	19.00276	-75.99776	0.2429015
53.7415	4923.274	19.25525	-75.93948	0.2844553
53.79549	4919.08	19.49975	-75.88137	0.3396577
53.84947	4914.885	19.72943	-75.82343	0.4005612
53.90346	4910.693	19.94109	-75.76567	0.4625305
53.95744	4906.5	20.13568	-75.70805	0.5228207
54.01143	4902.305	20.31492	-75.65051	0.5796618
54.06542	4898.105	20.48089	-75.59295	0.6318393
54.1194	4893.906	20.63856	-75.53524	0.6784799
54.17339	4889.716	20.79615	-75.47725	0.7189232
54.22738	4885.537	20.96338	-75.41882	0.7526957
54.28136	4881.37	21.1488	-75.35977	0.7794659
54.33535	4877.216	21.35258	-75.29993	0.7990102
54.38934	4873.078	21.56801	-75.23914	0.811224
54.44332	4868.956	21.79112	-75.17721	0.8161049
54.49731	4864.845	22.01825	-75.11394	0.8137711
54.55129	4860.742	22.24306	-75.04917	0.8044606
54.60528	4856.643	22.45934	-74.9828	0.7884899
54.65927	4852.551	22.65968	-74.91476	0.7662635
54.71325	4848.467	22.83618	-74.84505	0.7382833
54.76724	4844.391	22.98641	-74.77375	0.7051553
54.82122	4840.314	23.11823	-74.70093	0.6675767
54.87521	4836.237	23.24418	-74.62667	0.6263254
54.9292	4832.164	23.3743	-74.5511	0.5822254
54.98318	4828.099	23.50727	-74.47433	0.5361136
55.03717	4824.056	23.64059	-74.39651	0.4888344
55.09116	4820.044	23.78031	-74.31776	0.4412389
55.14515	4816.07	23.93102	-74.23826	0.3941694
55.19913	4812.132	24.09121	-74.15816	0.3484896
55.25312	4808.225	24.25375	-74.07758	0.3051368
55.3071	4804.336	24.41089	-73.9967	0.2651832
55.36109	4800.452	24.56359	-73.9156	0.2299231
55.41508	4796.558	24.71091	-73.83443	0.2009402
55.46906	4792.643	24.84257	-73.75333	0.1800141
55.52305	4788.701	24.94662	-73.67247	0.1685699
55.57703	4784.736	25.01486	-73.59203	0.1667787
55.63102	4780.755	25.04341	-73.51221	0.173125
55.68501	4776.764	25.02393	-73.43323	0.1851384
55.73899	4772.767	24.94726	-73.35527	0.2004649
55.79298	4768.78	24.80433	-73.27852	0.2174415
55.84697	4764.822	24.59	-73.20314	0.2351841
55.90095	4760.902	24.30383	-73.12929	0.2534643
55.95494	4757.017	23.95908	-73.0571	0.2725661
56.00893	4753.16	23.58042	-72.98669	0.2930735
56.06291	4749.321	23.19411	-72.91813	0.3157108
56.1169	4745.494	22.81733	-72.85147	0.3411976
56.17088	4741.666	22.45982	-72.78669	0.3700926
56.22487	4737.827	22.12132	-72.72371	0.4026991
56.27886	4733.971	21.80297	-72.66238	0.4390404
56.33284	4730.104	21.5038	-72.60252	0.4788647
56.38683	4726.229	21.22075	-72.54386	0.5216803
56.44081	4722.35	20.94449	-72.48618	0.5668226
56.4948	4718.464	20.66766	-72.42916	0.6134942
56.54879	4714.568	20.38815	-72.37255	0.6608427
56.60278	4710.662	20.1097	-72.31612	0.7079635
56.65676	4706.749	19.83764	-72.25968	0.7539851
56.71075	4702.835	19.57695	-72.20312	0.7980577
56.76474	4698.928	19.33297	-72.14635	0.8393744
56.81872	4695.037	19.1203	-72.08932	0.8771967
56.87271	4691.167	18.95409	-72.03202	0.9108594
56.92669	4687.318	18.84598	-71.97446	0.9397724
56.98068	4683.493	18.80223	-71.91669	0.9634338
57.03467	4679.691	18.82726	-71.85875	0.9814098
57.08865	4675.909	18.91918	-71.80074	0.9933645
57.14264	4672.134	19.07121	-71.74276	0.9990472
57.19662	4668.349	19.27272	-71.68493	0.9983065
57.25061	4664.538	19.51259	-71.62734	0.9910787
57.3046	4660.685	19.78423	-71.5701	0.9773793
57.35859	4656.785	20.07997	-71.51328	0.9573219
57.41257	4652.845	20.3918	-71.45695	0.9311235
57.46656	4648.873	20.71021	-71.40115	0.8990687
57.52054	4644.876	21.0253	-71.34592	0.8615362
57.57453	4640.871	21.33204	-71.29121	0.8190174
57.62852	4636.867	21.62287	-71.23693	0.7721151
57.6825	4632.868	21.889	-71.1829	0.7215512
57.73649	4628.877	22.12438	-71.12892	0.6681303
57.79047	4624.897	22.32893	-71.07473	0.6127318
57.84446	4620.933	22.50496	-71.02006	0.5563
57.89845	4616.988	22.64743	-70.96463	0.4998467
57.95243	4613.067	22.75395	-70.90816	0.4444314
58.00642	4609.17	22.82733	-70.85034	0.3911872
58.06041	4605.296	22.87384	-70.79087	0.341356
58.1144	4601.441	22.90179	-70.72944	0.296472
58.16838	4597.598	22.91316	-70.66575	0.2585632
58.22237	4593.762	22.90683	-70.59946	0.2303743
58.27635	4589.93	22.88106	-70.53028	0.2151979
58.33034	4586.096	22.83079	-70.45793	0.2157163
58.38433	4582.259	22.74606	-70.38216	0.2324213
58.43831	4578.426	22.61436	-70.30275	0.2634337
58.4923	4574.608	22.4248	-70.21948	0.3060256
58.54628	4570.816	22.17259	-70.13217	0.3578936
58.60027	4567.06	21.86606	-70.04064	0.4174175
58.65426	4563.341	21.52674	-69.94475	0.4834527
58.70824	4559.662	21.18002	-69.84439	0.5551213
58.76223	4556.018	20.85056	-69.73947	0.6315866
58.81622	4552.402	20.55969	-69.62998	0.7120026
58.8702	4548.802	20.32399	-69.51598	0.7954493
58.92419	4545.203	20.15572	-69.39757	0.8809126
58.97818	4541.59	20.06185	-69.27495	0.9673096
59.03216	4537.958	20.04205	-69.14836	1.053511
59.08615	4534.304	20.08587	-69.01812	1.138374
59.14013	4530.632	20.17445	-68.88461	1.220797
59.19412	4526.94	20.28489	-68.74826	1.299677
59.24811	4523.226	20.39835	-68.60952	1.373945
59.30209	4519.487	20.49786	-68.46886	1.442563
59.35608	4515.729	20.57091	-68.32674	1.504534
59.41006	4511.953	20.61007	-68.18365	1.558925
59.46405	4508.163	20.61943	-68.04007	1.604841
59.51804	4504.365	20.61178	-67.89642	1.64143
59.57203	4500.562	20.60373	-67.75304	1.667921
59.62601	4496.756	20.6042	-67.61023	1.683652
59.68	4492.952	20.61019	-67.46815	1.688114
59.73399	4489.154	20.61301	-67.32684	1.680932
59.78797	4485.371	20.60714	-67.18626	1.661909
59.84196	4481.605	20.59251	-67.04629	1.631022
59.89594	4477.859	20.56689	-66.90675	1.588436
59.94993	4474.13	20.52472	-66.76736	1.534456
60.00392	4470.417	20.46074	-66.62782	1.469562
60.0579	4466.717	20.37181	-66.48774	1.394398
60.11189	4463.032	20.25147	-66.3467	1.309785
60.16587	4459.369	20.09428	-66.20425	1.216682
60.21986	4455.74	19.89604	-66.05996	1.116237
60.27385	4452.15	19.65939	-65.91338	1.009754
60.32784	4448.602	19.39253	-65.7641	0.8987387
60.38182	4445.09	19.10587	-65.61176	0.7849868
60.43581	4441.615	18.81334	-65.45599	0.6706951
60.48979	4438.171	18.52713	-65.29643	0.5587795
60.54378	4434.756	18.25443	-65.13271	0.4535805
60.59777	4431.371	17.99782	-64.96445	0.3623371
60.65175	4428.005	17.75983	-64.79128	0.2975117
60.70574	4424.65	17.54221	-64.61279	0.2752616
60.75972	4421.294	17.35016	-64.4286	0.3005162
60.81371	4417.934	17.19133	-64.23827	0.3584479
60.8677	4414.567	17.07521	-64.04139	0.4312871
60.92168	4411.193	17.00868	-63.83758	0.5081311
60.97567	4407.81	16.99361	-63.6265	0.5833018
61.02966	4404.424	17.02512	-63.40786	0.6537669
61.08364	4401.041	17.09829	-63.18139	0.7178106
61.13763	4397.665	17.20707	-62.94689	0.7744211
61.19162	4394.295	17.34679	-62.70419	0.8229942
61.2456	4390.929	17.51332	-62.45317	0.8632076
61.29959	4387.562	17.70146	-62.19374	0.894957
61.35358	4384.188	17.90083	-61.92588	0.918308
61.40756	4380.8	18.09869	-61.64963	0.9334714
61.46155	4377.391	18.2896	-61.36504	0.9407921
61.51553	4373.958	18.46904	-61.0722	0.9407492
61.56952	4370.499	18.63537	-60.77121	0.9339375
61.62351	4367.01	18.79083	-60.46213	0.9210554
61.67749	4363.496	18.93917	-60.14499	0.9028931
61.73148	4359.969	19.08407	-59.81979	0.8803221
61.78547	4356.448	19.23132	-59.48646	0.8542752
61.83945	4352.958	19.38577	-59.14486	0.8256679
61.89344	4349.516	19.54588	-58.79484	0.7953824
61.94743	4346.133	19.71145	-58.43619	0.7642259
62.00141	4342.81	19.885	-58.06863	0.7328709
62.0554	4339.541	20.07455	-57.69186	0.7018465
62.10938	4336.324	20.28442	-57.30552	0.6715017
62.16337	4333.155	20.51066	-56.90921	0.6420014
62.21736	4330.029	20.73757	-56.50253	0.6133305
62.27134	4326.932	20.94531	-56.08508	0.5852962
62.32533	4323.854	21.11707	-55.65644	0.5575327
62.37931	4320.783	21.23977	-55.21621	0.5295609
62.4333	4317.705	21.30359	-54.76399	0.5008196
62.48729	4314.609	21.30524	-54.29939	0.4707581
62.54128	4311.502	21.25224	-53.82204	0.438885
62.59526	4308.395	21.16277	-53.33161	0.4047878
62.64925	4305.302	21.05597	-52.82779	0.368176
62.70324	4302.244	20.95122	-52.31026	0.3288623
62.75722	4299.239	20.86272	-51.77871	0.2868335
62.81121	4296.299	20.80245	-51.23269	0.2422168
62.86519	4293.426	20.77521	-50.67175	0.1954165
62.91918	4290.613	20.78014	-50.09534	0.1472072
62.97317	4287.847	20.81185	-49.50288	0.09939423
63.02715	4285.117	20.86315	-48.89373	0.05856068
63.08114	4282.411	20.92092	-48.26722	0.05215439
63.13512	4279.716	20.96902	-47.62261	0.08883236
63.18911	4277.023	20.98667	-46.9591	0.1370979
63.2431	4274.33	20.95855	-46.27583	0.1870975
63.29708	4271.648	20.87253	-45.57192	0.23627
63.35107	4268.993	20.7251	-44.84648	0.2834126
63.40506	4266.377	20.53165	-44.09861	0.3276951
63.45904	4263.813	20.31844	-43.32742	0.3684493
63.51303	4261.309	20.10328	-42.53202	0.4051006
63.56702	4258.868	19.90371	-41.71154	0.4371476
63.621	4256.491	19.73193	-40.86509	0.4641569
63.67499	4254.179	19.60001	-39.9918	0.4857353
63.72897	4251.935	19.51165	-39.09078	0.5015261
63.78296	4249.762	19.46586	-38.16112	0.5112285
63.83695	4247.665	19.45675	-37.20184	0.5145854
63.89093	4245.633	19.47448	-36.21197	0.5114374
63.94492	4243.659	19.49915	-35.19044	0.5017459
63.99891	4241.725	19.51504	-34.13618	0.4856198
64.05289	4239.818	19.50589	-33.04803	0.4634641
64.10688	4237.931	19.45983	-31.92483	0.4360854
64.16087	4236.058	19.37337	-30.76534	0.4050668
64.21485	4234.198	19.2505	-29.56841	0.3733533
64.26884	4232.351	19.10253	-28.33284	0.3458724
64.32282	4230.53	18.94331	-27.05741	0.3301446
64.37681	4228.746	18.78491	-25.74097	0.3351183
64.43079	4227.011	18.63217	-24.38235	0.3671997
64.48479	4225.329	18.4882	-22.98037	0.4267685
64.53877	4223.703	18.35712	-21.53395	0.5096497
64.59276	4222.139	18.24494	-20.04198	0.6106869
64.64674	4220.637	18.15672	-18.50343	0.7255881
64.70073	4219.192	18.09303	-16.91733	0.8510757
64.75471	4217.799	18.05232	-15.28269	0.9846711
64.8087	4216.453	18.02804	-13.59853	1.124421
64.86269	4215.153	18.0125	-11.86383	1.268724
64.91667	4213.904	17.99684	-10.07751	1.416224
64.97066	4212.716	17.97225	-8.238459	1.565801
65.02465	4211.6	17.93854	-6.34553	1.716396
65.07864	4210.564	17.90953	-4.397527	1.867167
65.13262	4209.611	17.89952	-2.393155	2.017404
65.18661	4208.744	17.91533	-0.3311023	2.166466
65.24059	4207.969	17.95523	1.790066	2.313795
65.29458	4207.297	18.00635	3.971849	2.458909
65.34856	4206.749	18.06194	6.21581	2.601374
65.40255	4206.346	18.12638	8.523624	2.740782
65.45654	4206.108	18.20477	10.89702	2.876743
65.51052	4206.043	18.29821	13.33782	3.008957
65.56451	4206.144	18.4056	15.84793	3.137111
65.6185	4206.4	18.53061	18.4293	3.260995
65.67249	4206.802	18.68119	21.08402	3.380475
65.72647	4207.346	18.85849	23.81425	3.495523
65.78046	4208.033	19.06411	26.62224	3.606275
65.83444	4208.861	19.30003	29.51031	3.712837
65.88843	4209.828	19.56599	32.48087	3.81557
65.94241	4210.934	19.86182	35.53642	3.914878
65.9964	4212.185	20.18463	38.67957	4.011375
66.05038	4213.595	20.52209	41.91301	4.105697
66.10438	4215.179	20.85665	45.23952	4.198599
66.15836	4216.951	21.17017	48.66195	4.290907
66.21235	4218.917	21.45249	52.18319	4.383439
66.26633	4221.083	21.69795	55.80614	4.477031
66.32032	4223.453	21.90712	59.5338	4.572545
66.37431	4226.026	22.0788	63.36916	4.670655
66.42829	4228.799	22.21672	67.31522	4.771979
66.48228	4231.766	22.32339	71.37509	4.876928
66.53626	4234.922	22.40676	75.55186	4.985721
66.59025	4238.27	22.47965	79.84866	5.098483
66.64424	4241.81	22.56041	84.26861	5.214909
66.69823	4245.549	22.65986	88.81476	5.334889
66.75221	4249.484	22.78411	93.49038	5.457977
66.8062	4253.625	22.93154	98.29851	5.583883
66.86018	4257.979	23.09852	103.2423	5.712074
66.91417	4262.563	23.273	108.325	5.842275
66.96815	4267.393	23.43956	113.5497	5.974047
67.02214	4272.481	23.58478	118.9196	6.107075
67.07613	4277.835	23.7017	124.438	6.241149
67.13011	4283.456	23.78158	130.1082	6.375988
67.1841	4289.343	23.82389	135.9336	6.51145
67.23809	4295.495	23.83315	141.9175	6.647537
67.29208	4301.905	23.82066	148.0636	6.784182
67.34606	4308.575	23.80899	154.3755	6.921374
67.40005	4315.508	23.82804	160.857	7.059183
67.45403	4322.715	23.90533	167.5121	7.197779
67.50802	4330.208	24.05593	174.3447	7.337132
67.562	4337.991	24.28587	181.3593	7.477324
67.61599	4346.075	24.59574	188.5601	7.618736
67.66998	4354.471	24.97516	195.9518	7.761472
67.72397	4363.197	25.40676	203.5391	7.906098
67.77795	4372.274	25.87105	211.3268	8.052923
67.83194	4381.721	26.34883	219.3197	8.202356
67.88593	4391.554	26.82403	227.5226	8.354891
67.93991	4401.784	27.28082	235.9404	8.510798
67.9939	4412.421	27.70929	244.5775	8.670652
68.04788	4423.483	28.10982	253.4387	8.834854
68.10187	4434.982	28.49223	262.5281	9.003785
68.15585	4446.933	28.87324	271.8497	9.177769
68.20984	4459.353	29.27843	281.4071	9.357156
68.26383	4472.263	29.73207	291.2032	9.54232
68.31782	4485.686	30.2518	301.2401	9.73324
68.3718	4499.645	30.84525	311.5198	9.930023
68.42579	4514.156	31.50829	322.0429	10.13286
68.47977	4529.236	32.23084	332.8096	10.34162
68.53376	4544.899	32.99844	343.8189	10.5559
68.58775	4561.167	33.79476	355.0692	10.77573
68.64173	4578.06	34.59907	366.5577	11.00055
68.69572	4595.591	35.38562	378.2807	11.22992
68.7497	4613.769	36.12879	390.2338	11.46306
68.8037	4632.599	36.81383	402.411	11.69952
68.85768	4652.082	37.43772	414.806	11.93846
68.91167	4672.225	38.0018	427.4113	12.17896
68.96565	4693.031	38.51732	440.2185	12.42006
69.01964	4714.515	39.00571	453.2185	12.6606
69.07362	4736.686	39.48364	466.4013	12.89945
69.12761	4759.561	39.95977	479.7559	13.13507
69.18159	4783.154	40.44057	493.2711	13.36587
69.23558	4807.482	40.93308	506.9342	13.59045
69.28957	4832.555	41.44307	520.7323	13.80705
69.34356	4858.385	41.96862	534.6514	14.01375
69.39754	4884.99	42.50807	548.6772	14.20891
69.45153	4912.392	43.05109	562.7944	14.3907
69.50552	4940.613	43.58945	576.9868	14.5573
69.5595	4969.679	44.1183	591.2383	14.70685
69.61349	4999.613	44.63843	605.5315	14.83778
69.66747	5030.447	45.14557	619.8488	14.94839
69.72146	5062.207	45.63898	634.1721	15.03714
69.77544	5094.921	46.12035	648.4825	15.1025
69.82943	5128.61	46.60391	662.7607	15.14301
69.88342	5163.299	47.10339	676.987	15.15723
69.93741	5199.015	47.64067	691.1409	15.14379
69.99139	5235.792	48.23542	705.2015	15.10137
70.04538	5273.665	48.91057	719.1478	15.02865
70.09937	5312.663	49.67524	732.9581	14.92438
70.15335	5352.81	50.5406	746.6103	14.78759
70.20734	5394.135	51.51533	760.082	14.61699
70.26132	5436.668	52.60328	773.35	14.41189
70.31531	5480.428	53.79649	786.391	14.17151
70.36929	5525.417	55.07497	799.1806	13.89545
70.42329	5571.627	56.40964	811.6943	13.58329
70.47727	5619.029	57.7768	823.9072	13.23497
70.53126	5667.594	59.15084	835.7935	12.85071
70.58524	5717.289	60.51209	847.3273	12.43079
70.63923	5768.072	61.83593	858.4821	11.97589
70.69321	5819.893	63.09862	869.2313	11.48671
70.7472	5872.685	64.28838	879.5486	10.96477
70.80119	5926.376	65.40707	889.4066	10.41155
70.85517	5980.886	66.46973	898.7793	9.828504
70.90916	6036.14	67.48698	907.6404	9.217727
70.96315	6092.062	68.47085	915.9648	8.581882
71.01714	6148.581	69.43029	923.7271	7.922894
71.07112	6205.627	70.37241	930.9038	7.244114
71.12511	6263.147	71.29772	937.4725	6.548866
71.17909	6321.091	72.20834	943.4111	5.842015
71.23308	6379.417	73.10515	948.7004	5.128551
71.28706	6438.097	73.98815	953.3219	4.416541
71.34105	6497.11	74.85598	957.259	3.718088
71.39503	6556.44	75.70451	960.4971	3.054131
71.44902	6616.074	76.51547	963.0234	2.464592
71.50301	6675.994	77.26747	964.8271	2.026098
71.557	6736.184	77.94302	965.9004	1.857367
71.61098	6796.623	78.53085	966.236	2.031152
71.66497	6857.289	79.02178	965.8308	2.475256
71.71896	6918.157	79.40794	964.6825	3.072788
71.77294	6979.197	79.68391	962.7921	3.747415
71.82693	7040.373	79.84451	960.1616	4.460678
71.88091	7101.629	79.88586	956.7964	5.191915
71.9349	7162.908	79.80871	952.7039	5.929792
71.98888	7224.146	79.61995	947.8925	6.667254
72.04288	7285.281	79.32555	942.3745	7.399665
72.09686	7346.243	78.9239	936.1629	8.123705
72.15085	7406.963	78.40938	929.2731	8.836947
72.20483	7467.373	77.77428	921.7224	9.537403
72.25882	7527.392	77.01521	913.5292	10.22355
72.31281	7586.93	76.1227	904.7141	10.89404
72.36679	7645.878	75.08878	895.2985	11.54812
72.42078	7704.114	73.90269	885.3052	12.18388
72.47476	7761.514	72.55859	874.7584	12.80084
72.52875	7817.967	71.05457	863.6825	13.39805
72.58274	7873.375	69.39941	852.103	13.97467
72.63673	7927.664	67.6058	840.0461	14.52951
72.69071	7980.75	65.70193	827.5378	15.06234
72.7447	8032.549	63.72092	814.605	15.57197
72.79868	8082.962	61.71333	801.274	16.05742
72.85267	8131.904	59.7283	787.5722	16.51793
72.90665	8179.31	57.81036	773.5262	16.95251
72.96064	8225.136	55.99381	759.1627	17.36011
73.01463	8269.351	54.29795	744.5084	17.73968
73.06861	8311.942	52.72673	729.5894	18.09
73.1226	8352.907	51.27694	714.4321	18.40997
73.17659	8392.251	49.9381	699.0623	18.69838
73.23058	8429.991	48.68747	683.5059	18.95374
73.28456	8466.154	47.49822	667.7888	19.17496
73.33855	8500.773	46.34485	651.9365	19.36069
73.39253	8533.882	45.20817	635.9745	19.50967
73.44652	8565.52	44.09034	619.9283	19.62069
73.5005	8595.732	43.00586	603.8233	19.69273
73.55449	8624.569	41.97013	587.6846	19.72479
73.60847	8652.07	40.9982	571.5373	19.71635
73.66246	8678.27	40.10167	555.4062	19.66708
73.71645	8703.203	39.2942	539.316	19.577
73.77044	8726.928	38.58289	523.2909	19.44635
73.82442	8749.496	37.97126	507.3549	19.27576
73.87841	8770.958	37.4501	491.5316	19.0661
73.9324	8791.358	37.00359	475.8437	18.81838
73.98638	8810.742	36.61855	460.3138	18.53389
74.04037	8829.158	36.27876	444.9633	18.21461
74.09435	8846.665	35.95295	429.8128	17.862
74.14834	8863.334	35.60299	414.8823	17.47817
74.20232	8879.242	35.19999	400.1907	17.06537
74.25632	8894.465	34.72898	385.7559	16.62627
74.3103	8909.082	34.19701	371.595	16.163
74.36429	8923.153	33.63049	357.7235	15.67857
74.41827	8936.719	33.05447	344.1562	15.17617
74.47226	8949.795	32.48144	330.9059	14.65869
74.52625	8962.38	31.91056	317.9845	14.1295
74.58023	8974.479	31.34059	305.4022	13.59197
74.63422	8986.1	30.77084	293.1678	13.04953
74.6882	8997.271	30.19944	281.2884	12.50561
74.74219	9008.016	29.61892	269.7696	11.96349
74.79618	9018.351	29.02384	258.6156	11.42648
74.85017	9028.294	28.40647	247.8285	10.89821
74.90415	9037.86	27.76417	237.4088	10.3812
74.95814	9047.068	27.09101	227.3555	9.878246
75.01212	9055.935	26.38032	217.6659	9.391699
75.06611	9064.479	25.62922	208.3355	8.923745
75.12009	9072.719	24.85432	199.3585	8.475615
75.17408	9080.674	24.07362	190.7274	8.048598
75.22807	9088.371	23.31107	182.4338	7.643789
75.28205	9095.838	22.58094	174.4678	7.261301
75.33604	9103.079	21.90005	166.8187	6.901251
75.39003	9110.09	21.2878	159.4752	6.563353
75.44402	9116.849	20.77368	152.425	6.246991
75.498	9123.343	20.37156	145.6556	5.951294
75.55199	9129.561	20.08179	139.1541	5.675177
75.60597	9135.495	19.89478	132.9076	5.417468
75.65996	9141.138	19.79999	126.9029	5.177174
75.71394	9146.491	19.79034	121.1272	4.952828
75.76793	9151.565	19.86296	115.5676	4.743347
75.82191	9156.373	20.0156	110.2119	4.547616
75.87591	9160.931	20.22528	105.0477	4.364696
75.92989	9165.248	20.46926	100.0635	4.193566
75.98388	9169.334	20.73612	95.24785	4.033563
76.03786	9173.196	21.02497	90.59007	3.884244
76.09185	9176.846	21.33508	86.07972	3.745118
76.14584	9180.288	21.66479	81.70723	3.615996
76.19982	9183.518	22.01295	77.46361	3.49684
76.25381	9186.528	22.37344	73.34056	3.387763
76.30779	9189.317	22.74952	69.3305	3.289038
76.36178	9191.899	23.15601	65.42649	3.201078
76.41577	9194.291	23.60198	61.62243	3.124418
76.46976	9196.509	24.0802	57.91281	3.059726
76.52374	9198.563	24.57648	54.29278	3.00753
76.57773	9200.456	25.07917	50.75821	2.968267
76.63171	9202.201	25.57441	47.30555	2.942075
76.6857	9203.83	26.04375	43.93174	2.928766
76.73969	9205.376	26.46332	40.6343	2.92767
76.79367	9206.871	26.80358	37.41109	2.937805
76.84766	9208.336	27.04329	34.26047	2.957785
76.90164	9209.779	27.17507	31.18096	2.985978
76.95564	9211.198	27.20526	28.17146	3.020506
77.00962	9212.588	27.14588	25.231	3.059403
77.06361	9213.928	27.01879	22.35872	3.100706
77.11759	9215.187	26.84893	19.55375	3.142564
77.17158	9216.338	26.65486	16.81519	3.183334
77.22556	9217.358	26.4485	14.1421	3.221584
77.27955	9218.24	26.22975	11.53347	3.256204
77.33353	9218.976	26.00502	8.988071	3.286503
77.38752	9219.559	25.78164	6.504691	3.312072
77.44151	9219.981	25.56794	4.081951	3.332856
77.4955	9220.237	25.36933	1.718357	3.349126
77.54948	9220.318	25.18385	-0.5877112	3.361428
77.60347	9220.209	25.00257	-2.837948	3.370483
77.65746	9219.892	24.82381	-5.034117	3.377183
77.71144	9219.358	24.65411	-7.178138	3.382587
77.76543	9218.606	24.51553	-9.271912	3.387736
77.81941	9217.637	24.43077	-11.31736	3.393607
77.8734	9216.451	24.41672	-13.31641	3.401
77.92738	9215.045	24.48279	-15.27088	3.410485
77.98137	9213.423	24.63039	-17.18256	3.42239
78.03536	9211.593	24.85365	-19.05301	3.43678
78.08935	9209.577	25.1414	-20.88369	3.453414
78.14333	9207.4	25.47553	-22.67591	3.471857
78.19732	9205.094	25.83976	-24.4307	3.49134
78.2513	9202.68	26.2206	-26.14882	3.510968
78.30529	9200.188	26.61136	-27.83084	3.529764
78.35928	9197.638	27.01364	-29.47706	3.546797
78.41326	9195.045	27.43129	-31.08743	3.561095
78.46725	9192.416	27.86218	-32.66162	3.571906
78.52123	9189.743	28.29995	-34.19907	3.578512
78.57523	9187.016	28.74281	-35.69894	3.580315
78.62921	9184.235	29.18669	-37.16022	3.576794
78.6832	9181.406	29.62507	-38.58175	3.567543
78.73718	9178.54	30.04684	-39.96224	3.552288
78.79117	9175.657	30.43303	-41.30039	3.530928
78.84515	9172.777	30.7588	-42.59483	3.503586
78.89914	9169.918	31.00326	-43.84426	3.470526
78.95313	9167.094	31.15141	-45.04744	3.432211
79.00711	9164.322	31.19289	-46.20317	3.389155
79.0611	9161.608	31.1237	-47.3103	3.341954
79.11509	9158.948	30.94044	-48.3679	3.291269
79.16908	9156.333	30.64323	-49.37523	3.237812
79.22306	9153.741	30.23598	-50.33181	3.182173
79.27705	9151.144	29.73698	-51.23742	3.125041
79.33103	9148.509	29.17396	-52.09216	3.066935
79.38502	9145.805	28.57784	-52.8963	3.008371
79.439	9143.014	27.98072	-53.65033	2.949789
79.49299	9140.129	27.40655	-54.355	2.891558
79.54697	9137.146	26.86843	-55.01127	2.833997
79.60096	9134.056	26.37374	-55.62037	2.777361
79.65495	9130.858	25.92011	-56.18373	2.721904
79.70894	9127.56	25.50454	-56.70306	2.667787
79.76292	9124.176	25.11218	-57.18032	2.615121
79.81691	9120.719	24.7293	-57.61758	2.563905
79.8709	9117.208	24.34955	-58.01703	2.514058
79.92488	9113.658	23.97331	-58.38091	2.465415
79.97887	9110.082	23.6038	-58.7115	2.41779
80.03285	9106.48	23.24265	-59.011	2.370952
80.08684	9102.849	22.89358	-59.28154	2.324785
80.14082	9099.172	22.56617	-59.52516	2.27919
80.19482	9095.434	22.26841	-59.74373	2.234162
80.2488	9091.626	22.00929	-59.93899	2.189764
80.30279	9087.76	21.80141	-60.11253	2.146075
80.35677	9083.851	21.65048	-60.26571	2.103214
80.41076	9079.912	21.55515	-60.39973	2.061285
80.46474	9075.956	21.50439	-60.51551	2.020409
80.51873	9071.999	21.49404	-60.61377	1.980681
80.57272	9068.06	21.51648	-60.69503	1.942196
80.6267	9064.157	21.55808	-60.75964	1.90504
80.68069	9060.32	21.59901	-60.8078	1.869304
80.73468	9056.566	21.62461	-60.83959	1.835065
80.78867	9052.921	21.62258	-60.85501	1.802379
80.84265	9049.391	21.58832	-60.854	1.771251
80.89664	9045.971	21.52829	-60.83647	1.741673
80.95062	9042.655	21.45633	-60.80236	1.713526
81.00461	9039.437	21.39796	-60.75161	1.68664
81.05859	9036.3	21.38219	-60.68425	1.660785
81.11258	9033.228	21.42575	-60.60045	1.635738
81.16656	9030.204	21.52854	-60.5006	1.611296
81.22055	9027.207	21.68527	-60.3853	1.587297
81.27454	9024.22	21.8841	-60.25544	1.563662
81.32853	9021.229	22.11249	-60.11217	1.540396
81.38251	9018.222	22.35604	-59.95697	1.517642
81.4365	9015.189	22.59353	-59.79155	1.495721
81.49049	9012.132	22.79742	-59.6179	1.475123
81.54447	9009.054	22.94672	-59.43823	1.456455
81.59846	9005.968	23.03181	-59.25498	1.440399
81.65244	9002.889	23.05401	-59.07071	1.427594
81.70643	8999.823	23.01696	-58.88809	1.418615
81.76041	8996.766	22.92922	-58.70987	1.413968
81.81441	8993.696	22.80501	-58.53884	1.414054
81.86839	8990.598	22.66074	-58.37777	1.419169
81.92238	8987.457	22.51844	-58.2294	1.429474
81.97636	8984.268	22.40031	-58.09638	1.44498
82.03035	8981.032	22.32154	-57.98123	1.465497
82.08434	8977.767	22.28346	-57.88635	1.490689
82.13832	8974.482	22.27853	-57.81394	1.520047
82.19231	8971.188	22.29783	-57.76601	1.552946
82.24629	8967.894	22.33727	-57.74437	1.588781
82.30028	8964.608	22.39315	-57.75072	1.626925
82.35427	8961.348	22.45885	-57.78653	1.666806
82.40826	8958.126	22.53092	-57.85315	1.707928
82.46224	8954.963	22.60726	-57.95167	1.749871
82.51623	8951.874	22.69214	-58.0831	1.792371
82.57021	8948.865	22.79088	-58.24809	1.835188
82.6242	8945.941	22.90182	-58.44712	1.878245
82.67818	8943.104	23.02455	-58.68042	1.92149
82.73217	8940.354	23.16501	-58.94803	1.96493
82.78616	8937.682	23.33189	-59.2498	2.008584
82.84014	8935.064	23.5373	-59.58545	2.05248
82.89413	8932.478	23.78774	-59.95457	2.096701
82.94812	8929.905	24.0775	-60.35662	2.141326
83.00211	8927.337	24.39024	-60.7909	2.18645
83.05609	8924.77	24.70049	-61.25664	2.232283
83.11008	8922.21	24.98218	-61.75308	2.279109
83.16406	8919.659	25.21351	-62.2795	2.327307
83.21805	8917.111	25.37732	-62.83521	2.377335
83.27203	8914.563	25.46014	-63.4196	2.429705
83.32602	8912.002	25.46802	-64.03229	2.485014
83.38	8909.401	25.42532	-64.67297	2.543766
83.434	8906.738	25.36391	-65.34158	2.606436
83.48798	8903.992	25.3136	-66.03825	2.673375
83.54197	8901.149	25.30929	-66.76332	2.744827
83.59595	8898.205	25.38232	-67.51733	2.820925
83.64994	8895.157	25.55073	-68.30092	2.901746
83.70393	8892	25.8106	-69.11488	2.987364
83.75791	8888.735	26.14012	-69.96004	3.077771
83.8119	8885.365	26.50604	-70.83725	3.172905
83.86588	8881.885	26.87498	-71.74734	3.272634
83.91987	8878.286	27.22596	-72.69113	3.376797
83.97386	8874.562	27.54368	-73.66933	3.485177
84.02785	8870.707	27.80939	-74.68258	3.597453
84.08183	8866.725	28.00333	-75.73141	3.713172
84.13582	8862.617	28.11642	-76.81629	3.831777
84.1898	8858.407	28.16225	-77.93747	3.9525
84.24379	8854.112	28.17163	-79.09508	4.074444
84.29778	8849.752	28.17373	-80.28911	4.196578
84.35176	8845.329	28.19968	-81.51941	4.317771
84.40575	8840.843	28.27753	-82.78571	4.436811
84.45973	8836.291	28.42891	-84.08763	4.552458
84.51373	8831.671	28.66008	-85.42468	4.663468
84.56771	8826.982	28.95968	-86.79619	4.768627
84.6217	8822.223	29.29873	-88.20138	4.866712
84.67568	8817.399	29.64053	-89.63929	4.956482
84.72967	8812.526	29.94853	-91.10881	5.036739
84.78365	8807.609	30.18406	-92.60867	5.106336
84.83764	8802.646	30.32699	-94.1375	5.164173
84.89162	8797.633	30.36772	-95.69379	5.20926
84.94561	8792.552	30.31636	-97.27596	5.24075
84.9996	8787.393	30.1958	-98.88226	5.257957
85.05359	8782.156	30.04608	-100.5109	5.260344
85.10757	8776.851	29.91297	-102.1598	5.24753
85.16156	8771.482	29.83118	-103.8271	5.219288
85.21555	8766.066	29.81581	-105.5107	5.175596
85.26953	8760.613	29.8693	-107.2085	5.116641
85.32352	8755.122	29.99037	-108.9183	5.042847
85.3775	8749.579	30.16521	-110.6379	4.954896
85.43149	8743.958	30.36437	-112.3651	4.853641
85.48547	8738.238	30.54503	-114.0979	4.740071
85.53946	8732.407	30.66813	-115.8343	4.61534
85.59345	8726.467	30.70396	-117.5722	4.480695
85.64744	8720.406	30.63857	-119.31	4.337467
85.70142	8714.219	30.46593	-121.0459	4.187038
85.75541	8707.901	30.19541	-122.7784	4.030711
85.80939	8701.477	29.84447	-124.5058	3.869852
85.86338	8694.949	29.44858	-126.2267	3.70575
85.91737	8688.334	29.0514	-127.9397	3.539684
85.97135	8681.625	28.69801	-129.6432	3.372882
86.02534	8674.817	28.40556	-131.336	3.206543
86.07932	8667.897	28.1733	-133.0168	3.041826
86.13332	8660.854	27.98601	-134.6841	2.879819
86.1873	8653.67	27.83821	-136.3367	2.721512
86.24129	8646.343	27.72279	-137.9733	2.567772
86.29527	8638.866	27.62657	-139.5923	2.419282
86.34926	8631.247	27.53643	-141.1926	2.276632
86.40324	8623.486	27.44887	-142.7726	2.140214
86.45723	8615.602	27.3687	-144.331	2.010301
86.51122	8607.6	27.30917	-145.8664	1.887011
86.5652	8599.479	27.28387	-147.3775	1.770279
86.61919	8591.229	27.29662	-148.8632	1.659777
86.67317	8582.844	27.33936	-150.3223	1.555074
86.72717	8574.328	27.40154	-151.7538	1.455591
86.78115	8565.692	27.47245	-153.1568	1.36071
86.83514	8556.943	27.53405	-154.5305	1.269739
86.88912	8548.077	27.56234	-155.8741	1.181975
86.94311	8539.09	27.53552	-157.187	1.096773
86.99709	8529.976	27.44624	-158.4686	1.013398
87.05108	8520.733	27.30621	-159.7185	0.9312176
87.10506	8511.363	27.13773	-160.9364	0.8495803
87.15905	8501.867	26.96931	-162.1218	0.7679334
87.21304	8492.262	26.83221	-163.2744	0.685862
87.26703	8482.565	26.75903	-164.3938	0.6031233
87.32101	8472.802	26.7841	-165.4798	0.5198472
87.375	8462.989	26.92518	-166.5315	0.4367802
87.42899	8453.131	27.17666	-167.5486	0.3551988
87.48297	8443.224	27.51435	-168.5304	0.2778667
87.53696	8433.269	27.90465	-169.4763	0.2104305
87.59094	8423.276	28.31528	-170.3859	0.1648203
87.64493	8413.256	28.71859	-171.2587	0.1579475
87.69891	8403.208	29.08121	-172.0945	0.189696
87.7529	8393.134	29.3713	-172.8929	0.2407105
87.80689	8383.045	29.56453	-173.6541	0.2966944
87.86088	8372.959	29.6428	-174.378	0.3508395
87.91486	8362.881	29.60167	-175.0649	0.3998883
87.96885	8352.817	29.45389	-175.7151	0.4420637
88.02283	8342.774	29.22282	-176.329	0.4763811
88.07682	8332.759	28.9434	-176.9075	0.5023451
88.13081	8322.778	28.65609	-177.4514	0.5199661
88.18479	8312.839	28.39374	-177.9617	0.5296018
88.23878	8302.939	28.18315	-178.4395	0.5325032
88.29276	8293.07	28.03791	-178.8861	0.5305684
88.34676	8283.224	27.95123	-179.3029	0.5268189
88.40074	8273.396	27.90618	-179.6915	0.5254558
88.45473	8263.594	27.87994	-180.0533	0.5317782
88.50871	8253.82	27.8493	-180.3902	0.5514494
88.5627	8244.085	27.79058	-180.7038	0.5890598
88.61668	8234.388	27.68177	-180.9959	0.6468837
88.67067	8224.734	27.50546	-181.2685	0.7243847
88.72466	8215.12	27.26498	-181.5235	0.8189629
88.77864	8205.543	26.98258	-181.7629	0.9271113
88.83263	8195.986	26.69606	-181.9885	1.045105
88.88662	8186.438	26.44852	-182.2023	1.169414
88.94061	8176.875	26.27825	-182.4061	1.296831
88.99459	8167.29	26.21011	-182.6018	1.424502
89.04858	8157.668	26.25213	-182.7912	1.549897
89.10256	8148.009	26.39594	-182.9759	1.670798
89.15655	8138.302	26.62355	-183.1575	1.785217
89.21053	8128.545	26.90529	-183.3372	1.891419
89.26452	8118.732	27.21247	-183.5164	1.98785
89.3185	8108.881	27.51442	-183.696	2.073147
89.37249	8099.008	27.78661	-183.8766	2.14614
89.42648	8089.125	28.01332	-184.0587	2.205935
89.48047	8079.225	28.18464	-184.2425	2.251873
89.53445	8069.307	28.29774	-184.4279	2.283597
89.58844	8059.376	28.36851	-184.6147	2.301096
89.64243	8049.438	28.41473	-184.8023	2.304694
89.69641	8039.479	28.45685	-184.9903	2.295071
89.7504	8029.494	28.51432	-185.1778	2.273232
89.80438	8019.485	28.60407	-185.364	2.240535
89.85837	8009.477	28.73239	-185.548	2.198644
89.91235	7999.487	28.90306	-185.7287	2.149419
89.96635	7989.542	29.11189	-185.9052	2.094888
90.02033	7979.644	29.35255	-186.0763	2.037156
90.07432	7969.794	29.61531	-186.241	1.978356
90.1283	7959.983	29.88292	-186.3983	1.920556
90.18229	7950.197	30.1362	-186.5474	1.865713
90.23627	7940.415	30.35712	-186.6876	1.815564
90.29026	7930.62	30.53106	-186.8183	1.771622
90.34425	7920.801	30.65046	-186.9391	1.735074
90.39823	7910.951	30.71087	-187.0497	1.706771
90.45222	7901.056	30.70513	-187.1499	1.68723
90.50621	7891.106	30.6296	-187.2395	1.676608
90.5602	7881.092	30.48995	-187.3186	1.67476
90.61418	7871.017	30.29569	-187.3874	1.681247
90.66817	7860.881	30.05575	-187.4461	1.695328
90.72215	7850.684	29.77522	-187.495	1.716172
90.77614	7840.422	29.45358	-187.5345	1.742782
90.83012	7830.09	29.08878	-187.565	1.774118
90.88411	7819.685	28.67827	-187.587	1.809132
90.9381	7809.203	28.22321	-187.6011	1.846726
90.99208	7798.64	27.73035	-187.608	1.885909
91.04607	7787.991	27.21013	-187.6084	1.925665
91.10006	7777.245	26.67662	-187.6031	1.965083
91.15405	7766.392	26.14531	-187.593	2.003296
91.20803	7755.433	25.63742	-187.5786	2.039492
91.26202	7744.39	25.17065	-187.5608	2.072898
91.316	7733.307	24.76239	-187.5404	2.102754
91.36999	7722.232	24.42446	-187.5178	2.128378
91.42397	7711.208	24.15525	-187.4939	2.149108
91.47796	7700.264	23.94233	-187.4692	2.164351
91.53194	7689.431	23.78	-187.4442	2.173641
91.58594	7678.731	23.66238	-187.419	2.17662
91.63992	7668.184	23.57891	-187.394	2.173084
91.69391	7657.792	23.51521	-187.3691	2.162957
91.74789	7647.543	23.45899	-187.3444	2.14631
91.80188	7637.42	23.39802	-187.3194	2.12333
91.85587	7627.401	23.3268	-187.2941	2.094278
91.90985	7617.473	23.24113	-187.268	2.059536
91.96384	7607.618	23.1376	-187.2407	2.019506
92.01782	7597.823	23.01869	-187.2117	1.974665
92.07181	7588.092	22.89464	-187.1806	1.925521
92.1258	7578.425	22.78165	-187.1469	1.872601
92.17979	7568.821	22.6933	-187.1105	1.816438
92.23377	7559.269	22.63927	-187.071	1.75752
92.28776	7549.758	22.61831	-187.0283	1.696349
92.34174	7540.267	22.61731	-186.9826	1.633387
92.39573	7530.777	22.61883	-186.9339	1.569095
92.44971	7521.271	22.60886	-186.9554	1.484505
92.5037	7511.739	22.58601	-186.9826	1.407481
92.55769	7502.176	22.55492	-187.0123	1.339563
92.61167	7492.583	22.52042	-187.0421	1.281199
92.66566	7482.95	22.48832	-187.0707	1.232254
92.71965	7473.269	22.46772	-187.0974	1.192405
92.77364	7463.525	22.46657	-187.1224	1.161318
92.82762	7453.714	22.48661	-187.1457	1.138743
92.88161	7443.824	22.52378	-187.1679	1.124554
92.93559	7433.874	22.57817	-187.1893	1.118718
92.98958	7423.886	22.64921	-187.2105	1.121236
93.04356	7413.892	22.74101	-187.2319	1.13214
93.09755	7403.902	22.85662	-187.2538	1.151439
93.15154	7393.924	22.99694	-187.2766	1.17905
93.20553	7383.947	23.15652	-187.3007	1.214864
93.25951	7373.98	23.33572	-187.3262	1.25869
93.3135	7364.022	23.53838	-187.3533	1.310292
93.36749	7354.083	23.76544	-187.3824	1.369387
93.42147	7344.16	23.99901	-187.4136	1.435666
93.47546	7334.24	24.21842	-187.4469	1.508811
93.52944	7324.296	24.40593	-187.4827	1.588519
93.58343	7314.311	24.55021	-187.5209	1.674455
93.63741	7304.275	24.64599	-187.5616	1.766345
93.6914	7294.181	24.68987	-187.6049	1.863897
93.74539	7284.026	24.6829	-187.651	1.966866
93.79938	7273.824	24.63892	-187.6998	2.075017
93.85336	7263.573	24.57401	-187.7513	2.188133
93.90735	7253.268	24.49951	-187.8056	2.306015
93.96133	7242.896	24.41934	-187.8627	2.428489
94.01532	7232.456	24.331	-187.9226	2.55535
94.06931	7221.824	24.08029	-187.9853	2.686454
94.12329	7211.281	23.83219	-188.0507	2.821648
94.17728	7200.81	23.60306	-188.1189	2.960762
94.23126	7190.375	23.38984	-188.1897	3.10366
94.28526	7179.958	23.18457	-188.2632	3.250206
94.33924	7169.545	22.98157	-188.3393	3.400267
94.39323	7159.13	22.77724	-188.4179	3.553711
94.44721	7148.709	22.56785	-188.499	3.710421
94.5012	7138.281	22.35181	-188.5826	3.870266
94.55518	7127.845	22.12717	-188.6684	4.033124
94.60917	7117.402	21.89353	-188.7566	4.198894
94.66315	7106.953	21.64978	-188.847	4.367445
94.71714	7096.498	21.39569	-188.9395	4.538664
94.77113	7086.037	21.13182	-189.0341	4.712454
94.82512	7075.573	20.85824	-189.1308	4.888691
94.8791	7065.108	20.57418	-189.2293	5.067278
94.93309	7054.644	20.28065	-189.3297	5.248106
94.98708	7044.187	19.97851	-189.4318	5.43108
