T[Â°C]	350nm [counts / mm]	S.D.	First derivative	S.D. of first derivative
19.99944	6881.677		-97.67873	
20.05342	6876.371		-97.64781	
20.10741	6871.053		-97.61769	
20.1614	6865.723		-97.5884	
20.21539	6860.381		-97.55996	
20.26938	6855.03		-97.53239	
20.32337	6849.671		-97.50574	
20.37736	6844.307		-97.48	
20.43135	6838.938		-97.4552	
20.48534	6833.568		-97.43137	
20.53933	6828.199		-97.40852	
20.59332	6822.834		-97.38667	
20.6473	6817.476		-97.36583	
20.70129	6812.125		-97.346	
20.75528	6806.784		-97.3272	
20.80927	6801.45		-97.30943	
20.86326	6796.118		-97.29269	
20.91725	6790.765		-97.27697	
20.97124	6785.335		-97.26228	
21.02523	6779.905		-97.24858	
21.07922	6774.474		-97.23589	
21.13321	6769.05		-97.22416	
21.1872	6763.638		-97.21337	
21.24119	6758.238		-97.2035	
21.29518	6752.852		-97.1945	
21.34916	6747.491		-97.1863	
21.40315	6742.172		-97.17886	
21.45714	6736.904		-97.17209	
21.51113	6731.684		-97.16591	
21.56512	6726.507		-97.16022	
21.61911	6721.378		-97.1549	
21.6731	6716.301		-97.14983	
21.72709	6711.276		-97.14487	
21.78108	6706.297		-97.13988	
21.83507	6701.361		-97.13471	
21.88906	6696.459		-97.12918	
21.94304	6691.578		-97.12312	
21.99703	6686.703		-97.11636	
22.05102	6681.817		-97.10869	
22.10501	6676.903		-97.09995	
22.159	6671.954		-97.08994	
22.21299	6666.968		-97.0785	
22.26698	6661.949		-97.06551	
22.32097	6656.906		-97.05093	
22.37496	6651.839		-97.03487	
22.42895	6646.746		-97.01766	
22.48294	6641.629		-96.99998	
22.53693	6636.505		-96.98296	
22.59092	6631.374		-96.96796	
22.64491	6626.227		-96.96295	
22.69889	6621.055		-96.95717	
22.75288	6615.849		-96.95091	
22.80687	6610.605		-96.9445	
22.86086	6605.325		-96.93818	
22.91485	6600.007		-96.93221	
22.96884	6594.65		-96.92676	
23.02283	6589.25		-96.92194	
23.07682	6583.807		-96.91779	
23.13081	6578.325		-96.91429	
23.1848	6572.805		-96.91129	
23.23878	6567.241		-96.90855	
23.29277	6561.637		-96.90568	
23.34676	6556.009		-96.90215	
23.40075	6550.38		-96.89735	
23.45474	6544.774		-96.89058	
23.50873	6539.205		-96.88111	
23.56272	6533.685		-96.86822	
23.61671	6528.226		-96.85117	
23.6707	6522.833		-96.82925	
23.72469	6517.505		-96.80176	
23.77868	6512.24		-96.768	
23.83267	6507.039		-96.72734	
23.88666	6501.9		-96.67926	
23.94065	6496.815		-96.62334	
23.99463	6491.764		-96.5593	
24.04862	6486.714		-96.487	
24.10261	6481.634		-96.40646	
24.1566	6476.498		-96.31782	
24.21059	6471.295		-96.22137	
24.26458	6466.039		-96.11749	
24.31857	6460.75		-96.00668	
24.37256	6455.452		-95.88958	
24.42655	6450.164		-95.76691	
24.48054	6444.901		-95.63949	
24.53452	6439.674		-95.50823	
24.58851	6434.485		-95.37413	
24.6425	6429.327		-95.23826	
24.69649	6424.194		-95.10178	
24.75048	6419.084		-94.96588	
24.80447	6413.99		-94.83179	
24.85846	6408.901		-94.70068	
24.91245	6403.801		-94.57363	
24.96644	6398.67		-94.45168	
25.02043	6393.498		-94.33578	
25.07442	6388.295		-94.22681	
25.12841	6383.078		-94.12558	
25.1824	6377.859		-94.03284	
25.23639	6372.65		-93.94923	
25.29037	6367.46		-93.87531	
25.34436	6362.309		-93.81149	
25.39835	6357.218		-93.75807	
25.45234	6352.209		-93.71516	
25.50633	6347.292		-93.68272	
25.56032	6342.462		-93.66052	
25.61431	6337.705		-93.64824	
25.6683	6332.992		-93.64537	
25.72229	6328.291		-93.65133	
25.77628	6323.571		-93.6654	
25.83027	6318.815		-93.68684	
25.88425	6314.02		-93.71489	
25.93824	6309.2		-93.7488	
25.99223	6304.368		-93.78786	
26.04622	6299.531		-93.83135	
26.10021	6294.693		-93.87863	
26.1542	6289.852		-93.92908	
26.20819	6285.002		-93.98209	
26.26218	6280.148		-94.03708	
26.31617	6275.299		-94.09351	
26.37016	6270.463		-94.15085	
26.42415	6265.643		-94.2086	
26.47814	6260.832		-94.26621	
26.53213	6256.023		-94.32313	
26.58611	6251.193		-94.37875	
26.6401	6246.317		-94.43251	
26.69409	6241.38		-94.48386	
26.74808	6236.377		-94.53233	
26.80207	6231.313		-94.57753	
26.85606	6226.193		-94.61919	
26.91005	6221.021		-94.65709	
26.96404	6215.798		-94.69109	
27.01803	6210.533		-94.72112	
27.07202	6205.239		-94.74715	
27.12601	6199.918		-94.76924	
27.17999	6194.574		-94.78751	
27.23398	6189.199		-94.80214	
27.28797	6183.783		-94.81335	
27.34196	6178.323		-94.82137	
27.39595	6172.823		-94.8264	
27.44994	6167.303		-94.82855	
27.50393	6161.781		-94.82785	
27.55792	6156.279		-94.82428	
27.61191	6150.81		-94.81773	
27.6659	6145.376		-94.80804	
27.71989	6139.967		-94.79496	
27.77388	6134.566		-94.77825	
27.82787	6129.168		-94.75766	
27.88186	6123.773		-94.733	
27.93584	6118.388		-94.70415	
27.98983	6113.021		-94.67106	
28.04382	6107.683		-94.63375	
28.09781	6102.384		-94.59225	
28.1518	6097.122		-94.54662	
28.20579	6091.887		-94.49693	
28.25978	6086.674		-94.44324	
28.31377	6081.479		-94.3857	
28.36776	6076.303		-94.32446	
28.42175	6071.15		-94.25969	
28.47573	6066.025		-94.19151	
28.52972	6060.927		-94.12	
28.58371	6055.858		-94.0452	
28.6377	6050.821		-93.96703	
28.69169	6045.814		-93.88541	
28.74568	6040.841		-93.80023	
28.79967	6035.908		-93.71146	
28.85366	6031.016		-93.61914	
28.90765	6026.158		-93.52341	
28.96164	6021.331		-93.42449	
29.01563	6016.537		-93.32275	
29.06962	6011.779		-93.21865	
29.12361	6007.061		-93.11275	
29.1776	6002.378		-93.00575	
29.23158	5997.721		-92.89843	
29.28557	5993.08		-92.7917	
29.33956	5988.442		-92.68649	
29.39355	5983.785		-92.58377	
29.44754	5979.089		-92.48442	
29.50153	5974.351		-92.38934	
29.55552	5969.573		-92.29931	
29.60951	5964.763		-92.21508	
29.6635	5959.929		-92.13727	
29.71749	5955.081		-92.06638	
29.77147	5950.218		-92.00282	
29.82546	5945.337		-91.94687	
29.87945	5940.425		-91.89875	
29.93344	5935.473		-91.85863	
29.98743	5930.482		-91.82661	
30.04142	5925.456		-91.80271	
30.09541	5920.394		-91.78683	
30.1494	5915.297		-91.77875	
30.20339	5910.18		-91.77802	
30.25738	5905.047		-91.78406	
30.31137	5899.901		-91.79614	
30.36536	5894.75		-91.81343	
30.41935	5889.601		-91.835	
30.47334	5884.454		-91.85983	
30.52732	5879.304		-91.88687	
30.58131	5874.153		-91.91499	
30.6353	5869.004		-91.94297	
30.68929	5863.874		-91.96957	
30.74328	5858.782		-91.99353	
30.79727	5853.745		-92.0136	
30.85126	5848.768		-92.02857	
30.90525	5843.839		-92.03738	
30.95924	5838.947		-92.03902	
31.01323	5834.077		-92.03268	
31.06721	5829.219		-92.01762	
31.1212	5824.359		-91.99335	
31.17519	5819.494		-91.95953	
31.22918	5814.627		-91.91601	
31.28317	5809.774		-91.86284	
31.33716	5804.932		-91.80026	
31.39115	5800.087		-91.72866	
31.44514	5795.232		-91.64857	
31.49913	5790.357		-91.56068	
31.55312	5785.453		-91.46578	
31.60711	5780.512		-91.36481	
31.6611	5775.533		-91.25872	
31.71509	5770.515		-91.1485	
31.76908	5765.461		-91.03512	
31.82306	5760.377		-90.91956	
31.87705	5755.265		-90.80278	
31.93104	5750.131		-90.68571	
31.98503	5744.983		-90.56927	
32.03902	5739.827		-90.45438	
32.09301	5734.662		-90.3419	
32.147	5729.486		-90.2326	
32.20099	5724.302		-90.12714	
32.25498	5719.117		-90.02602	
32.30897	5713.939		-89.92965	
32.36296	5708.783		-89.83829	
32.41695	5703.666		-89.75215	
32.47094	5698.598		-89.67133	
32.52492	5693.575		-89.59588	
32.57891	5688.587		-89.52573	
32.6329	5683.633		-89.46073	
32.68689	5678.719		-89.40069	
32.74088	5673.858		-89.34528	
32.79487	5669.077		-89.29411	
32.84886	5664.401		-89.24672	
32.90285	5659.839		-89.20258	
32.95684	5655.395		-89.16114	
33.01083	5651.056		-89.12184	
33.06482	5646.791		-89.08415	
33.1188	5642.566		-89.04758	
33.17279	5638.347		-89.01176	
33.22678	5634.112		-88.97637	
33.28077	5629.84		-88.94125	
33.33476	5625.52		-88.90627	
33.38875	5621.144		-88.87142	
33.44274	5616.703		-88.83675	
33.49673	5612.198		-88.80238	
33.55072	5607.63		-88.76854	
33.60471	5603.005		-88.73551	
33.6587	5598.335		-88.7036	
33.71268	5593.628		-88.6731	
33.76667	5588.889		-88.64434	
33.82066	5584.12		-88.61758	
33.87465	5579.323		-88.59299	
33.92864	5574.499		-88.57069	
33.98263	5569.651		-88.5507	
34.03662	5564.78		-88.53295	
34.09061	5559.873		-88.5173	
34.1446	5554.921		-88.5035	
34.19859	5549.927		-88.49124	
34.25257	5544.9		-88.48015	
34.30656	5539.853		-88.46983	
34.36055	5534.806		-88.4599	
34.41454	5529.784		-88.44997	
34.46853	5524.801		-88.43962	
34.52252	5519.864		-88.42847	
34.57651	5514.97		-88.41608	
34.6305	5510.115		-88.40201	
34.68449	5505.288		-88.38578	
34.73848	5500.479		-88.36692	
34.79247	5495.685		-88.34493	
34.84646	5490.9		-88.31931	
34.90045	5486.112		-88.28954	
34.95444	5481.306		-88.25507	
35.00843	5476.469		-88.21538	
35.06242	5471.596		-88.16994	
35.1164	5466.69		-88.11829	
35.17039	5461.757		-88.06006	
35.22438	5456.794		-87.99497	
35.27837	5451.808		-87.92291	
35.33236	5446.815		-87.8439	
35.38635	5441.836		-87.75808	
35.44034	5436.885		-87.6657	
35.49433	5431.971		-87.56714	
35.54832	5427.096		-87.46288	
35.60231	5422.257		-87.35349	
35.6563	5417.447		-87.23965	
35.71029	5412.653		-87.12212	
35.76427	5407.862		-87.00168	
35.81826	5403.066		-86.87917	
35.87225	5398.267		-86.7554	
35.92624	5393.475		-86.63116	
35.98023	5388.7		-86.50719	
36.03422	5383.946		-86.38416	
36.08821	5379.217		-86.26271	
36.1422	5374.52		-86.14342	
36.19619	5369.867		-86.02683	
36.25018	5365.269		-85.91347	
36.30416	5360.731		-85.80383	
36.35815	5356.254		-85.69845	
36.41214	5351.836		-85.59779	
36.46613	5347.475		-85.50227	
36.52012	5343.157		-85.41227	
36.57411	5338.864		-85.3281	
36.6281	5334.581		-85.24999	
36.68209	5330.291		-85.17809	
36.73608	5325.987		-85.1125	
36.79007	5321.667		-85.05328	
36.84406	5317.321		-85.00048	
36.89804	5312.942		-84.95406	
36.95203	5308.527		-84.91393	
37.00602	5304.084		-84.87991	
37.06001	5299.634		-84.85168	
37.114	5295.189		-84.82888	
37.16799	5290.76		-84.81104	
37.22198	5286.345		-84.79765	
37.27597	5281.935		-84.78818	
37.32996	5277.522		-84.78208	
37.38395	5273.098		-84.77883	
37.43794	5268.649		-84.77786	
37.49193	5264.171		-84.77863	
37.54592	5259.66		-84.78063	
37.59991	5255.119		-84.78337	
37.6539	5250.559		-84.78645	
37.70788	5245.985		-84.78948	
37.76187	5241.401		-84.79215	
37.81586	5236.817		-84.79422	
37.86985	5232.235		-84.79552	
37.92384	5227.665		-84.79594	
37.97783	5223.106		-84.79539	
38.03182	5218.556		-84.79381	
38.08581	5214.003		-84.79114	
38.1398	5209.439		-84.78732	
38.19379	5204.858		-84.78235	
38.24778	5200.252		-84.77618	
38.30177	5195.622		-84.76881	
38.35575	5190.966		-84.76024	
38.40974	5186.282		-84.75047	
38.46373	5181.568		-84.73951	
38.51772	5176.821		-84.72738	
38.57171	5172.04		-84.71411	
38.6257	5167.22		-84.69975	
38.67969	5162.366		-84.68442	
38.73368	5157.49		-84.66821	
38.78767	5152.6		-84.6513	
38.84166	5147.702		-84.63383	
38.89565	5142.797		-84.61594	
38.94963	5137.884		-84.59775	
39.00362	5132.974		-84.57932	
39.05761	5128.07		-84.5607	
39.1116	5123.178		-84.54186	
39.16559	5118.307		-84.52274	
39.21958	5113.475		-84.50323	
39.27357	5108.697		-84.48317	
39.32756	5103.988		-84.46231	
39.38155	5099.353		-84.44035	
39.43554	5094.786		-84.41691	
39.48952	5090.275		-84.39159	
39.54351	5085.814		-84.36398	
39.5975	5081.399		-84.33369	
39.65149	5077.03		-84.3004	
39.70548	5072.706		-84.26382	
39.75947	5068.431		-84.22379	
39.81346	5064.202		-84.18024	
39.86745	5060.008		-84.13328	
39.92144	5055.835		-84.08309	
39.97543	5051.676		-84.02999	
40.02942	5047.524		-83.97437	
40.08341	5043.368		-83.91671	
40.1374	5039.199		-83.85761	
40.19139	5035.012		-83.79775	
40.24538	5030.798		-83.73785	
40.29936	5026.548		-83.67868	
40.35335	5022.252		-83.62101	
40.40734	5017.898		-83.56557	
40.46133	5013.491		-83.51308	
40.51532	5009.036		-83.4642	
40.56931	5004.543		-83.41952	
40.6233	5000.025		-83.37959	
40.67729	4995.49		-83.34492	
40.73128	4990.941		-83.31595	
40.78527	4986.376		-83.29302	
40.83926	4981.794		-83.27643	
40.89325	4977.194		-83.26632	
40.94724	4972.575		-83.26273	
41.00122	4967.936		-83.26557	
41.05521	4963.278		-83.27464	
41.1092	4958.6		-83.28957	
41.16319	4953.9		-83.30985	
41.21718	4949.185		-83.33485	
41.27117	4944.467		-83.36377	
41.32516	4939.77		-83.39573	
41.37915	4935.106		-83.42972	
41.43314	4930.488		-83.46468	
41.48713	4925.923		-83.4995	
41.54111	4921.411		-83.53304	
41.5951	4916.943		-83.56418	
41.64909	4912.503		-83.59179	
41.70308	4908.075		-83.61478	
41.75707	4903.648		-83.6321	
41.81106	4899.218		-83.6428	
41.86505	4894.781		-83.64601	
41.91904	4890.333		-83.641	
41.97303	4885.88		-83.62717	
42.02702	4881.422		-83.6041	
42.08101	4876.955		-83.57157	
42.13499	4872.478		-83.52959	
42.18898	4867.993		-83.47839	
42.24297	4863.507		-83.41842	
42.29696	4859.021		-83.35031	
42.35095	4854.528		-83.27482	
42.40494	4850.021		-83.19278	
42.45893	4845.498		-83.10512	
42.51292	4840.955		-83.01277	
42.56691	4836.394		-82.91671	
42.6209	4831.815		-82.81787	
42.67489	4827.217		-82.71716	
42.72888	4822.59		-82.61543	
42.78287	4817.924		-82.5135	
42.83686	4813.222		-82.41209	
42.89084	4808.488		-82.31183	
42.94483	4803.737		-82.21328	
42.99882	4798.988		-82.11694	
43.05281	4794.263		-82.02318	
43.1068	4789.578		-81.93231	
43.16079	4784.937		-81.8445	
43.21478	4780.341		-81.75978	
43.26877	4775.783		-81.6781	
43.32276	4771.255		-81.59929	
43.37675	4766.75		-81.52313	
43.43074	4762.266		-81.44936	
43.48473	4757.809		-81.37764	
43.53872	4753.388		-81.30766	
43.5927	4749.008		-81.23903	
43.64669	4744.687		-81.17136	
43.70068	4740.433		-81.10423	
43.75467	4736.257		-81.03728	
43.80866	4732.158		-80.97015	
43.86265	4728.125		-80.9026	
43.91664	4724.132		-80.83447	
43.97063	4720.159		-80.76566	
44.02462	4716.187		-80.69621	
44.07861	4712.203		-80.62621	
44.1326	4708.2		-80.55585	
44.18658	4704.185		-80.4854	
44.24057	4700.16		-80.41518	
44.29456	4696.125		-80.34562	
44.34855	4692.074		-80.27718	
44.40254	4687.997		-80.21041	
44.45653	4683.879		-80.14587	
44.51052	4679.705		-80.08418	
44.56451	4675.474		-80.02595	
44.6185	4671.196		-79.97173	
44.67249	4666.876		-79.92203	
44.72647	4662.519		-79.87725	
44.78046	4658.121		-79.83772	
44.83445	4653.678		-79.80363	
44.88844	4649.192		-79.77502	
44.94243	4644.664		-79.75191	
44.99642	4640.105		-79.73414	
45.05041	4635.527		-79.72152	
45.1044	4630.946		-79.71373	
45.15839	4626.38		-79.71037	
45.21238	4621.846		-79.71091	
45.26637	4617.36		-79.71479	
45.32036	4612.931		-79.72133	
45.37435	4608.563		-79.7298	
45.42833	4604.255		-79.73946	
45.48232	4599.995		-79.74948	
45.53631	4595.762		-79.75903	
45.5903	4591.54		-79.76723	
45.64429	4587.308		-79.77317	
45.69828	4583.059		-79.77595	
45.75227	4578.796		-79.77468	
45.80626	4574.529		-79.76852	
45.86025	4570.27		-79.75677	
45.91424	4566.025		-79.73877	
45.96823	4561.801		-79.71405	
46.02222	4557.596		-79.68224	
46.07621	4553.4		-79.6431	
46.1302	4549.202		-79.59653	
46.18419	4544.988		-79.5425	
46.23817	4540.75		-79.48116	
46.29216	4536.479		-79.41272	
46.34615	4532.172		-79.33755	
46.40014	4527.823		-79.25613	
46.45413	4523.418		-79.16903	
46.50812	4518.954		-79.07693	
46.56211	4514.444		-78.9806	
46.6161	4509.902		-78.88086	
46.67009	4505.345		-78.77856	
46.72408	4500.79		-78.67457	
46.77806	4496.256		-78.56976	
46.83205	4491.763		-78.46496	
46.88604	4487.321		-78.36092	
46.94003	4482.935		-78.25836	
46.99402	4478.6		-78.15794	
47.04801	4474.304		-78.06022	
47.102	4470.034		-77.96565	
47.15599	4465.784		-77.87464	
47.20998	4461.552		-77.78743	
47.26397	4457.334		-77.7042	
47.31796	4453.129		-77.62502	
47.37194	4448.944		-77.54991	
47.42593	4444.783		-77.47881	
47.47992	4440.646		-77.41162	
47.53391	4436.533		-77.34819	
47.5879	4432.452		-77.28831	
47.64189	4428.403		-77.23174	
47.69588	4424.389		-77.17819	
47.74987	4420.403		-77.12736	
47.80386	4416.436		-77.07893	
47.85785	4412.471		-77.03262	
47.91184	4408.499		-76.98814	
47.96583	4404.511		-76.94525	
48.01981	4400.506		-76.90373	
48.0738	4396.485		-76.8634	
48.12779	4392.453		-76.82414	
48.18178	4388.416		-76.78587	
48.23577	4384.386		-76.74859	
48.28976	4380.38		-76.71232	
48.34375	4376.408		-76.67716	
48.39774	4372.47		-76.64324	
48.45173	4368.558		-76.61075	
48.50572	4364.666		-76.57989	
48.55971	4360.78		-76.55089	
48.6137	4356.882		-76.52399	
48.66769	4352.956		-76.49946	
48.72168	4348.995		-76.47749	
48.77567	4344.999		-76.45827	
48.82965	4340.968		-76.44186	
48.88364	4336.905		-76.42826	
48.93763	4332.809		-76.41734	
48.99162	4328.679		-76.40888	
49.04561	4324.51		-76.40264	
49.0996	4320.304		-76.3983	
49.15359	4316.067		-76.39549	
49.20758	4311.809		-76.39378	
49.26157	4307.532		-76.39265	
49.31556	4303.246		-76.39155	
49.36954	4298.955		-76.38986	
49.42353	4294.665		-76.38695	
49.47752	4290.368		-76.38214	
49.53151	4286.058		-76.37479	
49.5855	4281.73		-76.36424	
49.63949	4277.385		-76.34994	
49.69348	4273.029		-76.33138	
49.74747	4268.674		-76.30814	
49.80146	4264.329		-76.27991	
49.85545	4260.007		-76.24644	
49.90944	4255.718		-76.20761	
49.96342	4251.472		-76.16331	
50.01741	4247.271		-76.11351	
50.0714	4243.118		-76.05824	
50.12539	4239.013		-75.99763	
50.17938	4234.952		-75.93186	
50.23337	4230.926		-75.86118	
50.28736	4226.923		-75.7859	
50.34135	4222.929		-75.70641	
50.39534	4218.921		-75.62315	
50.44933	4214.884		-75.53665	
50.50332	4210.806		-75.44747	
50.55731	4206.681		-75.35621	
50.61129	4202.511		-75.2635	
50.66528	4198.305		-75.16994	
50.71927	4194.077		-75.07616	
50.77326	4189.846		-74.98276	
50.82725	4185.627		-74.89022	
50.88124	4181.431		-74.79901	
50.93523	4177.264		-74.70948	
50.98922	4173.128		-74.62193	
51.04321	4169.017		-74.53659	
51.0972	4164.923		-74.45366	
51.15119	4160.843		-74.37326	
51.20518	4156.774		-74.29544	
51.25917	4152.71		-74.22018	
51.31316	4148.655		-74.14738	
51.36715	4144.625		-74.07687	
51.42113	4140.64		-74.00836	
51.47512	4136.71		-73.94158	
51.52911	4132.841		-73.87619	
51.5831	4129.033		-73.81187	
51.63709	4125.279		-73.74836	
51.69108	4121.569		-73.68543	
51.74507	4117.899		-73.62293	
51.79906	4114.272		-73.56074	
51.85305	4110.683		-73.49879	
51.90704	4107.121		-73.43705	
51.96103	4103.571		-73.3755	
52.01501	4100.009		-73.31417	
52.069	4096.418		-73.25311	
52.12299	4092.778		-73.1924	
52.17698	4089.077		-73.13218	
52.23097	4085.312		-73.07263	
52.28496	4081.494		-73.01399	
52.33895	4077.631		-72.95651	
52.39294	4073.729		-72.90047	
52.44693	4069.793		-72.84615	
52.50092	4065.833		-72.79382	
52.5549	4061.852		-72.7437	
52.60889	4057.847		-72.696	
52.66288	4053.812		-72.65089	
52.71687	4049.745		-72.60854	
52.77086	4045.638		-72.56902	
52.82485	4041.49		-72.53236	
52.87884	4037.3		-72.49854	
52.93283	4033.079		-72.46745	
52.98682	4028.839		-72.43887	
53.04081	4024.592		-72.41254	
53.0948	4020.35		-72.38809	
53.14879	4016.135		-72.36507	
53.20277	4011.955		-72.34299	
53.25676	4007.808		-72.32132	
53.31075	4003.699		-72.29949	
53.36474	3999.64		-72.27691	
53.41873	3995.638		-72.25293	
53.47272	3991.693		-72.2269	
53.52671	3987.804		-72.19815	
53.5807	3983.966		-72.16603	
53.63469	3980.159		-72.12994	
53.68868	3976.361		-72.08934	
53.74267	3972.561		-72.04378	
53.79666	3968.751		-71.9929	
53.85065	3964.933		-71.93646	
53.90464	3961.113		-71.87437	
53.95863	3957.293		-71.8066	
54.01262	3953.485		-71.73327	
54.0666	3949.698		-71.65456	
54.12059	3945.937		-71.57079	
54.17458	3942.192		-71.48231	
54.22857	3938.457		-71.38964	
54.28256	3934.72		-71.29338	
54.33655	3930.967		-71.19422	
54.39054	3927.183		-71.09292	
54.44453	3923.363		-70.99022	
54.49852	3919.506		-70.88689	
54.55251	3915.613		-70.78365	
54.60649	3911.688		-70.68117	
54.66048	3907.74		-70.58009	
54.71447	3903.784		-70.481	
54.76846	3899.834		-70.38437	
54.82245	3895.899		-70.29066	
54.87644	3891.982		-70.20027	
54.93043	3888.085		-70.11347	
54.98442	3884.212		-70.03046	
55.03841	3880.368		-69.95138	
55.0924	3876.561		-69.87624	
55.14639	3872.797		-69.80499	
55.20037	3869.069		-69.7375	
55.25436	3865.368		-69.67357	
55.30835	3861.687		-69.61297	
55.36234	3858.017		-69.55543	
55.41633	3854.351		-69.50066	
55.47032	3850.688		-69.44838	
55.52431	3847.032		-69.39827	
55.5783	3843.393		-69.35007	
55.63229	3839.785		-69.30351	
55.68628	3836.22		-69.25843	
55.74027	3832.695		-69.21468	
55.79425	3829.195		-69.17222	
55.84824	3825.703		-69.13103	
55.90223	3822.198		-69.09122	
55.95622	3818.667		-69.05293	
56.01021	3815.104		-69.01627	
56.0642	3811.511		-68.9814	
56.11819	3807.889		-68.94844	
56.17218	3804.236		-68.91752	
56.22617	3800.55		-68.88876	
56.28016	3796.83		-68.86229	
56.33415	3793.08		-68.83827	
56.38814	3789.302		-68.8168	
56.44213	3785.502		-68.79797	
56.49612	3781.682		-68.78178	
56.55011	3777.848		-68.7682	
56.6041	3774.007		-68.75713	
56.65808	3770.161		-68.74838	
56.71207	3766.317		-68.74169	
56.76606	3762.478		-68.7367	
56.82005	3758.645		-68.73302	
56.87404	3754.815		-68.73016	
56.92803	3750.986		-68.72758	
56.98202	3747.157		-68.72471	
57.03601	3743.331		-68.7209	
57.09	3739.515		-68.71552	
57.14399	3735.719		-68.70784	
57.19798	3731.956		-68.69717	
57.25196	3728.238		-68.68279	
57.30595	3724.573		-68.66397	
57.35994	3720.959		-68.64003	
57.41393	3717.386		-68.61031	
57.46792	3713.838		-68.57421	
57.52191	3710.294		-68.53128	
57.5759	3706.736		-68.48115	
57.62989	3703.157		-68.42357	
57.68388	3699.557		-68.35845	
57.73787	3695.941		-68.28581	
57.79185	3692.318		-68.20582	
57.84584	3688.687		-68.11879	
57.89983	3685.048		-68.02515	
57.95382	3681.396		-67.92548	
58.00781	3677.73		-67.82039	
58.0618	3674.042		-67.71062	
58.11579	3670.331		-67.59695	
58.16978	3666.589		-67.48019	
58.22377	3662.814		-67.36115	
58.27776	3659.001		-67.2406	
58.33175	3655.153		-67.11925	
58.38573	3651.273		-66.99773	
58.43972	3647.355		-66.87657	
58.49371	3643.403		-66.75626	
58.5477	3639.433		-66.63715	
58.60169	3635.469		-66.51955	
58.65568	3631.533		-66.40363	
58.70967	3627.645		-66.28944	
58.76366	3623.817		-66.17698	
58.81765	3620.053		-66.0661	
58.87164	3616.357		-65.95654	
58.92563	3612.729		-65.84797	
58.97962	3609.167		-65.73993	
59.03361	3605.66		-65.63191	
59.0876	3602.196		-65.52333	
59.14159	3598.762		-65.41354	
59.19558	3595.352		-65.30187	
59.24956	3591.958		-65.18762	
59.30355	3588.578		-65.07008	
59.35754	3585.212		-64.94857	
59.41153	3581.868		-64.82246	
59.46552	3578.558		-64.69121	
59.51951	3575.291		-64.55437	
59.5735	3572.067		-64.41161	
59.62749	3568.881		-64.2627	
59.68148	3565.721		-64.10754	
59.73547	3562.576		-63.94615	
59.78946	3559.433		-63.77868	
59.84344	3556.278		-63.6054	
59.89743	3553.095		-63.4267	
59.95142	3549.877		-63.24307	
60.00541	3546.618		-63.0551	
60.0594	3543.31		-62.8635	
60.11339	3539.954		-62.66906	
60.16738	3536.558		-62.47257	
60.22137	3533.13		-62.27489	
60.27536	3529.685		-62.07683	
60.32935	3526.232		-61.87916	
60.38334	3522.773		-61.6826	
60.43732	3519.303		-61.48778	
60.49131	3515.82		-61.29524	
60.5453	3512.324		-61.10541	
60.59929	3508.818		-60.91857	
60.65328	3505.301		-60.73488	
60.70727	3501.772		-60.55434	
60.76126	3498.234		-60.37678	
60.81525	3494.688		-60.20185	
60.86924	3491.14		-60.02906	
60.92323	3487.599		-59.85774	
60.97721	3484.073		-59.68706	
61.0312	3480.572		-59.51603	
61.08519	3477.112		-59.34361	
61.13918	3473.707		-59.16864	
61.19317	3470.364		-58.98989	
61.24716	3467.081		-58.80607	
61.30115	3463.857		-58.61583	
61.35514	3460.687		-58.41784	
61.40913	3457.566		-58.21079	
61.46312	3454.493		-57.99343	
61.51711	3451.463		-57.76458	
61.5711	3448.474		-57.52316	
61.62509	3445.521		-57.26817	
61.67908	3442.605		-56.99877	
61.73307	3439.722		-56.71424	
61.78706	3436.871		-56.41402	
61.84104	3434.043		-56.09772	
61.89503	3431.23		-55.76504	
61.94902	3428.424		-55.41585	
62.00301	3425.612		-55.05014	
62.057	3422.781		-54.66797	
62.11099	3419.921		-54.26954	
62.16498	3417.032		-53.85506	
62.21897	3414.112		-53.42492	
62.27296	3411.157		-52.97952	
62.32695	3408.165		-52.51934	
62.38094	3405.13		-52.04492	
62.43493	3402.059		-51.55681	
62.48891	3398.966		-51.05553	
62.5429	3395.863		-50.54161	
62.59689	3392.765		-50.01546	
62.65088	3389.681		-49.47747	
62.70487	3386.624		-48.92794	
62.75886	3383.608		-48.36696	
62.81285	3380.648		-47.79461	
62.86684	3377.746		-47.21073	
62.92083	3374.894		-46.61506	
62.97482	3372.08		-46.00712	
63.0288	3369.299		-45.38632	
63.08279	3366.549		-44.75188	
63.13678	3363.828		-44.10289	
63.19077	3361.136		-43.43824	
63.24476	3358.476		-42.75673	
63.29875	3355.855		-42.05704	
63.35274	3353.285		-41.33781	
63.40673	3350.781		-40.59761	
63.46072	3348.352		-39.83498	
63.51471	3346.012		-39.04845	
63.5687	3343.768		-38.23661	
63.62268	3341.625		-37.39798	
63.67667	3339.579		-36.53119	
63.73066	3337.621		-35.63499	
63.78465	3335.741		-34.7081	
63.83864	3333.925		-33.7494	
63.89263	3332.159		-32.75777	
63.94662	3330.429		-31.73226	
64.00061	3328.723		-30.6719	
64.0546	3327.029		-29.5759	
64.10859	3325.345		-28.44334	
64.16257	3323.675		-27.27382	
64.21657	3322.028		-26.06658	
64.27055	3320.417		-24.82146	
64.32455	3318.853		-23.53785	
64.37853	3317.347		-22.21573	
64.43253	3315.908		-20.85454	
64.48651	3314.543		-19.45436	
64.5405	3313.255		-18.01457	
64.59449	3312.041		-16.53526	
64.64848	3310.891		-15.01573	
64.70247	3309.79		-13.45604	
64.75646	3308.722		-11.85531	
64.81045	3307.677		-10.21341	
64.86443	3306.649		-8.52943	
64.91843	3305.639		-6.802287	
64.97241	3304.659		-5.031433	
65.02641	3303.724		-3.215328	
65.08039	3302.855		-1.353094	
65.13438	3302.079		0.5571994	
65.18837	3301.417		2.516793	
65.24236	3300.885		4.527997	
65.29635	3300.491		6.592376	
65.35034	3300.242		8.712642	
65.40433	3300.141		10.8906	
65.45832	3300.184		13.12942	
65.51231	3300.36		15.43118	
65.5663	3300.662		17.79935	
65.62029	3301.087		20.23616	
65.67428	3301.638		22.74529	
65.72826	3302.325		25.32905	
65.78225	3303.157		27.99093	
65.83624	3304.134		30.73422	
65.89023	3305.251		33.56128	
65.94422	3306.512		36.47568	
65.99821	3307.92		39.47957	
66.0522	3309.484		42.57635	
66.10619	3311.211		45.76786	
66.16018	3313.111		49.05728	
66.21416	3315.184		52.44601	
66.26816	3317.428		55.93711	
66.32214	3319.843		59.53164	
66.37614	3322.423		63.2325	
66.43012	3325.158		67.04048	
66.48412	3328.049		70.95841	
66.5381	3331.102		74.98687	
66.59209	3334.328		79.128	
66.64608	3337.737		83.38396	
66.70007	3341.325		87.75505	
66.75406	3345.085		92.24395	
66.80804	3349.017		96.85078	
66.86204	3353.125		101.5782	
66.91602	3357.42		106.4263	
66.97002	3361.911		111.3978	
67.024	3366.608		116.4926	
67.078	3371.525		121.7135	
67.13198	3376.676		127.0607	
67.18597	3382.074		132.5372	
67.23996	3387.728		138.1432	
67.29395	3393.653		143.8821	
67.34794	3399.876		149.7545	
67.40193	3406.424		155.7641	
67.45592	3413.314		161.9118	
67.5099	3420.555		168.2009	
67.5639	3428.149		174.6351	
67.61788	3436.092		181.2154	
67.67188	3444.398		187.9464	
67.72586	3453.079		194.8293	
67.77985	3462.15		201.8686	
67.83384	3471.617		209.0651	
67.88783	3481.499		216.423	
67.94182	3491.802		223.9424	
67.99581	3502.543		231.6267	
68.0498	3513.729		239.4749	
68.10379	3525.381		247.4894	
68.15778	3537.503		255.6678	
68.21177	3550.104		264.0111	
68.26575	3563.191		272.5153	
68.31974	3576.768		281.1795	
68.37373	3590.833		290.0013	
68.42772	3605.373		298.9746	
68.48171	3620.383		308.0975	
68.5357	3635.864		317.3624	
68.58969	3651.825		326.7661	
68.64368	3668.267		336.2997	
68.69767	3685.193		345.9587	
68.75166	3702.602		355.7329	
68.80565	3720.507		365.6169	
68.85963	3738.909		375.5989	
68.91363	3757.826		385.6722	
68.96761	3777.269		395.8239	
69.02161	3797.263		406.0462	
69.07559	3817.825		416.3248	
69.12959	3838.982		426.6508	
69.18357	3860.746		437.0092	
69.23756	3883.131		447.3887	
69.29155	3906.142		457.778	
69.34554	3929.768		468.1609	
69.39953	3954.012		478.527	
69.45351	3978.873		488.8596	
69.50751	4004.368		499.1477	
69.56149	4030.517		509.3745	
69.61549	4057.356		519.5286	
69.66947	4084.918		529.5926	
69.72346	4113.246		539.5549	
69.77745	4142.364		549.3977	
69.83144	4172.312		559.1088	
69.88543	4203.113		568.6701	
69.93942	4234.794		578.0687	
69.99341	4267.359		587.2862	
70.04739	4300.821		596.3073	
70.10139	4335.18		605.1171	
70.15537	4370.409		613.6962	
70.20937	4406.499		622.0298	
70.26335	4443.407		630.0981	
70.31734	4481.107		637.8859	
70.37133	4519.541		645.3731	
70.42532	4558.668		652.5441	
70.47931	4598.431		659.3792	
70.5333	4638.792		665.8625	
70.58729	4679.686		671.9752	
70.64128	4721.068		677.7017	
70.69527	4762.873		683.024	
70.74926	4805.069		687.9279	
70.80325	4847.603		692.3965	
70.85723	4890.449		696.4167	
70.91122	4933.595		699.9752	
70.96521	4977.013		703.0589	
71.0192	5020.692		705.6572	
71.07319	5064.594		707.7595	
71.12718	5108.705		709.3572	
71.18117	5152.986		710.4426	
71.23516	5197.425		711.0098	
71.28915	5241.983		711.0538	
71.34314	5286.647		710.5715	
71.39713	5331.365		709.5614	
71.45112	5376.114		708.0231	
71.5051	5420.844		705.9585	
71.5591	5465.528		703.3702	
71.61308	5510.118		700.2636	
71.66708	5554.599		696.644	
71.72106	5598.938		692.5207	
71.77505	5643.122		687.9006	
71.82904	5687.138		682.7952	
71.88303	5730.948		677.2173	
71.93702	5774.524		671.1785	
71.991	5817.801		664.6946	
72.045	5860.721		657.7791	
72.09898	5903.179		650.4499	
72.15298	5945.085		642.722	
72.20696	5986.323		634.6151	
72.26096	6026.793		626.1449	
72.31494	6066.38		617.3324	
72.36893	6105.008		608.1938	
72.42292	6142.608		598.7509	
72.47691	6179.152		589.0199	
72.5309	6214.615		579.0229	
72.58488	6249		568.7775	
72.63888	6282.317		558.3016	
72.69286	6314.56		547.6172	
72.74686	6345.737		536.7404	
72.80084	6375.841		525.6935	
72.85484	6404.884		514.4922	
72.90882	6432.854		503.1591	
72.96281	6459.751		491.71	
73.0168	6485.552		480.1669	
73.07079	6510.264		468.5458	
73.12478	6533.883		456.8687	
73.17877	6556.427		445.1513	
73.23276	6577.913		433.4155	
73.28675	6598.385		421.6764	
73.34074	6617.888		409.9556	
73.39473	6636.487		398.2675	
73.44872	6654.235		386.6331	
73.5027	6671.188		375.0678	
73.55669	6687.398		363.5865	
73.61068	6702.905		352.2086	
73.66467	6717.753		340.9465	
73.71866	6731.962		329.8186	
73.77265	6745.543		318.8362	
73.82664	6758.5		308.0164	
73.88063	6770.843		297.3695	
73.93462	6782.589		286.9111	
73.98861	6793.78		276.6502	
74.04259	6804.46		266.6006	
74.09659	6814.679		256.7699	
74.15057	6824.479		247.1699	
74.20457	6833.896		237.806	
74.25855	6842.949		228.6879	
74.31254	6851.66		219.8201	
74.36653	6860.057		211.206	
74.42052	6868.157		202.8512	
74.47451	6875.97		194.7553	
74.5285	6883.504		186.9215	
74.58249	6890.761		179.3469	
74.63647	6897.745		172.0321	
74.69047	6904.453		164.9723	
74.74445	6910.882		158.166	
74.79845	6917.039		151.6066	
74.85243	6922.946		145.2908	
74.90643	6928.618		139.2107	
74.96041	6934.066		133.3615	
75.0144	6939.303		127.7346	
75.06839	6944.34		122.324	
75.12238	6949.189		117.1207	
75.17637	6953.866		112.1183	
75.23035	6958.386		107.3082	
75.28435	6962.762		102.6819	
75.33833	6966.995		98.23303	
75.39233	6971.087		93.95259	
75.44631	6975.033		89.83421	
75.50031	6978.822		85.86932	
75.55429	6982.446		82.0518	
75.60828	6985.909		78.37357	
75.66227	6989.216		74.82894	
75.71626	6992.375		71.41045	
75.77025	6995.396		68.11287	
75.82424	6998.29		64.9294	
75.87823	7001.062		61.85536	
75.93222	7003.72		58.88471	
75.98621	7006.273		56.01348	
76.04019	7008.734		53.23684	
76.09418	7011.114		50.55038	
76.14817	7013.418		47.95117	
76.20216	7015.648		45.43504	
76.25615	7017.799		42.99949	
76.31014	7019.862		40.6408	
76.36413	7021.833		38.35669	
76.41812	7023.692		36.14359	
76.47211	7025.425		33.99923	
76.5261	7027.022		31.92005	
76.58009	7028.484		29.9037	
76.63408	7029.821		27.94664	
76.68806	7031.032		26.0465	
76.74206	7032.118		24.19981	
76.79604	7033.079		22.40417	
76.85004	7033.917		20.65619	
76.90402	7034.637		18.95352	
76.95801	7035.234		17.29319	
77.012	7035.7		15.67238	
77.06599	7036.021		14.08908	
77.11998	7036.188		12.5406	
77.17397	7036.201		11.02529	
77.22796	7036.067		9.540864	
77.28194	7035.797		8.086127	
77.33594	7035.4		6.659316	
77.38992	7034.899		5.259727	
77.44392	7034.325		3.88614	
77.4979	7033.703		2.538381	
77.5519	7033.046		1.215748	
77.60588	7032.36		-0.08148747	
77.65987	7031.641		-1.353595	
77.71386	7030.892		-2.599938	
77.76785	7030.124		-3.820273	
77.82184	7029.354		-5.014197	
77.87582	7028.595		-6.180691	
77.92982	7027.86		-7.31925	
77.9838	7027.153		-8.428604	
78.0378	7026.469		-9.507994	
78.09178	7025.795		-10.55596	
78.14577	7025.124		-11.57158	
78.19976	7024.46		-12.55334	
78.25375	7023.811		-13.50027	
78.30774	7023.177		-14.4109	
78.36173	7022.555		-15.28435	
78.41572	7021.936		-16.11937	
78.46971	7021.31		-16.9153	
78.5237	7020.676		-17.67123	
78.57769	7020.03		-18.38688	
78.63168	7019.366		-19.06181	
78.68566	7018.679		-19.69609	
78.73965	7017.953		-20.29009	
78.79364	7017.165		-20.84414	
78.84763	7016.292		-21.3592	
78.90162	7015.31		-21.83618	
78.95561	7014.205		-22.27652	
79.0096	7012.963		-22.68159	
79.06359	7011.575		-23.05315	
79.11758	7010.039		-23.39284	
79.17157	7008.361		-23.70258	
79.22556	7006.556		-23.98408	
79.27955	7004.634		-24.23914	
79.33353	7002.608		-24.46927	
79.38753	7000.499		-24.67598	
79.44151	6998.335		-24.86041	
79.4955	6996.147		-25.0236	
79.54949	6993.96		-25.16634	
79.60348	6991.791		-25.28922	
79.65747	6989.641		-25.39272	
79.71146	6987.502		-25.47712	
79.76545	6985.361		-25.54263	
79.81944	6983.203		-25.5893	
79.87343	6981.031		-25.6171	
79.92741	6978.852		-25.62591	
79.98141	6976.68		-25.6156	
80.03539	6974.537		-25.58596	
80.08939	6972.447		-25.53677	
80.14337	6970.438		-25.46783	
80.19736	6968.539		-25.37897	
80.25135	6966.773		-25.2701	
80.30534	6965.154		-25.14115	
80.35933	6963.686		-24.99226	
80.41331	6962.35		-24.82359	
80.46731	6961.122		-24.6354	
80.52129	6959.978		-24.42814	
80.57529	6958.886		-24.20222	
80.62927	6957.823		-23.95835	
80.68327	6956.766		-23.69725	
80.73725	6955.7		-23.41999	
80.79124	6954.618		-23.12769	
80.84523	6953.526		-22.82186	
80.89922	6952.432		-22.50404	
80.95321	6951.35		-22.17627	
81.0072	6950.287		-21.84064	
81.06119	6949.252		-21.4997	
81.11518	6948.258		-21.15605	
81.16917	6947.313		-20.81265	
81.22315	6946.417		-20.47239	
81.27715	6945.568		-20.13816	
81.33113	6944.759		-19.81293	
81.38512	6943.97		-19.49936	
81.43911	6943.173		-19.20007	
81.4931	6942.336		-18.9173	
81.54709	6941.437		-18.65319	
81.60108	6940.475		-18.4094	
81.65507	6939.472		-18.1875	
81.70906	6938.45		-17.98865	
81.76305	6937.432		-17.81395	
81.81704	6936.45		-17.66419	
81.87103	6935.534		-17.54016	
81.92502	6934.708		-17.44251	
81.979	6933.992		-17.3719	
82.033	6933.391		-17.32889	
82.08698	6932.897		-17.31407	
82.14097	6932.484		-17.32793	
82.19496	6932.112		-17.37099	
82.24895	6931.746		-17.44365	
82.30294	6931.362		-17.54637	
82.35693	6930.94		-17.67953	
82.41092	6930.457		-17.84363	
82.4649	6929.913		-18.03902	
82.5189	6929.324		-18.26617	
82.57288	6928.707		-18.52539	
82.62688	6928.078		-18.81714	
82.68086	6927.447		-19.14171	
82.73486	6926.821		-19.49966	
82.78884	6926.211		-19.89138	
82.84283	6925.621		-20.3176	
82.89682	6925.039		-20.77883	
82.95081	6924.437		-21.27589	
83.0048	6923.783		-21.80967	
83.05878	6923.053		-22.38095	
83.11278	6922.229		-22.99091	
83.16676	6921.292		-23.64045	
83.22076	6920.23		-24.33086	
83.27474	6919.042		-25.06306	
83.32874	6917.74		-25.83827	
83.38272	6916.349		-26.65724	
83.43671	6914.897		-27.52102	
83.4907	6913.415		-28.43005	
83.54469	6911.925		-29.38509	
83.59868	6910.448		-30.38618	
83.65267	6908.981		-31.43367	
83.70666	6907.516		-32.52712	
83.76065	6906.034		-33.66644	
83.81464	6904.521		-34.85069	
83.86862	6902.964		-36.07924	
83.92262	6901.359		-37.35124	
83.9766	6899.698		-38.6652	
84.03059	6897.986		-40.02018	
84.08458	6896.242		-41.41439	
84.13857	6894.481		-42.84671	
84.19256	6892.716		-44.31512	
84.24655	6890.959		-45.81834	
84.30054	6889.213		-47.3542	
84.35453	6887.452		-48.92137	
84.40852	6885.634		-50.51762	
84.46251	6883.721		-52.14158	
84.51649	6881.672		-53.79096	
84.57049	6879.454		-55.46429	
84.62447	6877.051		-57.15913	
84.67846	6874.461		-58.87362	
84.73245	6871.691		-60.6059	
84.78644	6868.761		-62.35336	
84.84043	6865.691		-64.11441	
84.89442	6862.502		-65.88647	
84.94841	6859.201		-67.66801	
85.0024	6855.795		-69.4565	
85.05639	6852.296		-71.2505	
85.11037	6848.708		-73.04758	
85.16437	6845.022		-74.84641	
85.21835	6841.229		-76.64471	
85.27235	6837.301		-78.44127	
85.32633	6833.199		-80.23384	
85.38033	6828.89		-82.02122	
85.43431	6824.351		-83.80115	
85.4883	6819.575		-85.57237	
85.54229	6814.574		-87.33268	
85.59628	6809.376		-89.0807	
85.65027	6804.001		-90.81515	
85.70425	6798.476		-92.53406	
85.75825	6792.827		-94.23651	
85.81223	6787.099		-95.92068	
85.86623	6781.321		-97.58573	
85.92021	6775.523		-99.22995	
85.97421	6769.701		-100.8526	
86.02819	6763.838		-102.4519	
86.08218	6757.89		-104.0271	
86.13617	6751.82		-105.5765	
86.19016	6745.581		-107.0993	
86.24415	6739.156		-108.5938	
86.29814	6732.538		-110.0591	
86.35213	6725.746		-111.4936	
86.40611	6718.801		-112.8967	
86.46011	6711.736		-114.2675	
86.51409	6704.574		-115.6051	
86.56808	6697.339		-116.9089	
86.62207	6690.063		-118.1783	
86.67606	6682.778		-119.4129	
86.73005	6675.517		-120.612	
86.78404	6668.302		-121.7755	
86.83803	6661.144		-122.9025	
86.89202	6654.029		-123.9932	
86.94601	6646.928		-125.0467	
87	6639.816		-126.063	
87.05399	6632.671		-127.0415	
87.10798	6625.474		-127.982	
87.16196	6618.226		-128.8842	
87.21596	6610.939		-129.7482	
87.26994	6603.63		-130.5738	
87.32393	6596.312		-131.3613	
87.37792	6588.988		-132.111	
87.43191	6581.665		-132.823	
87.4859	6574.348		-133.4978	
87.53989	6567.054		-134.1358	
87.59388	6559.797		-134.7378	
87.64787	6552.581		-135.3043	
87.70186	6545.389		-135.8362	
87.75584	6538.191		-136.3343	
87.80984	6530.956		-136.7997	
87.86382	6523.67		-137.2334	
87.91782	6516.331		-137.6364	
87.9718	6508.95		-138.0098	
88.02579	6501.54		-138.3551	
88.07978	6494.114		-138.6735	
88.13377	6486.671		-138.9662	
88.18776	6479.194		-139.2346	
88.24174	6471.674		-139.48	
88.29574	6464.096		-139.7038	
88.34972	6456.455		-139.9071	
88.40372	6448.739		-140.0914	
88.4577	6440.952		-140.2581	
88.5117	6433.078		-140.4086	
88.56568	6425.125		-140.5441	
88.61967	6417.099		-140.6658	
88.67366	6409.022		-140.7751	
88.72765	6400.912		-140.8731	
88.78164	6392.809		-140.9609	
88.83563	6384.742		-141.0394	
88.88962	6376.739		-141.1095	
88.94361	6368.792		-141.1721	
88.9976	6360.885		-141.2279	
89.05158	6352.986		-141.2771	
89.10558	6345.074		-141.3203	
89.15956	6337.145		-141.3577	
89.21355	6329.201		-141.3894	
89.26754	6321.25		-141.4156	
89.32153	6313.304		-141.4363	
89.37552	6305.372		-141.4518	
89.42951	6297.454		-141.462	
89.4835	6289.559		-141.4672	
89.53749	6281.711		-141.4675	
89.59148	6273.933		-141.4632	
89.64547	6266.246		-141.4545	
89.69946	6258.659		-141.4419	
89.75345	6251.163		-141.4258	
89.80743	6243.736		-141.4065	
89.86142	6236.348		-141.3844	
89.91541	6228.963		-141.3599	
89.9694	6221.57		-141.3333	
90.02339	6214.158		-141.3048	
90.07738	6206.729		-141.2747	
90.13137	6199.268		-141.2433	
90.18536	6191.774		-141.2108	
90.23935	6184.252		-141.1775	
90.29333	6176.719		-141.1437	
90.34733	6169.185		-141.1099	
90.40131	6161.681		-141.0766	
90.45531	6154.208		-141.0445	
90.50929	6146.773		-141.0142	
90.56329	6139.373		-140.9863	
90.61727	6132.006		-140.9613	
90.67126	6124.651		-140.9399	
90.72525	6117.298		-140.9223	
90.77924	6109.932		-140.909	
90.83323	6102.555		-140.9002	
90.88721	6095.167		-140.896	
90.94121	6087.764		-140.8967	
90.99519	6080.347		-140.9021	
91.04919	6072.911		-140.9124	
91.10317	6065.455		-140.9274	
91.15717	6057.981		-140.9471	
91.21115	6050.485		-140.9714	
91.26514	6042.968		-141.0002	
91.31913	6035.437		-141.0333	
91.37312	6027.887		-141.0709	
91.42711	6020.31		-141.1128	
91.4811	6012.695		-141.1592	
91.53509	6005.044		-141.2101	
91.58907	5997.363		-141.2655	
91.64307	5989.667		-141.3256	
91.69705	5981.971		-141.3903	
91.75105	5974.283		-141.4598	
91.80503	5966.604		-141.534	
91.85902	5958.919		-141.613	
91.91301	5951.212		-141.6965	
91.967	5943.471		-141.7845	
92.02099	5935.692		-141.8768	
92.07498	5927.875		-141.973	
92.12897	5920.021		-142.073	
92.18296	5912.132		-142.1763	
92.23695	5904.213		-142.2827	
92.29094	5896.273		-142.3918	
92.34492	5888.324		-142.503	
92.39892	5880.376		-142.6161	
92.4529	5872.434		-142.72	
92.50689	5864.513		-142.8275	
92.56088	5856.622		-142.9373	
92.61487	5848.781		-143.0484	
92.66886	5840.992		-143.16	
92.72285	5833.268		-143.2717	
92.77684	5825.597		-143.383	
92.83083	5817.968		-143.4937	
92.88482	5810.35		-143.6037	
92.9388	5802.728		-143.7128	
92.9928	5795.078		-143.8211	
93.04678	5787.393		-143.9285	
93.10078	5779.664		-144.0349	
93.15476	5771.91		-144.1405	
93.20876	5764.145		-144.2451	
93.26274	5756.396		-144.3489	
93.31673	5748.683		-144.4519	
93.37072	5741.026		-144.5541	
93.42471	5733.434		-144.6555	
93.4787	5725.9		-144.7563	
93.53268	5718.406		-144.8565	
93.58668	5710.925		-144.9561	
93.64066	5703.435		-145.0552	
93.69466	5695.908		-145.1538	
93.74864	5688.329		-145.2521	
93.80264	5680.702		-145.3501	
93.85662	5673.019		-145.4479	
93.91061	5665.257		-145.5456	
93.9646	5657.398		-145.6432	
94.01859	5649.428		-145.7408	
94.07258	5641.195		-145.8385	
94.12657	5632.944		-145.9362	
94.18056	5624.73		-146.0342	
94.23454	5616.551		-146.1324	
94.28854	5608.396		-146.2308	
94.34252	5600.261		-146.3295	
94.39651	5592.135		-146.4285	
94.4505	5584.015		-146.5278	
94.50449	5575.894		-146.6275	
94.55848	5567.771		-146.7275	
94.61247	5559.642		-146.8279	
94.66646	5551.505		-146.9286	
94.72045	5543.358		-147.0298	
94.77444	5535.201		-147.1313	
94.82843	5527.029		-147.2332	
94.88242	5518.844		-147.3354	
94.93641	5510.646		-147.4381	
94.99039	5502.44		-147.5411	
