T[Â°C]	350nm [counts / mm]	S.D.	First derivative	S.D. of first derivative
20.00094	3285.493		-46.75501	
20.05489	3282.802		-46.70416	
20.10884	3280.113		-46.65458	
20.16279	3277.424		-46.6063	
20.21674	3274.735		-46.55935	
20.27069	3272.047		-46.51376	
20.32464	3269.359		-46.46953	
20.37859	3266.671		-46.4267	
20.43254	3263.982		-46.38527	
20.48649	3261.293		-46.34525	
20.54045	3258.603		-46.30664	
20.59439	3255.912		-46.26943	
20.64835	3253.22		-46.23362	
20.7023	3250.526		-46.19918	
20.75625	3247.83		-46.1661	
20.8102	3245.134		-46.13433	
20.86415	3242.437		-46.10386	
20.9181	3239.744		-46.07462	
20.97205	3237.06		-46.04655	
21.026	3234.42		-46.01961	
21.07995	3231.81		-45.99371	
21.1339	3229.233		-45.96878	
21.18785	3226.701		-45.94472	
21.2418	3224.221		-45.92143	
21.29575	3221.793		-45.89882	
21.3497	3219.42		-45.87677	
21.40365	3217.1		-45.85517	
21.4576	3214.827		-45.8339	
21.51155	3212.595		-45.81285	
21.5655	3210.4		-45.7919	
21.61945	3208.241		-45.7709	
21.6734	3206.115		-45.74975	
21.72735	3204.017		-45.72831	
21.7813	3201.933		-45.70645	
21.83525	3199.85		-45.68404	
21.8892	3197.76		-45.66095	
21.94315	3195.661		-45.63706	
21.9971	3193.552		-45.61224	
22.05105	3191.431		-45.58639	
22.105	3189.288		-45.55941	
22.15895	3187.116		-45.53127	
22.2129	3184.903		-45.50198	
22.26686	3182.642		-45.47168	
22.3208	3180.329		-45.44071	
22.37476	3177.958		-45.4097	
22.42871	3175.529		-45.37973	
22.48266	3173.047		-45.35251	
22.53661	3170.52		-45.33041	
22.59056	3167.957		-45.31618	
22.64451	3165.363		-45.3219	
22.69846	3162.743		-45.33002	
22.75241	3160.104		-45.34063	
22.80636	3157.451		-45.35382	
22.86031	3154.796		-45.36962	
22.91426	3152.148		-45.38801	
22.96821	3149.513		-45.40895	
23.02216	3146.889		-45.43237	
23.07611	3144.262		-45.45814	
23.13006	3141.629		-45.48611	
23.18401	3138.989		-45.51603	
23.23796	3136.342		-45.54762	
23.29191	3133.693		-45.58051	
23.34586	3131.056		-45.61424	
23.39981	3128.443		-45.64827	
23.45376	3125.859		-45.68201	
23.50771	3123.301		-45.71474	
23.56166	3120.76		-45.74576	
23.61561	3118.229		-45.77434	
23.66956	3115.706		-45.79981	
23.72351	3113.188		-45.82158	
23.77746	3110.668		-45.83913	
23.83141	3108.144		-45.85202	
23.88536	3105.614		-45.85994	
23.93931	3103.082		-45.86264	
23.99327	3100.553		-45.85999	
24.04721	3098.041		-45.85199	
24.10117	3095.557		-45.83871	
24.15512	3093.107		-45.82034	
24.20907	3090.69		-45.79711	
24.26302	3088.304		-45.76933	
24.31697	3085.94		-45.73735	
24.37092	3083.59		-45.7016	
24.42487	3081.24		-45.66256	
24.47882	3078.883		-45.62081	
24.53277	3076.511		-45.57691	
24.58672	3074.12		-45.53147	
24.64067	3071.709		-45.48505	
24.69462	3069.281		-45.43826	
24.74857	3066.837		-45.39164	
24.80252	3064.385		-45.34578	
24.85647	3061.938		-45.30124	
24.91042	3059.5		-45.25859	
24.96437	3057.075		-45.21833	
25.01832	3054.667		-45.18098	
25.07227	3052.282		-45.14698	
25.12622	3049.92		-45.11676	
25.18017	3047.569		-45.09066	
25.23412	3045.217		-45.06894	
25.28807	3042.849		-45.05178	
25.34202	3040.461		-45.03923	
25.39597	3038.049		-45.03125	
25.44992	3035.619		-45.02766	
25.50387	3033.173		-45.02815	
25.55782	3030.72		-45.0323	
25.61177	3028.268		-45.03957	
25.66572	3025.823		-45.04939	
25.71968	3023.39		-45.06114	
25.77362	3020.968		-45.07418	
25.82758	3018.556		-45.08786	
25.88153	3016.152		-45.10156	
25.93548	3013.754		-45.11468	
25.98943	3011.362		-45.12665	
26.04338	3008.982		-45.13695	
26.09733	3006.619		-45.14511	
26.15128	3004.269		-45.15077	
26.20523	3001.927		-45.1536	
26.25918	2999.581		-45.15338	
26.31313	2997.221		-45.14994	
26.36708	2994.842		-45.14325	
26.42103	2992.445		-45.13334	
26.47498	2990.032		-45.12038	
26.52893	2987.606		-45.10461	
26.58288	2985.171		-45.0863	
26.63683	2982.73		-45.06573	
26.69078	2980.285		-45.0432	
26.74473	2977.839		-45.01898	
26.79868	2975.402		-44.99335	
26.85263	2972.976		-44.96662	
26.90658	2970.549		-44.93906	
26.96053	2968.11		-44.91096	
27.01448	2965.647		-44.88255	
27.06843	2963.148		-44.85412	
27.12238	2960.607		-44.8259	
27.17633	2958.027		-44.79814	
27.23028	2955.415		-44.77111	
27.28423	2952.778		-44.74503	
27.33818	2950.122		-44.72015	
27.39213	2947.451		-44.69664	
27.44608	2944.772		-44.67464	
27.50003	2942.101		-44.65428	
27.55399	2939.453		-44.63561	
27.60793	2936.84		-44.61866	
27.66189	2934.266		-44.6034	
27.71584	2931.733		-44.58972	
27.76979	2929.24		-44.57748	
27.82374	2926.784		-44.56644	
27.87769	2924.362		-44.55632	
27.93164	2921.976		-44.54676	
27.98559	2919.625		-44.53737	
28.03954	2917.308		-44.52772	
28.09349	2915.027		-44.51738	
28.14744	2912.786		-44.50594	
28.20139	2910.58		-44.49304	
28.25534	2908.405		-44.47836	
28.30929	2906.253		-44.46167	
28.36324	2904.124		-44.44282	
28.41719	2902.012		-44.42181	
28.47114	2899.913		-44.3987	
28.52509	2897.811		-44.37368	
28.57904	2895.688		-44.34703	
28.63299	2893.531		-44.31905	
28.68694	2891.334		-44.29006	
28.74089	2889.093		-44.26035	
28.79484	2886.814		-44.23024	
28.84879	2884.503		-44.2	
28.90274	2882.169		-44.16993	
28.95669	2879.813		-44.14028	
29.01064	2877.431		-44.11129	
29.06459	2875.02		-44.08316	
29.11854	2872.577		-44.05607	
29.17249	2870.11		-44.03019	
29.22644	2867.628		-44.00564	
29.2804	2865.143		-43.98252	
29.33434	2862.654		-43.96092	
29.3883	2860.156		-43.9409	
29.44225	2857.646		-43.9225	
29.4962	2855.129		-43.90574	
29.55015	2852.616		-43.89064	
29.6041	2850.115		-43.87727	
29.65805	2847.631		-43.86566	
29.712	2845.168		-43.85588	
29.76595	2842.728		-43.84795	
29.8199	2840.307		-43.84187	
29.87385	2837.903		-43.83759	
29.9278	2835.517		-43.83496	
29.98175	2833.144		-43.83382	
30.0357	2830.779		-43.83393	
30.08965	2828.416		-43.83498	
30.1436	2826.052		-43.83665	
30.19755	2823.681		-43.8386	
30.2515	2821.299		-43.84047	
30.30545	2818.9		-43.84194	
30.3594	2816.49		-43.84274	
30.41335	2814.077		-43.84266	
30.4673	2811.673		-43.84157	
30.52125	2809.281		-43.83941	
30.5752	2806.902		-43.83618	
30.62915	2804.531		-43.83195	
30.6831	2802.163		-43.82683	
30.73705	2799.792		-43.82095	
30.791	2797.413		-43.81449	
30.84495	2795.028		-43.80764	
30.8989	2792.637		-43.80064	
30.95285	2790.243		-43.79374	
31.00681	2787.846		-43.78714	
31.06075	2785.45		-43.78102	
31.11471	2783.059		-43.77551	
31.16866	2780.681		-43.77066	
31.22261	2778.327		-43.76649	
31.27656	2776.01		-43.763	
31.33051	2773.734		-43.76014	
31.38446	2771.496		-43.7578	
31.43841	2769.288		-43.75587	
31.49236	2767.103		-43.75423	
31.54631	2764.93		-43.75272	
31.60026	2762.753		-43.75119	
31.65421	2760.56		-43.74952	
31.70816	2758.345		-43.7476	
31.76211	2756.106		-43.74539	
31.81606	2753.84		-43.74283	
31.87001	2751.548		-43.73991	
31.92396	2749.239		-43.73662	
31.97791	2746.92		-43.73298	
32.03186	2744.594		-43.72898	
32.08581	2742.266		-43.72466	
32.13976	2739.941		-43.72002	
32.19371	2737.616		-43.71507	
32.24766	2735.283		-43.7098	
32.30161	2732.931		-43.70423	
32.35556	2730.553		-43.69834	
32.40951	2728.142		-43.69212	
32.46346	2725.703		-43.68554	
32.51741	2723.24		-43.67852	
32.57136	2720.766		-43.67099	
32.62531	2718.294		-43.66292	
32.67926	2715.829		-43.65426	
32.73322	2713.369		-43.64503	
32.78716	2710.916		-43.6353	
32.84111	2708.468		-43.62512	
32.89507	2706.026		-43.61464	
32.94902	2703.591		-43.60399	
33.00296	2701.165		-43.59328	
33.05692	2698.744		-43.58259	
33.11087	2696.324		-43.57196	
33.16482	2693.898		-43.56134	
33.21877	2691.465		-43.55069	
33.27272	2689.023		-43.53985	
33.32667	2686.572		-43.52868	
33.38062	2684.113		-43.51697	
33.43457	2681.653		-43.50452	
33.48852	2679.2		-43.49108	
33.54247	2676.759		-43.47639	
33.59642	2674.336		-43.46024	
33.65037	2671.941		-43.44237	
33.70432	2669.583		-43.4226	
33.75827	2667.261		-43.40079	
33.81222	2664.969		-43.37685	
33.86617	2662.697		-43.35072	
33.92012	2660.438		-43.3224	
33.97407	2658.182		-43.2919	
34.02802	2655.917		-43.25933	
34.08197	2653.641		-43.22483	
34.13592	2651.355		-43.18862	
34.18987	2649.068		-43.15094	
34.24382	2646.788		-43.11213	
34.29777	2644.526		-43.07253	
34.35172	2642.281		-43.0325	
34.40567	2640.049		-42.99237	
34.45963	2637.825		-42.95247	
34.51357	2635.607		-42.91309	
34.56752	2633.392		-42.87447	
34.62148	2631.18		-42.83681	
34.67543	2628.966		-42.80031	
34.72937	2626.745		-42.76511	
34.78333	2624.51		-42.73133	
34.83728	2622.252		-42.69905	
34.89123	2619.965		-42.66839	
34.94518	2617.65		-42.63944	
34.99913	2615.309		-42.61229	
35.05308	2612.95		-42.58707	
35.10703	2610.582		-42.5639	
35.16098	2608.215		-42.54285	
35.21493	2605.855		-42.52398	
35.26888	2603.508		-42.50723	
35.32283	2601.178		-42.49249	
35.37678	2598.871		-42.47961	
35.43073	2596.586		-42.46842	
35.48468	2594.317		-42.45867	
35.53863	2592.055		-42.45012	
35.59258	2589.794		-42.44246	
35.64653	2587.529		-42.43536	
35.70048	2585.255		-42.42851	
35.75443	2582.973		-42.42156	
35.80838	2580.69		-42.41421	
35.86233	2578.414		-42.40618	
35.91628	2576.146		-42.39724	
35.97023	2573.883		-42.3872	
36.02418	2571.624		-42.37594	
36.07813	2569.366		-42.36342	
36.13208	2567.104		-42.34967	
36.18604	2564.836		-42.33477	
36.23998	2562.567		-42.31889	
36.29393	2560.292		-42.30221	
36.34789	2558.004		-42.28495	
36.40184	2555.701		-42.26736	
36.45578	2553.389		-42.24968	
36.50974	2551.071		-42.23213	
36.56369	2548.75		-42.21494	
36.61764	2546.428		-42.1983	
36.67159	2544.108		-42.18235	
36.72554	2541.79		-42.16718	
36.77949	2539.472		-42.15286	
36.83344	2537.151		-42.1394	
36.88739	2534.822		-42.1268	
36.94134	2532.485		-42.11503	
36.99529	2530.145		-42.10407	
37.04924	2527.802		-42.09389	
37.10319	2525.465		-42.08447	
37.15714	2523.139		-42.07574	
37.21109	2520.826		-42.06765	
37.26504	2518.529		-42.06009	
37.31899	2516.246		-42.05294	
37.37294	2513.977		-42.04607	
37.42689	2511.714		-42.03935	
37.48084	2509.452		-42.0327	
37.53479	2507.191		-42.02603	
37.58874	2504.93		-42.01923	
37.64269	2502.666		-42.01217	
37.69664	2500.398		-42.00468	
37.75059	2498.135		-41.99655	
37.80454	2495.896		-41.98754	
37.85849	2493.69		-41.97743	
37.91245	2491.52		-41.96601	
37.96639	2489.379		-41.95311	
38.02034	2487.26		-41.93856	
38.0743	2485.153		-41.92227	
38.12825	2483.053		-41.90415	
38.18219	2480.958		-41.88419	
38.23615	2478.864		-41.86238	
38.2901	2476.762		-41.83882	
38.34405	2474.64		-41.81361	
38.39799	2472.484		-41.78691	
38.45195	2470.286		-41.75887	
38.5059	2468.044		-41.72966	
38.55985	2465.763		-41.69948	
38.6138	2463.447		-41.66855	
38.66775	2461.103		-41.63707	
38.7217	2458.742		-41.60529	
38.77565	2456.374		-41.57341	
38.8296	2454.005		-41.54166	
38.88355	2451.633		-41.51022	
38.9375	2449.26		-41.47922	
38.99145	2446.89		-41.44879	
39.0454	2444.525		-41.41896	
39.09935	2442.16		-41.38972	
39.1533	2439.794		-41.36103	
39.20725	2437.428		-41.33282	
39.2612	2435.066		-41.30502	
39.31515	2432.716		-41.27755	
39.3691	2430.383		-41.25035	
39.42305	2428.073		-41.22338	
39.477	2425.793		-41.19665	
39.53095	2423.548		-41.17019	
39.5849	2421.338		-41.14409	
39.63885	2419.158		-41.11842	
39.6928	2417.004		-41.0933	
39.74675	2414.866		-41.06878	
39.8007	2412.74		-41.04493	
39.85466	2410.622		-41.02178	
39.9086	2408.513		-40.99936	
39.96255	2406.407		-40.97766	
40.01651	2404.29		-40.95663	
40.07046	2402.148		-40.9362	
40.1244	2399.974		-40.91631	
40.17836	2397.765		-40.8969	
40.23231	2395.529		-40.87791	
40.28626	2393.277		-40.85938	
40.34021	2391.023		-40.84135	
40.39416	2388.777		-40.8239	
40.44811	2386.542		-40.80712	
40.50206	2384.321		-40.7911	
40.55601	2382.116		-40.77595	
40.60996	2379.927		-40.76181	
40.66391	2377.751		-40.74884	
40.71786	2375.592		-40.73725	
40.77181	2373.452		-40.72723	
40.82576	2371.33		-40.71899	
40.87971	2369.216		-40.71271	
40.93366	2367.106		-40.70852	
40.98761	2365.002		-40.7065	
41.04156	2362.905		-40.70673	
41.09551	2360.815		-40.70919	
41.14946	2358.728		-40.71387	
41.20341	2356.642		-40.7207	
41.25736	2354.557		-40.72958	
41.31131	2352.471		-40.74038	
41.36526	2350.383		-40.75293	
41.41921	2348.287		-40.76704	
41.47316	2346.177		-40.78253	
41.52711	2344.052		-40.79922	
41.58107	2341.915		-40.81693	
41.63501	2339.767		-40.83551	
41.68896	2337.602		-40.85479	
41.74292	2335.414		-40.87462	
41.79687	2333.193		-40.89484	
41.85081	2330.938		-40.91528	
41.90477	2328.66		-40.93576	
41.95872	2326.365		-40.9561	
42.01267	2324.053		-40.97606	
42.06662	2321.728		-40.99544	
42.12057	2319.39		-41.014	
42.17452	2317.042		-41.03154	
42.22847	2314.691		-41.04783	
42.28242	2312.349		-41.06269	
42.33637	2310.029		-41.07594	
42.39032	2307.736		-41.08744	
42.44427	2305.47		-41.09706	
42.49822	2303.229		-41.10464	
42.55217	2301.012		-41.1101	
42.60612	2298.813		-41.11333	
42.66007	2296.625		-41.11433	
42.71402	2294.437		-41.1131	
42.76797	2292.242		-41.10968	
42.82192	2290.033		-41.10414	
42.87587	2287.802		-41.09655	
42.92982	2285.543		-41.08698	
42.98377	2283.261		-41.07547	
43.03772	2280.964		-41.06208	
43.09167	2278.667		-41.04689	
43.14562	2276.381		-41.02996	
43.19957	2274.111		-41.01137	
43.25352	2271.86		-40.99122	
43.30748	2269.626		-40.96958	
43.36142	2267.403		-40.94653	
43.41537	2265.178		-40.92214	
43.46933	2262.945		-40.89646	
43.52328	2260.703		-40.86955	
43.57722	2258.449		-40.84147	
43.63118	2256.186		-40.81226	
43.68513	2253.916		-40.78199	
43.73908	2251.639		-40.7507	
43.79303	2249.358		-40.71849	
43.84698	2247.082		-40.68549	
43.90093	2244.82		-40.65184	
43.95488	2242.582		-40.61777	
44.00883	2240.373		-40.5835	
44.06278	2238.197		-40.54929	
44.11673	2236.052		-40.51537	
44.17068	2233.935		-40.48193	
44.22463	2231.841		-40.44912	
44.27858	2229.768		-40.417	
44.33253	2227.713		-40.38556	
44.38648	2225.667		-40.35474	
44.44043	2223.615		-40.32447	
44.49438	2221.552		-40.29459	
44.54833	2219.476		-40.26492	
44.60228	2217.394		-40.23527	
44.65623	2215.306		-40.20545	
44.71018	2213.218		-40.1753	
44.76413	2211.131		-40.14467	
44.81808	2209.044		-40.11346	
44.87203	2206.957		-40.08157	
44.92598	2204.864		-40.0489	
44.97993	2202.757		-40.0154	
45.03388	2200.631		-39.981	
45.08783	2198.482		-39.94567	
45.14178	2196.309		-39.90939	
45.19574	2194.112		-39.87213	
45.24968	2191.891		-39.8339	
45.30363	2189.653		-39.79471	
45.35759	2187.406		-39.75459	
45.41154	2185.162		-39.7136	
45.46548	2182.929		-39.67181	
45.51944	2180.715		-39.62928	
45.57339	2178.523		-39.58612	
45.62734	2176.357		-39.5424	
45.68129	2174.214		-39.49823	
45.73524	2172.088		-39.45369	
45.78919	2169.969		-39.40891	
45.84314	2167.852		-39.36403	
45.89709	2165.73		-39.31926	
45.95104	2163.601		-39.27486	
46.00499	2161.458		-39.23112	
46.05894	2159.309		-39.18837	
46.11289	2157.156		-39.14697	
46.16684	2155.001		-39.10724	
46.22079	2152.847		-39.06952	
46.27474	2150.697		-39.03407	
46.32869	2148.552		-39.00114	
46.38264	2146.409		-38.97093	
46.43659	2144.262		-38.9436	
46.49054	2142.102		-38.91928	
46.54449	2139.923		-38.89803	
46.59844	2137.724		-38.87988	
46.65239	2135.51		-38.86483	
46.70634	2133.288		-38.85287	
46.76029	2131.067		-38.84395	
46.81424	2128.862		-38.83801	
46.86819	2126.684		-38.835	
46.92215	2124.54		-38.8348	
46.97609	2122.439		-38.83731	
47.03004	2120.38		-38.84238	
47.084	2118.364		-38.8499	
47.13795	2116.389		-38.85968	
47.19189	2114.444		-38.87158	
47.24585	2112.517		-38.88539	
47.2998	2110.599		-38.90092	
47.35375	2108.685		-38.91799	
47.4077	2106.77		-38.93641	
47.46165	2104.852		-38.95602	
47.5156	2102.93		-38.97666	
47.56955	2101.007		-38.99817	
47.6235	2099.089		-39.0204	
47.67745	2097.18		-39.04318	
47.7314	2095.284		-39.06636	
47.78535	2093.399		-39.08978	
47.8393	2091.518		-39.11329	
47.89325	2089.629		-39.1368	
47.9472	2087.714		-39.1602	
48.00115	2085.76		-39.18344	
48.0551	2083.759		-39.20649	
48.10905	2081.706		-39.22932	
48.163	2079.604		-39.25191	
48.21695	2077.457		-39.27427	
48.2709	2075.275		-39.29637	
48.32485	2073.069		-39.31819	
48.3788	2070.848		-39.33972	
48.43275	2068.617		-39.36092	
48.4867	2066.377		-39.38173	
48.54065	2064.128		-39.40211	
48.5946	2061.875		-39.42199	
48.64856	2059.616		-39.44129	
48.7025	2057.348		-39.45989	
48.75645	2055.07		-39.47763	
48.81041	2052.782		-39.49435	
48.86436	2050.491		-39.50983	
48.9183	2048.199		-39.5238	
48.97226	2045.906		-39.53597	
49.02621	2043.611		-39.54604	
49.08016	2041.319		-39.55371	
49.13411	2039.033		-39.5587	
49.18806	2036.75		-39.56077	
49.24201	2034.473		-39.55973	
49.29596	2032.202		-39.55547	
49.34991	2029.941		-39.54792	
49.40386	2027.691		-39.53705	
49.45781	2025.455		-39.52291	
49.51176	2023.239		-39.50555	
49.56571	2021.045		-39.48507	
49.61966	2018.869		-39.4616	
49.67361	2016.715		-39.4353	
49.72756	2014.584		-39.4063	
49.78151	2012.471		-39.3748	
49.83546	2010.37		-39.341	
49.88941	2008.277		-39.30512	
49.94336	2006.186		-39.26743	
49.99731	2004.088		-39.22818	
50.05126	2001.976		-39.18764	
50.10521	1999.849		-39.1461	
50.15916	1997.71		-39.10384	
50.21311	1995.566		-39.06118	
50.26706	1993.427		-39.01842	
50.32101	1991.307		-38.97586	
50.37497	1989.213		-38.93382	
50.42891	1987.149		-38.89263	
50.48286	1985.108		-38.85257	
50.53682	1983.083		-38.81395	
50.59077	1981.072		-38.77705	
50.64471	1979.07		-38.74216	
50.69867	1977.067		-38.70954	
50.75262	1975.061		-38.6794	
50.80657	1973.053		-38.65194	
50.86052	1971.048		-38.62729	
50.91447	1969.048		-38.60554	
50.96842	1967.057		-38.58672	
51.02237	1965.082		-38.57085	
51.07632	1963.128		-38.55788	
51.13027	1961.194		-38.54783	
51.18422	1959.28		-38.54068	
51.23817	1957.379		-38.53644	
51.29212	1955.49		-38.53511	
51.34607	1953.602		-38.53676	
51.40002	1951.707		-38.54143	
51.45397	1949.797		-38.54918	
51.50792	1947.868		-38.56003	
51.56187	1945.911		-38.57403	
51.61582	1943.924		-38.59116	
51.66977	1941.907		-38.61138	
51.72372	1939.86		-38.63459	
51.77767	1937.787		-38.66066	
51.83162	1935.688		-38.68943	
51.88557	1933.563		-38.72073	
51.93952	1931.412		-38.75431	
51.99347	1929.241		-38.78989	
52.04742	1927.052		-38.82716	
52.10138	1924.845		-38.86576	
52.15532	1922.62		-38.9053	
52.20927	1920.378		-38.94535	
52.26323	1918.126		-38.98546	
52.31718	1915.868		-39.02518	
52.37112	1913.614		-39.06402	
52.42508	1911.368		-39.10148	
52.47903	1909.137		-39.13708	
52.53298	1906.928		-39.17031	
52.58693	1904.747		-39.20071	
52.64088	1902.59		-39.22785	
52.69483	1900.456		-39.25135	
52.74878	1898.337		-39.2709	
52.80273	1896.226		-39.28625	
52.85668	1894.118		-39.29721	
52.91063	1892.006		-39.30366	
52.96458	1889.887		-39.30551	
53.01853	1887.763		-39.30275	
53.07248	1885.641		-39.2954	
53.12643	1883.526		-39.28357	
53.18038	1881.419		-39.26741	
53.23433	1879.321		-39.24714	
53.28828	1877.228		-39.22302	
53.34223	1875.132		-39.19537	
53.39618	1873.027		-39.16456	
53.45013	1870.907		-39.13102	
53.50408	1868.768		-39.09519	
53.55803	1866.607		-39.05753	
53.61198	1864.422		-39.01852	
53.66593	1862.211		-38.97861	
53.71988	1859.977		-38.93823	
53.77383	1857.722		-38.89777	
53.82779	1855.454		-38.85763	
53.88173	1853.178		-38.8182	
53.93568	1850.9		-38.77983	
53.98964	1848.626		-38.74287	
54.04359	1846.365		-38.7076	
54.09753	1844.122		-38.67429	
54.15149	1841.907		-38.64314	
54.20544	1839.732		-38.61432	
54.25939	1837.61		-38.58792	
54.31334	1835.544		-38.56401	
54.36729	1833.528		-38.54259	
54.42124	1831.548		-38.52359	
54.47519	1829.594		-38.50693	
54.52914	1827.658		-38.49247	
54.58309	1825.735		-38.48005	
54.63704	1823.822		-38.4695	
54.69099	1821.918		-38.46065	
54.74494	1820.024		-38.45331	
54.79889	1818.139		-38.44733	
54.85284	1816.261		-38.44255	
54.90679	1814.386		-38.43883	
54.96074	1812.512		-38.43605	
55.01469	1810.639		-38.43411	
55.06864	1808.766		-38.43296	
55.12259	1806.895		-38.43258	
55.17654	1805.02		-38.43295	
55.23049	1803.139		-38.43407	
55.28444	1801.243		-38.43597	
55.33839	1799.322		-38.43867	
55.39234	1797.364		-38.44223	
55.44629	1795.361		-38.4467	
55.50024	1793.308		-38.45217	
55.5542	1791.208		-38.4587	
55.60814	1789.068		-38.46637	
55.66209	1786.897		-38.47522	
55.71605	1784.702		-38.48527	
55.77	1782.497		-38.49651	
55.82394	1780.294		-38.5089	
55.8779	1778.104		-38.5224	
55.93185	1775.931		-38.53692	
55.9858	1773.774		-38.55236	
56.03975	1771.627		-38.5686	
56.0937	1769.481		-38.58548	
56.14765	1767.326		-38.60281	
56.2016	1765.162		-38.62038	
56.25555	1762.994		-38.63797	
56.3095	1760.826		-38.65536	
56.36345	1758.659		-38.6723	
56.4174	1756.491		-38.68855	
56.47135	1754.323		-38.70387	
56.5253	1752.159		-38.71802	
56.57925	1750.005		-38.7308	
56.6332	1747.864		-38.74201	
56.68715	1745.738		-38.75148	
56.7411	1743.625		-38.75907	
56.79505	1741.522		-38.76467	
56.849	1739.423		-38.76816	
56.90295	1737.318		-38.76943	
56.9569	1735.197		-38.76841	
57.01085	1733.057		-38.76505	
57.0648	1730.896		-38.75936	
57.11875	1728.715		-38.7514	
57.1727	1726.519		-38.74126	
57.22665	1724.316		-38.72903	
57.28061	1722.115		-38.71482	
57.33455	1719.928		-38.6988	
57.3885	1717.764		-38.68113	
57.44246	1715.631		-38.66203	
57.49641	1713.532		-38.64172	
57.55035	1711.461		-38.62046	
57.60431	1709.404		-38.59852	
57.65826	1707.352		-38.57613	
57.7122	1705.296		-38.55349	
57.76616	1703.238		-38.53078	
57.82011	1701.181		-38.50812	
57.87406	1699.13		-38.48559	
57.92801	1697.087		-38.46323	
57.98196	1695.052		-38.44104	
58.03591	1693.029		-38.41901	
58.08986	1691.021		-38.39709	
58.14381	1689.026		-38.37526	
58.19776	1687.053		-38.35344	
58.25171	1685.104		-38.3316	
58.30566	1683.18		-38.30968	
58.35961	1681.274		-38.28764	
58.41356	1679.375		-38.26543	
58.46751	1677.471		-38.24302	
58.52146	1675.553		-38.22037	
58.57541	1673.615		-38.19745	
58.62936	1671.651		-38.17426	
58.68331	1669.657		-38.15081	
58.73726	1667.632		-38.12715	
58.79121	1665.579		-38.10336	
58.84516	1663.502		-38.07948	
58.89911	1661.407		-38.05557	
58.95306	1659.303		-38.03165	
59.00701	1657.198		-38.00774	
59.06096	1655.097		-37.98384	
59.11491	1653.007		-37.95996	
59.16887	1650.93		-37.93605	
59.22281	1648.862		-37.91206	
59.27676	1646.796		-37.88789	
59.33072	1644.724		-37.86343	
59.38467	1642.64		-37.83856	
59.43861	1640.545		-37.81318	
59.49257	1638.44		-37.78717	
59.54652	1636.325		-37.76045	
59.60047	1634.198		-37.73296	
59.65442	1632.057		-37.70463	
59.70837	1629.905		-37.67537	
59.76232	1627.753		-37.6451	
59.81627	1625.611		-37.61374	
59.87022	1623.486		-37.58117	
59.92417	1621.378		-37.54727	
59.97812	1619.288		-37.5119	
60.03207	1617.21		-37.47492	
60.08602	1615.142		-37.43619	
60.13997	1613.08		-37.39558	
60.19392	1611.024		-37.35298	
60.24787	1608.974		-37.30831	
60.30182	1606.931		-37.26152	
60.35577	1604.895		-37.21256	
60.40972	1602.865		-37.16142	
60.46367	1600.84		-37.10806	
60.51762	1598.823		-37.05249	
60.57157	1596.813		-36.99471	
60.62552	1594.811		-36.93477	
60.67947	1592.821		-36.87271	
60.73342	1590.844		-36.80864	
60.78737	1588.878		-36.74264	
60.84132	1586.922		-36.67482	
60.89528	1584.974		-36.60526	
60.94922	1583.032		-36.53408	
61.00317	1581.092		-36.46133	
61.05713	1579.152		-36.38708	
61.11108	1577.21		-36.31136	
61.16502	1575.269		-36.23418	
61.21898	1573.328		-36.15548	
61.27293	1571.387		-36.07516	
61.32688	1569.444		-35.99308	
61.38083	1567.504		-35.90908	
61.43478	1565.568		-35.82296	
61.48873	1563.641		-35.73453	
61.54268	1561.726		-35.64356	
61.59663	1559.821		-35.54985	
61.65058	1557.922		-35.45316	
61.70453	1556.029		-35.35328	
61.75848	1554.141		-35.24999	
61.81243	1552.261		-35.14311	
61.86638	1550.39		-35.03243	
61.92033	1548.529		-34.91779	
61.97428	1546.677		-34.79903	
62.02823	1544.835		-34.67602	
62.08218	1542.997		-34.54861	
62.13613	1541.158		-34.41672	
62.19008	1539.316		-34.28028	
62.24403	1537.47		-34.13925	
62.29798	1535.623		-33.99363	
62.35193	1533.777		-33.84338	
62.40588	1531.934		-33.68849	
62.45983	1530.098		-33.52891	
62.51378	1528.27		-33.36455	
62.56773	1526.443		-33.19536	
62.62169	1524.61		-33.02126	
62.67563	1522.761		-32.84218	
62.72958	1520.89		-32.65804	
62.78354	1518.991		-32.46874	
62.83749	1517.066		-32.27417	
62.89143	1515.123		-32.07419	
62.94538	1513.171		-31.8686	
62.99934	1511.22		-31.65717	
63.05329	1509.276		-31.43963	
63.10723	1507.351		-31.21569	
63.16119	1505.459		-30.98496	
63.21514	1503.605		-30.74706	
63.26909	1501.794		-30.50158	
63.32304	1500.025		-30.24809	
63.37699	1498.295		-29.98608	
63.43094	1496.599		-29.71511	
63.48489	1494.93		-29.43466	
63.53884	1493.279		-29.14426	
63.59279	1491.644		-28.84337	
63.64674	1490.02		-28.5315	
63.70069	1488.409		-28.20815	
63.75464	1486.819		-27.87287	
63.80859	1485.257		-27.52513	
63.86254	1483.728		-27.16454	
63.91649	1482.237		-26.79066	
63.97044	1480.783		-26.40317	
64.02439	1479.368		-26.00169	
64.07834	1477.99		-25.58597	
64.13229	1476.645		-25.15567	
64.18624	1475.331		-24.71071	
64.2402	1474.041		-24.25076	
64.29414	1472.765		-23.77579	
64.34809	1471.491		-23.28557	
64.40205	1470.212		-22.77981	
64.45599	1468.927		-22.25848	
64.50994	1467.635		-21.72127	
64.5639	1466.344		-21.16784	
64.61784	1465.059		-20.59811	
64.6718	1463.785		-20.01163	
64.72575	1462.524		-19.40829	
64.77969	1461.276		-18.78768	
64.83365	1460.043		-18.14932	
64.8876	1458.831		-17.49301	
64.94154	1457.649		-16.81812	
64.9955	1456.506		-16.124	
65.04945	1455.405		-15.41021	
65.1034	1454.344		-14.67581	
65.15735	1453.318		-13.92026	
65.2113	1452.323		-13.14264	
65.26525	1451.357		-12.34197	
65.3192	1450.421		-11.51766	
65.37315	1449.521		-10.66869	
65.4271	1448.665		-9.794041	
65.48105	1447.862		-8.893044	
65.535	1447.122		-7.964494	
65.58895	1446.452		-7.007757	
65.6429	1445.853		-6.021721	
65.69685	1445.325		-5.005307	
65.7508	1444.867		-3.957911	
65.80475	1444.476		-2.878428	
65.8587	1444.149		-1.765817	
65.91265	1443.883		-0.6195179	
65.96661	1443.673		0.5616674	
66.02055	1443.516		1.778177	
66.0745	1443.409		3.03102	
66.12846	1443.349		4.321137	
66.1824	1443.33		5.648829	
66.23635	1443.35		7.015012	
66.29031	1443.411		8.420522	
66.34425	1443.518		9.86558	
66.39821	1443.675		11.35122	
66.45216	1443.885		12.87757	
66.5061	1444.154		14.44548	
66.56006	1444.49		16.05574	
66.61401	1444.897		17.70841	
66.66795	1445.381		19.4043	
66.72191	1445.945		21.14414	
66.77586	1446.59		22.92797	
66.82981	1447.318		24.75682	
66.88376	1448.134		26.63072	
66.93771	1449.045		28.55051	
66.99166	1450.061		30.51709	
67.04561	1451.191		32.53056	
67.09956	1452.442		34.59188	
67.15351	1453.822		36.70203	
67.20746	1455.337		38.86115	
67.26141	1456.992		41.07052	
67.31536	1458.784		43.33021	
67.36931	1460.715		45.64121	
67.42326	1462.785		48.00449	
67.47721	1464.992		50.42003	
67.53116	1467.34		52.88876	
67.58511	1469.828		55.41164	
67.63906	1472.458		57.98851	
67.69302	1475.229		60.62062	
67.74696	1478.138		63.30768	
67.80091	1481.178		66.05043	
67.85487	1484.344		68.84959	
67.90881	1487.634		71.70461	
67.96276	1491.051		74.61606	
68.01672	1494.604		77.58443	
68.07066	1498.301		80.60887	
68.12462	1502.151		83.69011	
68.17857	1506.16		86.82705	
68.23251	1510.332		90.01983	
68.28647	1514.679		93.26851	
68.34042	1519.2		96.57168	
68.39436	1523.898		99.92922	
68.44832	1528.772		103.341	
68.50227	1533.828		106.8053	
68.55622	1539.07		110.3223	
68.61017	1544.501		113.8903	
68.66412	1550.123		117.5087	
68.71807	1555.94		121.1771	
68.77202	1561.955		124.8935	
68.82597	1568.176		128.6572	
68.87992	1574.612		132.4677	
68.93387	1581.268		136.3226	
68.98782	1588.156		140.2218	
69.04177	1595.286		144.1627	
69.09572	1602.665		148.1446	
69.14967	1610.296		152.1665	
69.20362	1618.173		156.2257	
69.25757	1626.289		160.3209	
69.31152	1634.633		164.451	
69.36547	1643.202		168.6127	
69.41943	1651.999		172.8051	
69.47337	1661.024		177.0247	
69.52732	1670.286		181.2695	
69.58128	1679.795		185.5374	
69.63522	1689.558		189.8243	
69.68917	1699.58		194.1275	
69.74313	1709.865		198.444	
69.79707	1720.407		202.7688	
69.85103	1731.213		207.0989	
69.90498	1742.279		211.4283	
69.95892	1753.615		215.7529	
70.01288	1765.231		220.0677	
70.06683	1777.13		224.3658	
70.12077	1789.319		228.6418	
70.17473	1801.799		232.8895	
70.22868	1814.565		237.101	
70.28262	1827.615		241.2695	
70.33658	1840.943		245.3882	
70.39053	1854.544		249.448	
70.44448	1868.417		253.442	
70.49843	1882.562		257.3606	
70.55238	1896.978		261.1959	
70.60633	1911.666		264.9397	
70.66028	1926.611		268.5822	
70.71423	1941.81		272.1152	
70.76818	1957.26		275.5304	
70.82213	1972.959		278.8181	
70.87608	1988.907		281.9709	
70.93003	2005.097		284.9794	
70.98398	2021.526		287.836	
71.03793	2038.197		290.533	
71.09188	2055.109		293.0622	
71.14583	2072.27		295.4167	
71.19978	2089.682		297.59	
71.25373	2107.337		299.5752	
71.30769	2125.23		301.3669	
71.36163	2143.349		302.9592	
71.41558	2161.687		304.3478	
71.46954	2180.237		305.5285	
71.52348	2198.979		306.4974	
71.57743	2217.908		307.2517	
71.63139	2237.025		307.7892	
71.68533	2256.33		308.108	
71.73929	2275.826		308.207	
71.79324	2295.499		308.0857	
71.84718	2315.33		307.744	
71.90114	2335.297		307.1827	
71.95509	2355.364		306.4028	
72.00903	2375.504		305.406	
72.06299	2395.692		304.1941	
72.11694	2415.895		302.77	
72.17089	2436.088		301.1363	
72.22484	2456.223		299.2968	
72.27879	2476.253		297.2552	
72.33274	2496.127		295.0152	
72.38669	2515.791		292.582	
72.44064	2535.209		289.9603	
72.49459	2554.354		287.1546	
72.54854	2573.197		284.1714	
72.60249	2591.717		281.0154	
72.65644	2609.876		277.6935	
72.71039	2627.648		274.2115	
72.76434	2645.007		270.5757	
72.81829	2661.932		266.7937	
72.87224	2678.406		262.8723	
72.92619	2694.416		258.818	
72.98014	2709.942		254.6398	
73.0341	2724.976		250.3444	
73.08804	2739.5		245.9408	
73.14199	2753.506		241.4369	
73.19595	2766.993		236.8404	
73.24989	2779.964		232.1612	
73.30384	2792.428		227.4075	
73.3578	2804.405		222.5874	
73.41174	2815.909		217.7113	
73.4657	2826.96		212.7871	
73.51965	2837.563		207.8251	
73.57359	2847.727		202.8341	
73.62755	2857.46		197.8225	
73.6815	2866.773		192.8012	
73.73544	2875.674		187.7787	
73.7894	2884.183		182.7635	
73.84335	2892.32		177.7663	
73.8973	2900.11		172.7946	
73.95125	2907.57		167.8587	
74.0052	2914.718		162.9664	
74.05915	2921.57		158.1253	
74.1131	2928.138		153.3446	
74.16705	2934.44		148.6312	
74.221	2940.496		143.9915	
74.27495	2946.315		139.4335	
74.3289	2951.905		134.9621	
74.38285	2957.272		130.5844	
74.4368	2962.427		126.3049	
74.49075	2967.379		122.1276	
74.5447	2972.137		118.058	
74.59865	2976.703		114.099	
74.6526	2981.089		110.2528	
74.70655	2985.307		106.5231	
74.76051	2989.374		102.9106	
74.81445	2993.305		99.41761	
74.8684	2997.119		96.04433	
74.92236	3000.832		92.79047	
74.9763	3004.457		89.65659	
75.03025	3008.004		86.64139	
75.08421	3011.478		83.74319	
75.13815	3014.882		80.96119	
75.19211	3018.218		78.29257	
75.24606	3021.484		75.73575	
75.3	3024.674		73.28767	
75.35396	3027.786		70.94505	
75.40791	3030.815		68.70537	
75.46185	3033.768		66.56488	
75.51581	3036.661		64.51974	
75.56976	3039.51		62.56684	
75.62371	3042.325		60.70183	
75.67766	3045.106		58.92138	
75.73161	3047.848		57.22131	
75.78556	3050.542		55.59753	
75.83951	3053.179		54.04659	
75.89346	3055.75		52.56448	
75.94741	3058.256		51.14727	
76.00136	3060.7		49.79177	
76.05531	3063.079		48.49411	
76.10926	3065.388		47.25133	
76.16321	3067.631		46.06002	
76.21716	3069.811		44.917	
76.27111	3071.93		43.81969	
76.32506	3073.986		42.76524	
76.37901	3075.984		41.75095	
76.43296	3077.928		40.77468	
76.48692	3079.823		39.83392	
76.54086	3081.667		38.92682	
76.59481	3083.458		38.0513	
76.64877	3085.192		37.20546	
76.70271	3086.868		36.3879	
76.75666	3088.496		35.59702	
76.81062	3090.089		34.83137	
76.86456	3091.663		34.08995	
76.91852	3093.236		33.3714	
76.97247	3094.817		32.67484	
77.02641	3096.413		31.99915	
77.08037	3098.03		31.34326	
77.13432	3099.664		30.70641	
77.18826	3101.31		30.08763	
77.24222	3102.956		29.48598	
77.29617	3104.595		28.90079	
77.35012	3106.206		28.33112	
77.40407	3107.768		27.77637	
77.45802	3109.259		27.23576	
77.51197	3110.667		26.70856	
77.56592	3111.99		26.19427	
77.61987	3113.24		25.69222	
77.67382	3114.434		25.20173	
77.72777	3115.594		24.72235	
77.78172	3116.736		24.25336	
77.83567	3117.871		23.79428	
77.88962	3119		23.3445	
77.94357	3120.13		22.90339	
77.99752	3121.251		22.47059	
78.05147	3122.353		22.04559	
78.10542	3123.427		21.628	
78.15937	3124.468		21.21771	
78.21333	3125.467		20.81455	
78.26727	3126.414		20.41871	
78.32122	3127.306		20.03035	
78.37518	3128.15		19.64973	
78.42912	3128.957		19.27741	
78.48307	3129.751		18.91387	
78.53703	3130.562		18.55968	
78.59097	3131.406		18.21564	
78.64493	3132.292		17.88244	
78.69888	3133.219		17.56097	
78.75282	3134.185		17.25204	
78.80678	3135.186		16.9565	
78.86073	3136.216		16.67538	
78.91467	3137.259		16.40961	
78.96863	3138.297		16.16013	
79.02258	3139.31		15.92798	
79.07653	3140.284		15.71399	
79.13048	3141.203		15.51908	
79.18443	3142.066		15.34394	
79.23838	3142.881		15.18916	
79.29233	3143.664		15.05522	
79.34628	3144.433		14.94235	
79.40023	3145.201		14.85063	
79.45418	3145.979		14.78001	
79.50813	3146.763		14.73023	
79.56208	3147.538		14.70092	
79.61603	3148.285		14.69151	
79.66998	3148.987		14.70135	
79.72393	3149.635		14.72964	
79.77788	3150.225		14.77551	
79.83183	3150.751		14.83796	
79.88578	3151.219		14.91589	
79.93974	3151.637		15.00815	
79.99368	3152.015		15.11345	
80.04763	3152.367		15.23045	
80.10159	3152.709		15.35776	
80.15553	3153.048		15.49389	
80.20948	3153.392		15.63741	
80.26344	3153.751		15.7869	
80.31738	3154.132		15.94099	
80.37134	3154.528		16.09846	
80.42529	3154.929		16.25817	
80.47923	3155.33		16.4192	
80.53319	3155.729		16.58081	
80.58714	3156.132		16.74234	
80.64108	3156.547		16.90334	
80.69504	3156.985		17.06347	
80.74899	3157.466		17.22248	
80.80294	3158.02		17.38027	
80.85689	3158.674		17.53681	
80.91084	3159.447		17.69218	
80.96479	3160.348		17.84658	
81.01874	3161.379		18.00013	
81.07269	3162.535		18.15307	
81.12664	3163.799		18.30566	
81.18059	3165.148		18.45812	
81.23454	3166.556		18.6107	
81.28849	3167.988		18.76348	
81.34244	3169.426		18.9165	
81.39639	3170.863		19.06969	
81.45034	3172.31		19.22274	
81.50429	3173.786		19.37528	
81.55824	3175.307		19.52678	
81.61219	3176.879		19.67645	
81.66615	3178.503		19.82345	
81.72009	3180.18		19.96666	
81.77404	3181.898		20.10492	
81.828	3183.637		20.23693	
81.88194	3185.372		20.36128	
81.93589	3187.079		20.47654	
81.98985	3188.745		20.58124	
82.04379	3190.349		20.67381	
82.09775	3191.874		20.7527	
82.1517	3193.306		20.81625	
82.20564	3194.645		20.86279	
82.2596	3195.899		20.89056	
82.31355	3197.085		20.89781	
82.36749	3198.218		20.88277	
82.42145	3199.315		20.84375	
82.4754	3200.392		20.77914	
82.52934	3201.454		20.68747	
82.5833	3202.503		20.56737	
82.63725	3203.535		20.4177	
82.6912	3204.536		20.23743	
82.74515	3205.5		20.02585	
82.7991	3206.418		19.78238	
82.85305	3207.288		19.50665	
82.907	3208.107		19.19864	
82.96095	3208.888		18.85847	
83.0149	3209.659		18.4864	
83.06885	3210.449		18.08307	
83.1228	3211.281		17.64906	
83.17675	3212.171		17.18536	
83.2307	3213.122		16.69292	
83.28465	3214.131		16.1728	
83.3386	3215.189		15.62637	
83.39255	3216.281		15.0549	
83.4465	3217.398		14.45967	
83.50045	3218.53		13.84229	
83.55441	3219.662		13.20401	
83.60835	3220.773		12.54639	
83.6623	3221.861		11.87069	
83.71626	3222.933		11.17806	
83.7702	3223.999		10.46988	
83.82415	3225.065		9.747136	
83.87811	3226.131		9.010731	
83.93205	3227.192		8.261773	
83.98601	3228.241		7.500848	
84.03996	3229.261		6.728867	
84.0939	3230.238		5.946316	
84.14786	3231.153		5.15354	
84.20181	3231.985		4.351074	
84.25575	3232.718		3.53895	
84.30971	3233.339		2.717074	
84.36366	3233.845		1.885597	
84.41761	3234.241		1.04412	
84.47156	3234.534		0.192623	
84.52551	3234.735		-0.6693335	
84.57946	3234.859		-1.542265	
84.63341	3234.92		-2.426327	
84.68736	3234.924		-3.322052	
84.74131	3234.869		-4.229939	
84.79526	3234.743		-5.150066	
84.84921	3234.529		-6.082938	
84.90316	3234.212		-7.028441	
84.95711	3233.786		-7.986704	
85.01106	3233.246		-8.957721	
85.06501	3232.596		-9.940877	
85.11896	3231.838		-10.93582	
85.17291	3230.967		-11.94203	
85.22686	3229.992		-12.95842	
85.28082	3228.923		-13.9843	
85.33476	3227.772		-15.01829	
85.38871	3226.55		-16.0593	
85.44267	3225.272		-17.10612	
85.49661	3223.95		-18.15701	
85.55056	3222.591		-19.21063	
85.60452	3221.197		-20.26557	
85.65846	3219.772		-21.31992	
85.71242	3218.317		-22.37233	
85.76637	3216.833		-23.42083	
85.82031	3215.32		-24.46388	
85.87427	3213.783		-25.49995	
85.92822	3212.226		-26.52709	
85.98216	3210.656		-27.54385	
86.03612	3209.07		-28.54881	
86.09007	3207.474		-29.54027	
86.14402	3205.865		-30.51716	
86.19797	3204.242		-31.478	
86.25191	3202.593		-32.42189	
86.30587	3200.913		-33.34803	
86.35982	3199.2		-34.25533	
86.41376	3197.459		-35.1432	
86.46772	3195.691		-36.01115	
86.52167	3193.899		-36.85847	
86.57562	3192.077		-37.68502	
86.62957	3190.216		-38.4903	
86.68352	3188.296		-39.27423	
86.73747	3186.294		-40.03683	
86.79142	3184.183		-40.77782	
86.84537	3181.946		-41.49733	
86.89932	3179.578		-42.19555	
86.95327	3177.094		-42.87245	
87.00723	3174.507		-43.52845	
87.06117	3171.839		-44.16367	
87.11512	3169.097		-44.77851	
87.16908	3166.293		-45.37342	
87.22302	3163.445		-45.94863	
87.27697	3160.572		-46.50463	
87.33092	3157.683		-47.04195	
87.38487	3154.782		-47.56081	
87.43883	3151.857		-48.06177	
87.49277	3148.904		-48.54508	
87.54672	3145.915		-49.0112	
87.60068	3142.896		-49.46054	
87.65462	3139.846		-49.89333	
87.70857	3136.771		-50.30991	
87.76253	3133.665		-50.71064	
87.81647	3130.533		-51.0957	
87.87043	3127.38		-51.46554	
87.92438	3124.222		-51.8204	
87.97832	3121.075		-52.16077	
88.03228	3117.954		-52.48713	
88.08623	3114.87		-52.79992	
88.14017	3111.819		-53.09973	
88.19413	3108.79		-53.38719	
88.24808	3105.766		-53.66281	
88.30203	3102.725		-53.92729	
88.35598	3099.646		-54.18115	
88.40993	3096.519		-54.42502	
88.46388	3093.341		-54.65953	
88.51783	3090.128		-54.8852	
88.57178	3086.898		-55.10265	
88.62573	3083.671		-55.31248	
88.67968	3080.458		-55.51517	
88.73363	3077.275		-55.71128	
88.78758	3074.126		-55.90123	
88.84153	3071.013		-56.08552	
88.89548	3067.928		-56.26461	
88.94943	3064.873		-56.43889	
89.00338	3061.844		-56.60878	
89.05733	3058.83		-56.77466	
89.11128	3055.819		-56.93681	
89.16524	3052.814		-57.09554	
89.21918	3049.819		-57.25109	
89.27313	3046.848		-57.40376	
89.32709	3043.914		-57.55384	
89.38103	3041.038		-57.70163	
89.43498	3038.219		-57.84753	
89.48894	3035.456		-57.99195	
89.54288	3032.736		-58.13523	
89.59684	3030.045		-58.27777	
89.65079	3027.369		-58.41985	
89.70473	3024.688		-58.56176	
89.75869	3021.971		-58.70379	
89.81264	3019.196		-58.8461	
89.86658	3016.34		-58.98887	
89.92054	3013.404		-59.13228	
89.97449	3010.394		-59.27641	
90.02844	3007.328		-59.42141	
90.08239	3004.214		-59.56737	
90.13634	3001.065		-59.71441	
90.19029	2997.89		-59.86262	
90.24424	2994.702		-60.012	
90.29819	2991.5		-60.16256	
90.35214	2988.281		-60.31425	
90.40609	2985.024		-60.46692	
90.46004	2981.713		-60.62047	
90.51399	2978.334		-60.77469	
90.56794	2974.88		-60.92936	
90.62189	2971.339		-61.0842	
90.67584	2967.717		-61.23878	
90.72979	2964.029		-61.39273	
90.78374	2960.297		-61.54564	
90.83769	2956.548		-61.69704	
90.89165	2952.813		-61.84653	
90.94559	2949.121		-61.99365	
90.99954	2945.492		-62.13798	
91.0535	2941.923		-62.27909	
91.10744	2938.406		-62.41641	
91.16139	2934.929		-62.5494	
91.21535	2931.473		-62.6775	
91.26929	2928.011		-62.80009	
91.32325	2924.525		-62.91666	
91.3772	2921.003		-63.02663	
91.43114	2917.443		-63.12949	
91.4851	2913.856		-63.22485	
91.53905	2910.261		-63.31233	
91.59299	2906.678		-63.39172	
91.64695	2903.132		-63.46292	
91.7009	2899.641		-63.52591	
91.75485	2896.203		-63.58081	
91.8088	2892.808		-63.62785	
91.86275	2889.436		-63.66731	
91.9167	2886.071		-63.69958	
91.97065	2882.694		-63.72504	
92.0246	2879.292		-63.7441	
92.07855	2875.856		-63.7572	
92.1325	2872.382		-63.76479	
92.18645	2868.865		-63.7673	
92.2404	2865.314		-63.76519	
92.29435	2861.733		-63.75891	
92.3483	2858.143		-63.74896	
92.40225	2854.559		-63.73586	
92.4562	2850.997		-63.72619	
92.51015	2847.465		-63.7213	
92.5641	2843.974		-63.71966	
92.61806	2840.521		-63.71989	
92.672	2837.11		-63.72101	
92.72595	2833.726		-63.72237	
92.77991	2830.364		-63.72358	
92.83385	2827.011		-63.72446	
92.8878	2823.673		-63.72489	
92.94176	2820.348		-63.72486	
92.9957	2817.043		-63.7244	
93.04966	2813.75		-63.72355	
93.10361	2810.472		-63.72237	
93.15755	2807.213		-63.72091	
93.21151	2803.983		-63.71926	
93.26546	2800.782		-63.71748	
93.3194	2797.61		-63.71563	
93.37336	2794.447		-63.71378	
93.42731	2791.283		-63.71201	
93.48126	2788.094		-63.71035	
93.53521	2784.865		-63.70887	
93.58916	2781.583		-63.70763	
93.64311	2778.242		-63.70668	
93.69706	2774.85		-63.70608	
93.75101	2771.418		-63.70586	
93.80496	2767.941		-63.7061	
93.85891	2764.423		-63.70682	
93.91286	2760.872		-63.70809	
93.96681	2757.314		-63.70993	
94.02076	2753.762		-63.71239	
94.07471	2750.235		-63.71552	
94.12866	2746.67		-63.71934	
94.18261	2743.055		-63.72388	
94.23656	2739.402		-63.72918	
94.29051	2735.725		-63.73524	
94.34447	2732.031		-63.74208	
94.39841	2728.326		-63.74972	
94.45236	2724.616		-63.75816	
94.50632	2720.904		-63.76742	
94.56026	2717.191		-63.77748	
94.61421	2713.481		-63.78836	
94.66817	2709.774		-63.80005	
94.72211	2706.071		-63.81254	
94.77607	2702.373		-63.82582	
94.83002	2698.681		-63.83987	
94.88396	2694.994		-63.8547	
94.93792	2691.31		-63.87027	
94.99187	2687.626		-63.88657	
