T[Â°C]	330nm [counts / mm]	S.D.	First derivative	S.D. of first derivative
20.00115	3427.335	25.2613	-49.99854	1.309967
20.0551	3424.589	25.09998	-49.9481	1.296157
20.10905	3421.844	24.94038	-49.89798	1.282877
20.16299	3419.102	24.7827	-49.84818	1.270103
20.21694	3416.36	24.62775	-49.79871	1.257817
20.27089	3413.621	24.47589	-49.74959	1.245988
20.32484	3410.881	24.32779	-49.70082	1.23459
20.37879	3408.143	24.18405	-49.65241	1.223589
20.43274	3405.406	24.04493	-49.60437	1.212959
20.48668	3402.669	23.91112	-49.55671	1.202664
20.54063	3399.934	23.78287	-49.50944	1.192671
20.59458	3397.2	23.65987	-49.46256	1.182942
20.64853	3394.469	23.54187	-49.41608	1.173445
20.70248	3391.739	23.42775	-49.37	1.164145
20.75643	3389.011	23.31548	-49.32431	1.155006
20.81037	3386.284	23.20267	-49.27903	1.145992
20.86432	3383.559	23.08554	-49.23413	1.137065
20.91827	3380.836	22.95953	-49.18964	1.128197
20.97222	3378.122	22.81971	-49.14552	1.119349
21.02617	3375.444	22.74683	-49.10177	1.110489
21.08011	3372.769	22.68328	-49.05839	1.101585
21.13406	3370.093	22.63543	-49.01534	1.092607
21.18801	3367.42	22.60784	-48.97262	1.083524
21.24196	3364.756	22.60311	-48.9302	1.074307
21.29591	3362.108	22.62155	-48.88806	1.064931
21.34986	3359.479	22.66053	-48.84617	1.055372
21.4038	3356.867	22.71408	-48.80451	1.045607
21.45775	3354.276	22.77395	-48.76305	1.035612
21.5117	3351.708	22.82789	-48.72175	1.025373
21.56565	3349.16	22.86049	-48.68059	1.014861
21.6196	3346.631	22.86388	-48.63953	1.004065
21.67354	3344.116	22.84357	-48.59853	0.9929646
21.72749	3341.61	22.80937	-48.55756	0.981548
21.78144	3339.107	22.76934	-48.51657	0.9698024
21.83539	3336.6	22.72587	-48.47552	0.9577274
21.88934	3334.081	22.67785	-48.43437	0.9453161
21.94328	3331.548	22.62502	-48.39308	0.932574
21.99723	3329.004	22.56958	-48.3516	0.9195111
22.05118	3326.451	22.50991	-48.3099	0.906141
22.10513	3323.893	22.4419	-48.26791	0.892482
22.15908	3321.332	22.36383	-48.22562	0.8785696
22.21303	3318.77	22.2754	-48.18297	0.8644497
22.26698	3316.208	22.17538	-48.13996	0.8501808
22.32092	3313.645	22.06504	-48.09661	0.8358539
22.37487	3311.08	21.94975	-48.05302	0.8215985
22.42882	3308.513	21.83599	-48.0094	0.8075848
22.48277	3305.94	21.72507	-47.96611	0.7940431
22.53672	3303.362	21.61663	-47.92373	0.7812796
22.59066	3300.777	21.51169	-47.88297	0.7696566
22.64461	3298.187	21.41162	-47.8521	0.744772
22.69856	3295.596	21.31789	-47.82183	0.7194549
22.75251	3293.002	21.2292	-47.79217	0.6937343
22.80646	3290.406	21.144	-47.76317	0.6676466
22.8604	3287.812	21.06505	-47.73487	0.6412599
22.91435	3285.226	20.99678	-47.70733	0.6146749
22.9683	3282.646	20.94112	-47.68058	0.5880328
23.02225	3280.068	20.89507	-47.65468	0.5614979
23.0762	3277.489	20.85573	-47.62963	0.5352746
23.13015	3274.907	20.82075	-47.60546	0.5096036
23.18409	3272.322	20.78621	-47.58215	0.4847646
23.23804	3269.734	20.74662	-47.55966	0.4610653
23.29199	3267.141	20.69964	-47.53791	0.43883
23.34594	3264.541	20.64655	-47.51678	0.4183899
23.39989	3261.936	20.59105	-47.4961	0.4000774
23.45383	3259.329	20.54117	-47.47567	0.3842089
23.50778	3256.72	20.49957	-47.45524	0.3710432
23.56173	3254.11	20.46395	-47.43454	0.360781
23.61568	3251.501	20.4349	-47.41329	0.3535385
23.66963	3248.897	20.41459	-47.3912	0.3493506
23.72358	3246.301	20.40343	-47.36801	0.3481603
23.77752	3243.715	20.39846	-47.34351	0.3498192
23.83147	3241.14	20.39573	-47.31751	0.3541217
23.88542	3238.577	20.39219	-47.28986	0.3608238
23.93937	3236.025	20.38572	-47.26044	0.3696742
23.99332	3233.479	20.37693	-47.22918	0.3804079
24.04727	3230.929	20.36874	-47.19604	0.3927611
24.10121	3228.37	20.36703	-47.16103	0.4064517
24.15516	3225.803	20.38033	-47.12421	0.4211938
24.20911	3223.23	20.41346	-47.08567	0.4366837
24.26306	3220.653	20.46549	-47.04555	0.452605
24.31701	3218.078	20.53487	-47.00396	0.4686191
24.37095	3215.51	20.62073	-46.96106	0.4843762
24.4249	3212.956	20.72537	-46.91698	0.4994905
24.47885	3210.419	20.85044	-46.8719	0.5135568
24.5328	3207.901	20.99433	-46.82599	0.5261665
24.58675	3205.4	21.15367	-46.77943	0.5368962
24.6407	3202.915	21.32493	-46.73237	0.5453265
24.69464	3200.442	21.50383	-46.68498	0.5510466
24.74859	3197.973	21.68074	-46.63741	0.5537037
24.80254	3195.504	21.8441	-46.58979	0.5530106
24.85649	3193.033	21.98664	-46.54229	0.5487506
24.91044	3190.555	22.1063	-46.49507	0.5407793
24.96439	3188.066	22.2026	-46.44828	0.5290313
25.01833	3185.563	22.27822	-46.40207	0.513537
25.07228	3183.049	22.33818	-46.3566	0.4944052
25.12623	3180.526	22.38647	-46.31203	0.4718354
25.18018	3178.003	22.42709	-46.26855	0.446115
25.23413	3175.482	22.46227	-46.2263	0.4176125
25.28807	3172.968	22.49358	-46.18544	0.3867645
25.34202	3170.464	22.51646	-46.14613	0.3540696
25.39597	3167.971	22.52206	-46.10846	0.3200782
25.44992	3165.487	22.50062	-46.07249	0.2854143
25.50387	3163.009	22.44175	-46.03824	0.2507781
25.55782	3160.535	22.34149	-46.00562	0.21699
25.61176	3158.06	22.20641	-45.97453	0.1850812
25.66571	3155.578	22.04828	-45.94477	0.1564412
25.71966	3153.089	21.87945	-45.91613	0.1330285
25.77361	3150.593	21.71285	-45.88837	0.1173978
25.82756	3148.09	21.56225	-45.86121	0.1118917
25.8815	3145.585	21.43719	-45.83441	0.1168704
25.93545	3143.084	21.34102	-45.80774	0.1301332
25.9894	3140.594	21.27155	-45.78101	0.1486227
26.04335	3138.123	21.22248	-45.75404	0.1699332
26.0973	3135.681	21.19063	-45.72674	0.1925653
26.15125	3133.273	21.17473	-45.69906	0.2156514
26.20519	3130.9	21.17163	-45.67101	0.2387206
26.25914	3128.557	21.17722	-45.6426	0.261508
26.31309	3126.234	21.18586	-45.6139	0.2838505
26.36704	3123.917	21.19215	-45.58496	0.3056485
26.42099	3121.594	21.19282	-45.55586	0.3268155
26.47494	3119.254	21.1893	-45.5267	0.3472877
26.52888	3116.894	21.18212	-45.49757	0.3669995
26.58283	3114.51	21.17165	-45.46861	0.3858951
26.63678	3112.101	21.16257	-45.43991	0.403908
26.69073	3109.668	21.1578	-45.4116	0.4209664
26.74468	3107.211	21.15087	-45.38378	0.4369726
26.79862	3104.738	21.13343	-45.35656	0.4518257
26.85257	3102.26	21.10251	-45.33002	0.4654347
26.90652	3099.786	21.05788	-45.30423	0.4777175
26.96047	3097.319	20.99961	-45.27925	0.4886385
27.01442	3094.854	20.92942	-45.25514	0.4981872
27.06837	3092.382	20.85055	-45.2319	0.5064025
27.12231	3089.895	20.76627	-45.20954	0.5133691
27.17626	3087.388	20.67752	-45.18806	0.5192279
27.23021	3084.86	20.58578	-45.16746	0.5241685
27.28416	3082.315	20.49613	-45.14772	0.5284328
27.33811	3079.755	20.41589	-45.12882	0.5322866
27.39205	3077.185	20.35302	-45.11073	0.5360133
27.446	3074.609	20.31202	-45.09339	0.539891
27.49995	3072.037	20.29179	-45.07671	0.5441622
27.5539	3069.479	20.29374	-45.06057	0.5490094
27.60785	3066.947	20.32042	-45.04485	0.5545461
27.66179	3064.448	20.36822	-45.02939	0.5608099
27.71574	3061.989	20.43241	-45.01401	0.5677432
27.76969	3059.57	20.50833	-44.99849	0.5752265
27.82364	3057.186	20.59253	-44.98259	0.5830852
27.87759	3054.828	20.68015	-44.96605	0.591122
27.93154	3052.485	20.7672	-44.9486	0.5991563
27.98549	3050.149	20.84747	-44.92997	0.6070364
28.03943	3047.812	20.91312	-44.90991	0.6146628
28.09338	3045.471	20.95937	-44.88818	0.6220046
28.14733	3043.125	20.98677	-44.86459	0.6290967
28.20128	3040.774	20.99722	-44.83898	0.6360132
28.25523	3038.422	20.99239	-44.81121	0.6428578
28.30917	3036.071	20.97165	-44.78123	0.6497482
28.36312	3033.721	20.9338	-44.749	0.6568137
28.41707	3031.369	20.87953	-44.71453	0.6641732
28.47102	3029.011	20.80985	-44.67791	0.6719554
28.52497	3026.648	20.72448	-44.63929	0.6802856
28.57891	3024.28	20.62648	-44.59887	0.689288
28.63286	3021.904	20.5224	-44.55691	0.6990925
28.68681	3019.511	20.41831	-44.51368	0.7098131
28.74076	3017.098	20.31701	-44.46949	0.7215332
28.79471	3014.661	20.21985	-44.42464	0.7342909
28.84866	3012.208	20.12623	-44.37944	0.7480587
28.90261	3009.747	20.03316	-44.33415	0.7627437
28.95655	3007.288	19.93805	-44.28907	0.7781849
29.0105	3004.835	19.84155	-44.24446	0.7941595
29.06445	3002.388	19.74352	-44.20057	0.8103748
29.1184	2999.949	19.64592	-44.15761	0.8264736
29.17235	2997.518	19.55121	-44.11579	0.8420552
29.22629	2995.095	19.46831	-44.07528	0.8566843
29.28024	2992.679	19.40832	-44.03622	0.8698897
29.33419	2990.268	19.3751	-43.99875	0.8812214
29.38814	2987.857	19.36801	-43.96294	0.8902408
29.44209	2985.447	19.37967	-43.92883	0.8965605
29.49603	2983.035	19.40044	-43.89641	0.8998522
29.54998	2980.62	19.42012	-43.86564	0.8998673
29.60393	2978.206	19.42732	-43.83646	0.8964281
29.65788	2975.799	19.41396	-43.80878	0.8894451
29.71183	2973.403	19.37641	-43.78251	0.8788998
29.76578	2971.023	19.31516	-43.75753	0.8648221
29.81972	2968.658	19.23224	-43.7337	0.8472817
29.87367	2966.31	19.13441	-43.71085	0.8263779
29.92762	2963.979	19.03036	-43.68874	0.8022491
29.98157	2961.668	18.92713	-43.66716	0.7750739
30.03552	2959.374	18.82807	-43.64584	0.7450649
30.08946	2957.094	18.73485	-43.62455	0.7124612
30.14341	2954.818	18.64726	-43.60302	0.6775247
30.19736	2952.539	18.5627	-43.58097	0.6405087
30.25131	2950.256	18.47938	-43.55817	0.6016521
30.30526	2947.969	18.39814	-43.53437	0.5611801
30.35921	2945.68	18.32232	-43.50936	0.5192895
30.41315	2943.39	18.25637	-43.483	0.4761554
30.4671	2941.098	18.20129	-43.45522	0.4319198
30.52105	2938.805	18.1568	-43.42598	0.3867117
30.575	2936.512	18.12113	-43.39535	0.3406483
30.62895	2934.216	18.09227	-43.36345	0.2938676
30.6829	2931.916	18.0709	-43.33044	0.2465422
30.73684	2929.607	18.06067	-43.29654	0.19888
30.79079	2927.292	18.06546	-43.262	0.1511241
30.84474	2924.976	18.08812	-43.22705	0.1035533
30.89869	2922.663	18.13134	-43.19197	0.0564976
30.95264	2920.355	18.19861	-43.157	0.01112986
31.00658	2918.048	18.28758	-43.12239	0.03576416
31.06053	2915.732	18.39105	-43.0884	0.07940375
31.11448	2913.405	18.49618	-43.05523	0.1214439
31.16843	2911.066	18.59031	-43.02306	0.1614937
31.22238	2908.718	18.66162	-42.99208	0.1992911
31.27633	2906.359	18.70034	-42.96241	0.2346481
31.33027	2903.99	18.70145	-42.93416	0.2674522
31.38422	2901.619	18.66702	-42.90744	0.2976671
31.43817	2899.251	18.60792	-42.88229	0.3253027
31.49212	2896.886	18.53647	-42.85873	0.3504094
31.54607	2894.522	18.46477	-42.83672	0.3730468
31.60001	2892.164	18.40354	-42.81618	0.3932976
31.65396	2889.813	18.3636	-42.797	0.4112276
31.70791	2887.467	18.3525	-42.77903	0.4268914
31.76186	2885.126	18.37259	-42.7621	0.4403394
31.81581	2882.784	18.42159	-42.74599	0.4516178
31.86975	2880.439	18.49329	-42.73051	0.4607626
31.9237	2878.091	18.58311	-42.71546	0.4678005
31.97765	2875.744	18.68946	-42.70062	0.4727409
32.0316	2873.399	18.81112	-42.6858	0.4755612
32.08555	2871.058	18.94407	-42.67081	0.4762174
32.1395	2868.721	19.07965	-42.65544	0.4746706
32.19344	2866.388	19.20934	-42.63949	0.4708835
32.24739	2864.062	19.32783	-42.62277	0.4648643
32.30134	2861.745	19.43304	-42.60508	0.4566222
32.35529	2859.439	19.52897	-42.58628	0.4461934
32.40924	2857.149	19.62349	-42.56625	0.4336164
32.46318	2854.882	19.72255	-42.54489	0.418942
32.51714	2852.643	19.82736	-42.52217	0.4022309
32.57108	2850.431	19.93493	-42.49804	0.3835573
32.62503	2848.24	20.03788	-42.47252	0.3630039
32.67898	2846.063	20.13053	-42.44562	0.3406608
32.73293	2843.891	20.20667	-42.4174	0.3166373
32.78688	2841.714	20.2584	-42.38797	0.2910358
32.84082	2839.525	20.27979	-42.35746	0.2639562
32.89477	2837.317	20.26474	-42.32607	0.2354786
32.94872	2835.087	20.20827	-42.29398	0.2056582
33.00267	2832.835	20.11132	-42.26142	0.1745458
33.05662	2830.565	19.98107	-42.22858	0.1421958
33.11057	2828.284	19.83055	-42.19568	0.1086548
33.16451	2825.998	19.67248	-42.16293	0.07399453
33.21846	2823.707	19.51677	-42.13051	0.03849957
33.27241	2821.408	19.37266	-42.09863	0.009577476
33.32636	2819.103	19.24641	-42.06747	0.03968739
33.38031	2816.792	19.14419	-42.03727	0.07870343
33.43425	2814.475	19.06766	-42.00822	0.1190763
33.4882	2812.148	19.01454	-41.98047	0.1603282
33.54215	2809.814	18.97859	-41.95416	0.20214
33.5961	2807.48	18.95625	-41.92935	0.2441882
33.65005	2805.15	18.94692	-41.90607	0.2861417
33.70399	2802.824	18.94954	-41.8843	0.3276582
33.75794	2800.501	18.96282	-41.86399	0.3683923
33.81189	2798.178	18.98188	-41.84505	0.408007
33.86584	2795.858	19.00377	-41.82741	0.4461775
33.91979	2793.543	19.03039	-41.81097	0.482619
33.97374	2791.238	19.06672	-41.79564	0.5170958
34.02768	2788.947	19.11607	-41.78129	0.5494092
34.08163	2786.678	19.17661	-41.7678	0.579399
34.13558	2784.433	19.2443	-41.755	0.6069349
34.18953	2782.217	19.31464	-41.74273	0.6319215
34.24348	2780.028	19.38084	-41.7308	0.6543026
34.29742	2777.865	19.43599	-41.71903	0.6740537
34.35137	2775.72	19.47586	-41.70722	0.6911824
34.40532	2773.584	19.50118	-41.69519	0.7057371
34.45927	2771.447	19.51119	-41.68274	0.7178091
34.51322	2769.294	19.50152	-41.66974	0.7275054
34.56717	2767.118	19.4652	-41.65601	0.734935
34.62111	2764.917	19.39904	-41.64141	0.7401912
34.67506	2762.694	19.30688	-41.62582	0.7433465
34.72901	2760.459	19.19794	-41.60912	0.744469
34.78296	2758.222	19.08737	-41.59125	0.7436033
34.83691	2755.987	18.98539	-41.57217	0.7408053
34.89085	2753.755	18.89132	-41.55187	0.736121
34.94481	2751.523	18.8011	-41.53037	0.7295802
34.99875	2749.288	18.71169	-41.50771	0.7212005
35.0527	2747.051	18.61969	-41.48391	0.7109947
35.10665	2744.81	18.52061	-41.45901	0.6989888
35.16059	2742.565	18.40866	-41.43304	0.6852375
35.21455	2740.316	18.2825	-41.40603	0.6698233
35.26849	2738.066	18.14607	-41.37806	0.6528626
35.32244	2735.813	18.00975	-41.3492	0.6344895
35.37639	2733.556	17.88175	-41.31953	0.614857
35.43034	2731.291	17.76795	-41.28917	0.594116
35.48429	2729.017	17.67409	-41.25818	0.572421
35.53823	2726.736	17.60563	-41.22668	0.5499045
35.59218	2724.453	17.56714	-41.19476	0.5266837
35.64613	2722.173	17.55892	-41.16249	0.5028622
35.70008	2719.901	17.57562	-41.12999	0.4785106
35.75403	2717.644	17.60681	-41.09734	0.4536849
35.80798	2715.406	17.64262	-41.06465	0.4284291
35.86192	2713.187	17.67635	-41.032	0.4027796
35.91587	2710.983	17.70507	-40.99947	0.3767808
35.96982	2708.784	17.7315	-40.96714	0.3504869
36.02377	2706.583	17.75785	-40.93505	0.3239482
36.07772	2704.374	17.78556	-40.90321	0.2972262
36.13166	2702.151	17.81299	-40.87164	0.2703978
36.18561	2699.916	17.83498	-40.84031	0.243592
36.23956	2697.671	17.84645	-40.80922	0.2169954
36.29351	2695.425	17.84422	-40.7783	0.1908778
36.34746	2693.181	17.83055	-40.7475	0.1656213
36.40141	2690.943	17.81151	-40.71675	0.1417811
36.45535	2688.71	17.79034	-40.68599	0.1201692
36.5093	2686.483	17.76556	-40.65516	0.1019766
36.56325	2684.261	17.73447	-40.6242	0.08881605
36.6172	2682.047	17.69591	-40.59307	0.08234671
36.67115	2679.84	17.64971	-40.56176	0.08319575
36.72509	2677.642	17.59708	-40.5303	0.09020462
36.77904	2675.453	17.54046	-40.49868	0.1012059
36.83299	2673.274	17.48251	-40.46697	0.1142683
36.88694	2671.105	17.42932	-40.43522	0.1280959
36.94089	2668.947	17.38821	-40.40351	0.1419546
36.99483	2666.797	17.36645	-40.37193	0.1554701
37.04878	2664.65	17.36763	-40.34056	0.168499
37.10273	2662.501	17.39088	-40.30949	0.181014
37.15668	2660.348	17.43456	-40.27884	0.1930547
37.21063	2658.191	17.49727	-40.2487	0.2046859
37.26458	2656.034	17.57977	-40.2192	0.2159662
37.31852	2653.882	17.68136	-40.19044	0.2269268
37.37247	2651.738	17.79674	-40.16253	0.2375576
37.42642	2649.601	17.91872	-40.13558	0.2478352
37.48037	2647.471	18.04599	-40.10969	0.2576815
37.53432	2645.35	18.18217	-40.08497	0.2669983
37.58826	2643.239	18.3293	-40.06153	0.2756742
37.64222	2641.138	18.48244	-40.0395	0.2835909
37.69616	2639.049	18.6343	-40.01896	0.29065
37.75011	2636.97	18.77695	-40.00004	0.2967822
37.80406	2634.9	18.90129	-39.98281	0.3019693
37.85801	2632.831	18.99604	-39.96735	0.3062457
37.91196	2630.756	19.05429	-39.95367	0.3096808
37.9659	2628.667	19.07262	-39.94178	0.3123883
38.01985	2626.561	19.05366	-39.93168	0.3145241
38.0738	2624.437	19.00594	-39.92336	0.3162543
38.12775	2622.294	18.93638	-39.91674	0.3177417
38.18169	2620.134	18.85177	-39.91177	0.3191299
38.23565	2617.96	18.75861	-39.90832	0.3205338
38.28959	2615.779	18.66219	-39.90626	0.3220363
38.34354	2613.592	18.56157	-39.90544	0.3236791
38.39749	2611.403	18.45526	-39.90565	0.3254653
38.45144	2609.217	18.34131	-39.9067	0.3273748
38.50539	2607.04	18.21627	-39.90837	0.329376
38.55933	2604.875	18.08059	-39.91043	0.3314569
38.61328	2602.72	17.94191	-39.91269	0.3336128
38.66723	2600.574	17.80903	-39.91493	0.3358591
38.72118	2598.432	17.68621	-39.91697	0.3382398
38.77513	2596.291	17.57342	-39.91859	0.3408221
38.82907	2594.144	17.46992	-39.91963	0.3436882
38.88302	2591.99	17.37706	-39.91987	0.3469289
38.93697	2589.83	17.29706	-39.91912	0.350636
38.99092	2587.668	17.23241	-39.9172	0.3548777
39.04487	2585.507	17.18324	-39.91395	0.3596974
39.09882	2583.348	17.14798	-39.9092	0.3650999
39.15276	2581.196	17.12526	-39.90283	0.3710555
39.20671	2579.05	17.11223	-39.89473	0.3774887
39.26066	2576.911	17.10584	-39.88479	0.3842591
39.31461	2574.781	17.10476	-39.87293	0.3911709
39.36856	2572.66	17.1062	-39.85909	0.3979828
39.4225	2570.544	17.10693	-39.84322	0.4044027
39.47645	2568.422	17.10751	-39.82528	0.4101316
39.5304	2566.289	17.10773	-39.80527	0.4148653
39.58435	2564.141	17.10523	-39.7832	0.4183491
39.6383	2561.977	17.09794	-39.75906	0.4203573
39.69225	2559.799	17.08556	-39.7329	0.4207274
39.74619	2557.613	17.06863	-39.70474	0.4193645
39.80014	2555.418	17.04809	-39.67463	0.4162565
39.85409	2553.213	17.02751	-39.64262	0.4114402
39.90804	2550.996	17.0078	-39.60876	0.4050195
39.96199	2548.764	16.98871	-39.57313	0.3971451
40.01593	2546.52	16.9704	-39.53581	0.3880104
40.06988	2544.267	16.95129	-39.49693	0.3778454
40.12383	2542.008	16.92709	-39.45661	0.3669011
40.17778	2539.75	16.89714	-39.41499	0.3554485
40.23173	2537.504	16.86837	-39.37218	0.3437907
40.28568	2535.272	16.84656	-39.32829	0.3322669
40.33962	2533.055	16.83517	-39.28338	0.3212249
40.39357	2530.853	16.83901	-39.23753	0.31103
40.44752	2528.671	16.85821	-39.19077	0.302038
40.50147	2526.511	16.88704	-39.14314	0.2945715
40.55542	2524.367	16.91865	-39.09471	0.2889136
40.60936	2522.235	16.95107	-39.04552	0.2852508
40.66331	2520.118	16.98555	-38.99562	0.2836456
40.71726	2518.019	17.02419	-38.94508	0.2840457
40.77121	2515.943	17.06828	-38.89396	0.2862827
40.82516	2513.886	17.11607	-38.84233	0.2901019
40.8791	2511.846	17.16565	-38.79033	0.2952018
40.93306	2509.817	17.21755	-38.73806	0.3012598
40.987	2507.796	17.27228	-38.68569	0.3079563
41.04095	2505.779	17.32616	-38.63339	0.3150019
41.0949	2503.762	17.37164	-38.58133	0.3221405
41.14885	2501.746	17.40267	-38.52972	0.3291613
41.2028	2499.726	17.41577	-38.47875	0.3358943
41.25674	2497.703	17.40988	-38.42863	0.3422156
41.31069	2495.682	17.38523	-38.37957	0.3480477
41.36464	2493.667	17.34338	-38.33177	0.3533629
41.41859	2491.653	17.28782	-38.28543	0.3581803
41.47254	2489.637	17.22175	-38.24073	0.3625596
41.52649	2487.616	17.14914	-38.19785	0.366581
41.58043	2485.588	17.07262	-38.15693	0.3703472
41.63438	2483.554	16.99253	-38.1181	0.3739533
41.68833	2481.518	16.90828	-38.08146	0.3774774
41.74228	2479.479	16.8203	-38.04708	0.3809716
41.79623	2477.439	16.73181	-38.01501	0.3844656
41.85017	2475.402	16.64617	-37.9853	0.3879586
41.90412	2473.372	16.56731	-37.95796	0.3914415
41.95807	2471.352	16.50105	-37.93298	0.3948748
42.01202	2469.339	16.45422	-37.91038	0.3982116
42.06597	2467.33	16.4274	-37.89015	0.4014053
42.11992	2465.316	16.41508	-37.8723	0.4044142
42.17386	2463.299	16.41183	-37.85682	0.4071947
42.22781	2461.28	16.41461	-37.84367	0.4097251
42.28176	2459.262	16.41855	-37.83278	0.4119866
42.33571	2457.252	16.4202	-37.82401	0.4139696
42.38966	2455.251	16.42022	-37.81718	0.4156769
42.4436	2453.264	16.42066	-37.81211	0.4171188
42.49755	2451.289	16.42335	-37.80856	0.4183035
42.5515	2449.324	16.43314	-37.8063	0.4192396
42.60545	2447.36	16.45597	-37.80505	0.4199335
42.6594	2445.388	16.4979	-37.80455	0.4203904
42.71334	2443.409	16.5569	-37.80453	0.4205936
42.76729	2441.423	16.62344	-37.80476	0.4205331
42.82124	2439.431	16.68676	-37.80501	0.4202013
42.87519	2437.433	16.73966	-37.80508	0.4195958
42.92914	2435.43	16.78061	-37.8048	0.4187232
42.98309	2433.425	16.81166	-37.80402	0.4176078
43.03703	2431.412	16.83431	-37.80261	0.4162932
43.09098	2429.389	16.84548	-37.80046	0.4148361
43.14493	2427.353	16.84062	-37.79745	0.4133244
43.19888	2425.304	16.81607	-37.7935	0.4118727
43.25283	2423.245	16.76935	-37.78856	0.4106344
43.30677	2421.175	16.69911	-37.78257	0.4097742
43.36073	2419.093	16.60474	-37.77548	0.4094754
43.41467	2416.999	16.48696	-37.76727	0.4099163
43.46862	2414.891	16.35501	-37.75788	0.4112603
43.52257	2412.771	16.22141	-37.74732	0.4136446
43.57652	2410.642	16.0972	-37.73555	0.4171499
43.63047	2408.51	15.98915	-37.72255	0.4217801
43.68441	2406.379	15.89919	-37.70834	0.4274737
43.73836	2404.25	15.8273	-37.69293	0.4340992
43.79231	2402.122	15.77441	-37.67635	0.4414726
43.84626	2399.993	15.74002	-37.65862	0.4493645
43.90021	2397.866	15.72077	-37.63979	0.4575119
43.95415	2395.745	15.71546	-37.6199	0.4656378
44.0081	2393.633	15.72382	-37.59899	0.4734614
44.06205	2391.534	15.74345	-37.5771	0.4807156
44.116	2389.447	15.77111	-37.55432	0.487184
44.16995	2387.371	15.80839	-37.53074	0.4926899
44.2239	2385.302	15.85812	-37.50646	0.4971269
44.27784	2383.239	15.91968	-37.48157	0.5004498
44.33179	2381.184	15.98868	-37.45616	0.5026745
44.38574	2379.137	16.05985	-37.43031	0.5038554
44.43969	2377.1	16.12731	-37.40409	0.5040742
44.49364	2375.077	16.18579	-37.37754	0.5034165
44.54758	2373.067	16.23107	-37.35072	0.5019694
44.60153	2371.066	16.26379	-37.32366	0.4998047
44.65548	2369.067	16.28351	-37.29638	0.4969848
44.70943	2367.068	16.28835	-37.26894	0.4935489
44.76338	2365.07	16.2775	-37.24139	0.4895161
44.81733	2363.077	16.24811	-37.21381	0.4848779
44.87127	2361.093	16.19662	-37.18631	0.4796056
44.92522	2359.123	16.11912	-37.15899	0.4736611
44.97917	2357.166	16.01512	-37.13197	0.4669921
45.03312	2355.218	15.88603	-37.10534	0.4595648
45.08707	2353.275	15.73446	-37.07923	0.4513689
45.14101	2351.335	15.56492	-37.05372	0.4424064
45.19496	2349.395	15.3838	-37.02893	0.4327017
45.24891	2347.454	15.20129	-37.00497	0.4223067
45.30286	2345.509	15.02955	-36.98194	0.4113103
45.35681	2343.558	14.87525	-36.95992	0.3998381
45.41076	2341.597	14.74356	-36.93899	0.3880555
45.4647	2339.625	14.63834	-36.91919	0.3761568
45.51865	2337.644	14.56126	-36.90057	0.3643494
45.5726	2335.659	14.51454	-36.88315	0.3528587
45.62655	2333.677	14.49745	-36.86694	0.3418902
45.6805	2331.707	14.50638	-36.85193	0.3316341
45.73444	2329.753	14.53962	-36.8381	0.3222477
45.78839	2327.821	14.59468	-36.82543	0.3138379
45.84234	2325.908	14.66618	-36.81385	0.3064487
45.89629	2324.016	14.74778	-36.80328	0.3000524
45.95024	2322.139	14.83462	-36.79364	0.2945482
46.00418	2320.268	14.92092	-36.78483	0.2897815
46.05814	2318.396	14.99673	-36.77673	0.2855577
46.11208	2316.512	15.05434	-36.76925	0.2816479
46.16603	2314.613	15.09165	-36.76225	0.2778274
46.21998	2312.69	15.11244	-36.75561	0.2738914
46.27393	2310.741	15.11988	-36.7492	0.269673
46.32788	2308.765	15.11681	-36.74281	0.2650843
46.38182	2306.767	15.10728	-36.73629	0.2601025
46.43577	2304.754	15.09567	-36.72941	0.2547822
46.48972	2302.737	15.08605	-36.72199	0.2492281
46.54367	2300.725	15.08092	-36.71383	0.2435916
46.59762	2298.725	15.08014	-36.70473	0.238036
46.65157	2296.734	15.07788	-36.69451	0.2327158
46.70551	2294.747	15.06601	-36.68298	0.2277507
46.75946	2292.756	15.03889	-36.66999	0.2232205
46.81341	2290.756	14.99364	-36.65537	0.2191519
46.86736	2288.742	14.92921	-36.639	0.2155076
46.92131	2286.713	14.85088	-36.62077	0.2121999
46.97525	2284.668	14.76933	-36.60061	0.2090954
47.0292	2282.604	14.69839	-36.57844	0.2060341
47.08315	2280.524	14.65135	-36.55425	0.2028423
47.1371	2278.433	14.63655	-36.52803	0.199334
47.19105	2276.337	14.65466	-36.49982	0.1953215
47.245	2274.244	14.70377	-36.4697	0.1906351
47.29894	2272.161	14.7835	-36.43779	0.1851484
47.35289	2270.094	14.89099	-36.40422	0.1788122
47.40684	2268.042	15.01904	-36.36919	0.1716743
47.46079	2266.006	15.15661	-36.3329	0.1638993
47.51474	2263.983	15.29096	-36.29556	0.1558076
47.56868	2261.975	15.40647	-36.25738	0.1479283
47.62263	2259.979	15.4872	-36.21859	0.1410441
47.67658	2257.995	15.52344	-36.17939	0.1361692
47.73053	2256.019	15.51387	-36.14	0.1344731
47.78448	2254.047	15.46195	-36.10056	0.1370205
47.83842	2252.078	15.37315	-36.0612	0.1444317
47.89237	2250.113	15.2568	-36.02205	0.1567003
47.94632	2248.15	15.12782	-35.98318	0.1732862
48.00027	2246.188	15.00097	-35.94474	0.1933511
48.05422	2244.224	14.8887	-35.90683	0.2159904
48.10817	2242.26	14.79842	-35.86958	0.2403542
48.16211	2240.297	14.73175	-35.83309	0.2656741
48.21606	2238.34	14.68527	-35.79749	0.2912795
48.27001	2236.393	14.65103	-35.76285	0.3165962
48.32396	2234.458	14.62041	-35.72921	0.3411624
48.37791	2232.533	14.58549	-35.69661	0.3646205
48.43185	2230.616	14.53949	-35.66502	0.3866822
48.4858	2228.704	14.47603	-35.63443	0.4071226
48.53975	2226.796	14.39822	-35.60479	0.425766
48.5937	2224.892	14.31557	-35.57604	0.4424849
48.64765	2222.993	14.23724	-35.5481	0.4572092
48.7016	2221.103	14.17105	-35.52089	0.4699106
48.75554	2219.227	14.12565	-35.4943	0.4805656
48.80949	2217.368	14.10814	-35.46823	0.4891756
48.86344	2215.533	14.11918	-35.44258	0.4957598
48.91739	2213.724	14.15492	-35.41727	0.5003503
48.97134	2211.94	14.20958	-35.39224	0.5029861
49.02528	2210.178	14.27551	-35.36745	0.5037203
49.07924	2208.432	14.34693	-35.34288	0.5026104
49.13318	2206.694	14.41866	-35.31855	0.4997114
49.18713	2204.958	14.48427	-35.29446	0.4951013
49.24108	2203.22	14.5422	-35.27065	0.4888529
49.29502	2201.48	14.59094	-35.24717	0.4810402
49.34898	2199.735	14.62585	-35.22411	0.471726
49.40292	2197.984	14.64414	-35.20157	0.4609595
49.45687	2196.221	14.64778	-35.17968	0.4487937
49.51082	2194.441	14.64407	-35.15857	0.4352812
49.56477	2192.642	14.63857	-35.13836	0.4204643
49.61872	2190.819	14.63605	-35.11918	0.4043959
49.67266	2188.97	14.64328	-35.10118	0.3871137
49.72661	2187.092	14.66616	-35.08446	0.368657
49.78056	2185.187	14.70698	-35.06911	0.3490382
49.83451	2183.259	14.76388	-35.05517	0.3282588
49.88846	2181.312	14.83046	-35.04266	0.306308
49.94241	2179.345	14.89835	-35.03156	0.2831904
49.99635	2177.364	14.96166	-35.02182	0.258928
50.0503	2175.368	15.01705	-35.01337	0.2335818
50.10425	2173.357	15.06289	-35.00611	0.207302
50.1582	2171.327	15.09776	-34.99992	0.1803645
50.21215	2169.277	15.12288	-34.99465	0.1532697
50.26609	2167.212	15.14252	-34.99014	0.1269578
50.32004	2165.138	15.16403	-34.98622	0.1033117
50.37399	2163.069	15.19696	-34.98272	0.08605453
50.42794	2161.018	15.24726	-34.97944	0.08084406
50.48189	2158.992	15.3168	-34.97617	0.09083963
50.53584	2156.995	15.40392	-34.97266	0.1126577
50.58978	2155.023	15.50237	-34.96866	0.141197
50.64373	2153.075	15.60309	-34.96389	0.1732097
50.69768	2151.144	15.69639	-34.95806	0.2069573
50.75163	2149.225	15.77713	-34.9509	0.2414569
50.80558	2147.316	15.84427	-34.94214	0.2760823
50.85952	2145.42	15.89822	-34.93151	0.3104046
50.91347	2143.537	15.93901	-34.91876	0.3441034
50.96742	2141.671	15.9659	-34.90368	0.3769332
51.02137	2139.823	15.97673	-34.88606	0.4086939
51.07532	2137.992	15.96815	-34.86575	0.4392305
51.12926	2136.174	15.94105	-34.84262	0.4684245
51.18321	2134.364	15.90063	-34.81659	0.4961678
51.23716	2132.556	15.84978	-34.7876	0.5223717
51.29111	2130.746	15.79139	-34.75568	0.5469565
51.34506	2128.931	15.73005	-34.72088	0.5698527
51.39901	2127.106	15.66865	-34.68334	0.5910065
51.45295	2125.272	15.60538	-34.64323	0.6103557
51.5069	2123.427	15.53431	-34.60075	0.6278418
51.56085	2121.571	15.44708	-34.55617	0.6433926
51.6148	2119.7	15.33942	-34.50977	0.6569437
51.66875	2117.816	15.20755	-34.46188	0.6684341
51.72269	2115.924	15.05115	-34.41286	0.6778168
51.77665	2114.029	14.87756	-34.36309	0.6850622
51.83059	2112.138	14.69522	-34.31296	0.6901498
51.88454	2110.252	14.51144	-34.26285	0.6930552
51.93849	2108.374	14.32931	-34.21314	0.693751
51.99244	2106.504	14.15139	-34.16417	0.6922143
52.04639	2104.646	13.98083	-34.11626	0.688429
52.10033	2102.8	13.82125	-34.06973	0.6823675
52.15428	2100.961	13.67674	-34.02483	0.6740069
52.20823	2099.125	13.54883	-33.98183	0.6633204
52.26218	2097.287	13.43342	-33.94096	0.6503083
52.31613	2095.443	13.32456	-33.90243	0.6349865
52.37008	2093.596	13.21886	-33.86645	0.6173975
52.42402	2091.75	13.11736	-33.83318	0.5976101
52.47797	2089.91	13.02327	-33.80274	0.5757239
52.53192	2088.081	12.93877	-33.77524	0.5518767
52.58587	2086.269	12.86785	-33.75075	0.5262374
52.63982	2084.48	12.81771	-33.72933	0.4990029
52.69376	2082.717	12.79345	-33.711	0.4703811
52.74771	2080.978	12.79624	-33.69577	0.4406061
52.80166	2079.257	12.82358	-33.68362	0.4099288
52.85561	2077.546	12.86746	-33.67449	0.3786351
52.90956	2075.834	12.91941	-33.66829	0.3470374
52.9635	2074.112	12.97256	-33.66488	0.3154955
53.01745	2072.376	13.01813	-33.66403	0.2844085
53.0714	2070.627	13.05215	-33.66549	0.2542245
53.12535	2068.864	13.07627	-33.66898	0.2254549
53.1793	2067.086	13.09353	-33.67417	0.1986666
53.23325	2065.295	13.10534	-33.68075	0.174484
53.28719	2063.497	13.11679	-33.68842	0.1535125
53.34114	2061.694	13.13394	-33.6969	0.1362826
53.39509	2059.89	13.16206	-33.70593	0.1230573
53.44904	2058.091	13.20308	-33.71526	0.1136927
53.50299	2056.301	13.25594	-33.72467	0.1075433
53.55693	2054.518	13.32088	-33.73393	0.1035778
53.61088	2052.741	13.39526	-33.74284	0.1006258
53.66483	2050.967	13.472	-33.75122	0.09762161
53.71878	2049.192	13.54602	-33.7589	0.09370766
53.77273	2047.412	13.61436	-33.76572	0.08828267
53.82668	2045.622	13.67775	-33.77151	0.08097883
53.88062	2043.818	13.73793	-33.77614	0.07161664
53.93457	2042.001	13.79603	-33.77947	0.06017961
53.98852	2040.171	13.85014	-33.78139	0.04677647
54.04247	2038.333	13.90147	-33.78178	0.03167023
54.09642	2036.49	13.95665	-33.78058	0.01567997
54.15036	2034.645	14.0229	-33.77773	0.009358404
54.20432	2032.8	14.10393	-33.7732	0.02607031
54.25826	2030.957	14.19836	-33.76699	0.04633899
54.31221	2029.119	14.30127	-33.75912	0.06774306
54.36616	2027.288	14.4078	-33.74959	0.08988672
54.4201	2025.466	14.51328	-33.73844	0.1125831
54.47406	2023.65	14.61085	-33.7257	0.1357006
54.528	2021.836	14.6909	-33.7114	0.1591655
54.58195	2020.018	14.74517	-33.69559	0.1829475
54.6359	2018.188	14.76754	-33.67833	0.2070359
54.68985	2016.344	14.7591	-33.6597	0.2314484
54.7438	2014.48	14.7304	-33.63977	0.2562106
54.79774	2012.598	14.69175	-33.61863	0.2813419
54.85169	2010.697	14.64893	-33.59637	0.3068632
54.90564	2008.778	14.60548	-33.57309	0.3327854
54.95959	2006.842	14.56215	-33.54889	0.3591135
55.01354	2004.898	14.51613	-33.52384	0.38583
55.06749	2002.948	14.46024	-33.49801	0.4128923
55.12143	2000.994	14.38653	-33.47148	0.4402278
55.17538	1999.041	14.29021	-33.4443	0.4677373
55.22933	1997.091	14.17316	-33.41652	0.4952773
55.28328	1995.149	14.04105	-33.38819	0.5226619
55.33723	1993.217	13.90065	-33.35933	0.5496514
55.39117	1991.302	13.7573	-33.32998	0.5759704
55.44512	1989.407	13.61362	-33.30014	0.6013148
55.49907	1987.534	13.47131	-33.26982	0.6253639
55.55302	1985.683	13.33389	-33.23903	0.6477976
55.60697	1983.856	13.20646	-33.20774	0.6683161
55.66092	1982.053	13.09451	-33.17593	0.6866401
55.71486	1980.273	12.99897	-33.14355	0.7025302
55.76881	1978.514	12.9169	-33.11055	0.7157802
55.82276	1976.774	12.84709	-33.07686	0.7262231
55.87671	1975.049	12.79132	-33.04243	0.7337433
55.93066	1973.333	12.74847	-33.00723	0.7382607
55.9846	1971.628	12.71607	-32.97121	0.7397341
56.03855	1969.934	12.69145	-32.93439	0.7381564
56.0925	1968.257	12.67304	-32.8968	0.7335688
56.14645	1966.597	12.65986	-32.85848	0.7260528
56.2004	1964.952	12.64971	-32.81951	0.7157274
56.25434	1963.321	12.63891	-32.77998	0.7027623
56.30829	1961.699	12.62425	-32.73999	0.6873752
56.36224	1960.085	12.603	-32.69965	0.6698216
56.41619	1958.474	12.57355	-32.65907	0.6503762
56.47014	1956.86	12.53473	-32.61839	0.6293412
56.52409	1955.237	12.48717	-32.57775	0.6070386
56.57803	1953.596	12.42689	-32.53727	0.5838249
56.63198	1951.932	12.34848	-32.49709	0.5600747
56.68593	1950.241	12.25275	-32.45735	0.5361695
56.73988	1948.522	12.147	-32.41815	0.5124693
56.79383	1946.776	12.03967	-32.37963	0.4893169
56.84777	1945.003	11.93594	-32.34188	0.4670248
56.90172	1943.212	11.83926	-32.30503	0.4458881
56.95567	1941.411	11.75524	-32.26921	0.4261656
57.00962	1939.606	11.68902	-32.23455	0.4080877
57.06357	1937.805	11.64004	-32.20117	0.3918266
57.11752	1936.014	11.60134	-32.16921	0.3774905
57.17146	1934.24	11.56513	-32.13877	0.3651052
57.22541	1932.483	11.52933	-32.10996	0.3546131
57.27936	1930.739	11.49565	-32.08285	0.3458538
57.33331	1929.007	11.46806	-32.0575	0.3385606
57.38726	1927.281	11.45164	-32.03395	0.3323804
57.4412	1925.558	11.45145	-32.0122	0.326915
57.49516	1923.832	11.46997	-31.99224	0.321757
57.5491	1922.101	11.509	-31.974	0.3165251
57.60305	1920.364	11.57124	-31.95743	0.3108854
57.657	1918.621	11.65809	-31.94241	0.304569
57.71095	1916.876	11.76792	-31.92879	0.2973877
57.7649	1915.128	11.89739	-31.91644	0.2892318
57.81884	1913.379	12.0425	-31.90519	0.2800845
57.87279	1911.63	12.19931	-31.89487	0.2699928
57.92674	1909.878	12.36285	-31.88532	0.2590603
57.98069	1908.128	12.52642	-31.87637	0.2474493
58.03464	1906.379	12.68029	-31.86784	0.2353566
58.08858	1904.633	12.81563	-31.85954	0.2230198
58.14253	1902.89	12.92604	-31.8513	0.2107093
58.19648	1901.147	13.00642	-31.84295	0.1987181
58.25043	1899.404	13.0549	-31.83434	0.1873534
58.30438	1897.658	13.07227	-31.82531	0.1769173
58.35833	1895.91	13.05986	-31.81574	0.1677023
58.41227	1894.161	13.01914	-31.80552	0.1599777
58.46622	1892.413	12.95435	-31.79455	0.1539769
58.52017	1890.665	12.87258	-31.78274	0.1498861
58.57412	1888.918	12.77921	-31.77004	0.1478402
58.62807	1887.175	12.67844	-31.75642	0.1479202
58.68201	1885.437	12.57525	-31.74183	0.1501599
58.73596	1883.704	12.4742	-31.72626	0.1545589
58.78991	1881.978	12.37709	-31.70972	0.1610824
58.84386	1880.262	12.2814	-31.69219	0.1696711
58.89781	1878.561	12.18496	-31.67369	0.1802349
58.95176	1876.875	12.09057	-31.65422	0.1926598
59.0057	1875.206	12.00291	-31.63378	0.2068039
59.05965	1873.552	11.92386	-31.61237	0.2224749
59.1136	1871.912	11.85159	-31.58996	0.2394373
59.16755	1870.283	11.78442	-31.56649	0.2574071
59.2215	1868.657	11.72089	-31.54193	0.2760699
59.27544	1867.03	11.65978	-31.51622	0.2950823
59.32939	1865.4	11.60361	-31.48931	0.314082
59.38334	1863.766	11.55756	-31.46117	0.3326914
59.43729	1862.125	11.52468	-31.43175	0.3505349
59.49124	1860.474	11.50709	-31.401	0.3672592
59.54519	1858.811	11.50601	-31.36888	0.3825373
59.59913	1857.135	11.52162	-31.33533	0.3960728
59.65308	1855.447	11.5543	-31.30029	0.407616
59.70703	1853.753	11.6024	-31.26371	0.4169813
59.76098	1852.057	11.66182	-31.22553	0.424054
59.81493	1850.361	11.72658	-31.18572	0.4287974
59.86887	1848.664	11.79178	-31.14426	0.4312361
59.92282	1846.966	11.85391	-31.10112	0.4314654
59.97677	1845.266	11.90888	-31.05629	0.4296407
60.03072	1843.563	11.9508	-31.00973	0.4259613
60.08467	1841.856	11.97492	-30.9614	0.4206781
60.13861	1840.144	11.97783	-30.91129	0.4140698
60.19257	1838.426	11.96069	-30.85934	0.406445
60.24651	1836.702	11.92852	-30.80553	0.3981253
60.30046	1834.974	11.88564	-30.74985	0.389424
60.35441	1833.246	11.83749	-30.69228	0.3806186
60.40836	1831.52	11.78978	-30.63281	0.3719317
60.46231	1829.798	11.7465	-30.57143	0.3634996
60.51625	1828.083	11.70863	-30.50816	0.3553564
60.5702	1826.381	11.67517	-30.443	0.3474376
60.62415	1824.695	11.64367	-30.37601	0.3395925
60.6781	1823.025	11.61079	-30.30722	0.3316292
60.73205	1821.368	11.57159	-30.23672	0.3233399
60.786	1819.716	11.52033	-30.16455	0.3145331
60.83994	1818.066	11.45149	-30.09076	0.3050511
60.89389	1816.413	11.3638	-30.01542	0.2947722
60.94784	1814.758	11.26072	-29.93853	0.2836294
61.00179	1813.1	11.15025	-29.8601	0.2716008
61.05574	1811.442	11.04164	-29.78013	0.2587148
61.10968	1809.785	10.94348	-29.69859	0.2450409
61.16363	1808.13	10.86129	-29.61548	0.2306993
61.21758	1806.476	10.79678	-29.53078	0.2158469
61.27153	1804.825	10.74967	-29.44448	0.2006892
61.32548	1803.179	10.71898	-29.35661	0.1854846
61.37943	1801.542	10.70246	-29.26719	0.1705441
61.43337	1799.918	10.6975	-29.17629	0.1562255
61.48732	1798.309	10.70114	-29.08397	0.1429285
61.54127	1796.716	10.71078	-28.99029	0.1310558
61.59522	1795.133	10.72667	-28.89531	0.120975
61.64917	1793.559	10.75096	-28.79909	0.1129656
61.70311	1791.993	10.78627	-28.70167	0.1071675
61.75706	1790.436	10.83385	-28.60309	0.1035485
61.81101	1788.889	10.89375	-28.50338	0.1019282
61.86496	1787.348	10.96437	-28.40253	0.1020458
61.91891	1785.812	11.0449	-28.30054	0.1036415
61.97285	1784.282	11.13261	-28.19738	0.1065271
62.0268	1782.765	11.22576	-28.093	0.1106025
62.08075	1781.266	11.32226	-27.98731	0.1158539
62.1347	1779.79	11.41843	-27.8802	0.1223165
62.18865	1778.339	11.50935	-27.77152	0.1300207
62.2426	1776.914	11.58758	-27.66111	0.1389521
62.29654	1775.514	11.64688	-27.54874	0.1490191
62.35049	1774.133	11.68538	-27.43417	0.1600562
62.40444	1772.761	11.70302	-27.31711	0.1718325
62.45839	1771.388	11.70051	-27.19724	0.1840787
62.51234	1770.008	11.68038	-27.07421	0.1965045
62.56628	1768.618	11.64895	-26.94763	0.2088161
62.62024	1767.216	11.61593	-26.81711	0.2207444
62.67418	1765.805	11.58966	-26.68223	0.2320483
62.72813	1764.389	11.57729	-26.54254	0.2425453
62.78208	1762.965	11.57968	-26.39757	0.2521201
62.83603	1761.532	11.59154	-26.24683	0.2607234
62.88998	1760.09	11.60479	-26.0898	0.268361
62.94392	1758.642	11.61298	-25.92595	0.275088
62.99787	1757.193	11.60887	-25.75474	0.2809993
63.05182	1755.748	11.58711	-25.57564	0.2862177
63.10577	1754.311	11.54873	-25.38813	0.290911
63.15972	1752.885	11.50223	-25.19167	0.2952786
63.21367	1751.47	11.45613	-24.98575	0.2995334
63.26761	1750.065	11.41619	-24.76983	0.3038919
63.32156	1748.668	11.38531	-24.54339	0.3085785
63.37551	1747.28	11.36247	-24.30594	0.3138155
63.42946	1745.902	11.34613	-24.05701	0.3198209
63.48341	1744.536	11.33521	-23.79618	0.3268189
63.53735	1743.177	11.32624	-23.52306	0.3350228
63.5913	1741.824	11.31567	-23.23726	0.3446375
63.64525	1740.474	11.30124	-22.93843	0.3558193
63.6992	1739.125	11.28373	-22.62621	0.3686864
63.75315	1737.781	11.26426	-22.30024	0.3832994
63.80709	1736.441	11.24059	-21.96018	0.3996562
63.86104	1735.104	11.20949	-21.60567	0.417703
63.91499	1733.766	11.16559	-21.23634	0.4373448
63.96894	1732.424	11.10586	-20.85181	0.458444
64.02289	1731.077	11.03248	-20.45168	0.4808569
64.07684	1729.727	10.94968	-20.03552	0.504416
64.13078	1728.381	10.86157	-19.60287	0.5289555
64.18473	1727.04	10.77344	-19.15325	0.5543291
64.23868	1725.715	10.6904	-18.68611	0.5803828
64.29263	1724.41	10.61795	-18.2009	0.6069499
64.34657	1723.131	10.56166	-17.69698	0.6338434
64.40053	1721.881	10.52464	-17.1737	0.660854
64.45448	1720.661	10.50657	-16.63037	0.6877697
64.50842	1719.47	10.50374	-16.06624	0.7143603
64.56237	1718.306	10.51131	-15.48053	0.7403868
64.61632	1717.172	10.52182	-14.8724	0.765646
64.67027	1716.071	10.52987	-14.241	0.7899553
64.72421	1715.012	10.53215	-13.58541	0.8131596
64.77816	1713.998	10.52706	-12.90469	0.8351371
64.83211	1713.033	10.51705	-12.19786	0.8557879
64.88605	1712.119	10.50993	-11.46391	0.8750699
64.94001	1711.262	10.51069	-10.70181	0.8929564
64.99396	1710.467	10.52096	-9.910505	0.9094062
65.0479	1709.738	10.53995	-9.088936	0.9244616
65.10185	1709.077	10.56575	-8.236051	0.9381698
65.1558	1708.484	10.59542	-7.35078	0.9506298
65.20975	1707.956	10.6241	-6.43206	0.9619597
65.26369	1707.49	10.64606	-5.478833	0.972278
65.31764	1707.083	10.65693	-4.490039	0.9817511
65.37159	1706.729	10.65447	-3.464623	0.9905372
65.42554	1706.424	10.64016	-2.401554	0.9988039
65.47949	1706.166	10.61502	-1.299856	1.006767
65.53344	1705.953	10.5799	-0.1585898	1.014646
65.58739	1705.778	10.53181	1.023142	1.022674
65.64133	1705.641	10.46582	2.246202	1.031092
65.69528	1705.542	10.37893	3.51142	1.040117
65.74923	1705.486	10.27146	4.819581	1.049985
65.80318	1705.48	10.14899	6.171453	1.06089
65.85712	1705.53	10.01705	7.567784	1.072997
65.91107	1705.64	9.879712	9.009312	1.086519
65.96502	1705.809	9.736199	10.49673	1.101621
66.01897	1706.032	9.584366	12.03077	1.118479
66.07292	1706.308	9.424128	13.61217	1.137237
66.12687	1706.635	9.257808	15.24167	1.157995
66.18082	1707.014	9.0876	16.92002	1.180853
66.23476	1707.446	8.916748	18.648	1.205832
66.28871	1707.934	8.752669	20.42641	1.232867
66.34266	1708.486	8.601829	22.25601	1.261858
66.39661	1709.111	8.465631	24.13763	1.292625
66.45055	1709.816	8.342679	26.07207	1.324916
66.5045	1710.607	8.231183	28.06017	1.358431
66.55846	1711.493	8.12975	30.10278	1.392821
66.6124	1712.476	8.038788	32.20075	1.427838
66.66635	1713.561	7.959294	34.35495	1.463081
66.7203	1714.753	7.891451	36.56625	1.498266
66.77425	1716.059	7.833757	38.83551	1.533111
66.82819	1717.483	7.784695	41.16359	1.567369
66.88214	1719.032	7.743097	43.55133	1.600847
66.93609	1720.709	7.70928	45.99958	1.63339
66.99004	1722.521	7.687011	48.50917	1.664907
67.04398	1724.474	7.681445	51.08089	1.695347
67.09794	1726.573	7.69769	53.71556	1.724714
67.15189	1728.824	7.736226	56.41392	1.753033
67.20583	1731.235	7.790582	59.17667	1.780364
67.25978	1733.807	7.852719	62.00447	1.806785
67.31373	1736.544	7.91242	64.89795	1.832388
67.36768	1739.448	7.961349	67.85767	1.857279
67.42162	1742.525	7.993931	70.88413	1.881577
67.47557	1745.78	8.008661	73.97776	1.905414
67.52952	1749.214	8.007433	77.13892	1.928937
67.58347	1752.829	7.992386	80.36786	1.952267
67.63742	1756.626	7.962915	83.66478	1.975536
67.69137	1760.6	7.916464	87.02979	1.998853
67.74532	1764.749	7.853903	90.46288	2.022324
67.79926	1769.07	7.778145	93.96403	2.04606
67.85321	1773.568	7.696467	97.53307	2.07018
67.90716	1778.251	7.615512	101.1698	2.094801
67.96111	1783.124	7.536006	104.8739	2.12005
68.01505	1788.193	7.456938	108.645	2.146029
68.069	1793.467	7.379274	112.4827	2.172845
68.12295	1798.948	7.301599	116.3867	2.200572
68.1769	1804.641	7.218062	120.3563	2.229263
68.23085	1810.55	7.125689	124.3912	2.258981
68.2848	1816.684	7.028142	128.4906	2.289789
68.33875	1823.051	6.92905	132.6541	2.321756
68.39269	1829.656	6.829589	136.8809	2.354965
68.44664	1836.505	6.730645	141.1705	2.38945
68.50059	1843.606	6.634278	145.5221	2.425267
68.55453	1850.965	6.54148	149.9351	2.462434
68.60848	1858.585	6.452844	154.4088	2.500953
68.66243	1866.469	6.370961	158.9427	2.540823
68.71638	1874.619	6.295882	163.536	2.582013
68.77033	1883.035	6.226488	168.188	2.624484
68.82428	1891.717	6.162554	172.8979	2.66815
68.87823	1900.661	6.105981	177.6651	2.712929
68.93217	1909.866	6.059221	182.4885	2.758722
68.98612	1919.332	6.023212	187.3673	2.80542
69.04007	1929.064	6.000103	192.3003	2.852909
69.09402	1939.069	5.99308	197.2863	2.901025
69.14796	1949.36	6.003716	202.3239	2.949633
69.20191	1959.946	6.03387	207.4114	2.998555
69.25587	1970.828	6.078531	212.547	3.047569
69.30981	1982.005	6.128231	217.7284	3.096449
69.36376	1993.474	6.175175	222.9531	3.144957
69.41771	2005.231	6.214331	228.2183	3.192853
69.47166	2017.267	6.242357	233.5206	3.239896
69.5256	2029.582	6.257781	238.8563	3.285824
69.57955	2042.178	6.259219	244.2213	3.330414
69.6335	2055.058	6.246078	249.611	3.373347
69.68745	2068.226	6.219435	255.0203	3.414315
69.74139	2081.684	6.184617	260.4435	3.452919
69.79534	2095.438	6.149927	265.8743	3.488741
69.8493	2109.498	6.124683	271.3062	3.521358
69.90324	2123.87	6.115179	276.7319	3.550221
69.95719	2138.566	6.122777	282.1434	3.574837
70.01114	2153.591	6.145802	287.5323	3.594584
70.06509	2168.955	6.182921	292.8897	3.608911
70.11903	2184.661	6.229349	298.2061	3.617186
70.17298	2200.711	6.27645	303.4716	3.618828
70.22693	2217.104	6.315246	308.6757	3.613271
70.28088	2233.838	6.3417	313.8077	3.60001
70.33482	2250.911	6.356884	318.8564	3.578627
70.38878	2268.322	6.364893	323.8103	3.548827
70.44273	2286.066	6.374753	328.6577	3.510351
70.49667	2304.141	6.395142	333.3869	3.463089
70.55062	2322.546	6.427825	337.9858	3.406973
70.60457	2341.282	6.47393	342.4424	3.342109
70.65852	2360.355	6.537805	346.7448	3.268603
70.71246	2379.777	6.624156	350.881	3.186732
70.76641	2399.553	6.73871	354.8395	3.096815
70.82036	2419.689	6.889639	358.6088	2.999311
70.87431	2440.181	7.087147	362.1779	2.894764
70.92826	2461.025	7.333916	365.5361	2.783827
70.98221	2482.217	7.621914	368.6734	2.667288
71.03616	2503.755	7.938401	371.5802	2.546153
71.0901	2525.64	8.270431	374.2476	2.421652
71.14405	2547.873	8.6099	376.6674	2.295325
71.198	2570.456	8.952819	378.8319	2.168982
71.25195	2593.389	9.294827	380.7344	2.04487
71.30589	2616.675	9.630458	382.3689	1.925594
71.35984	2640.309	9.955922	383.73	1.814289
71.41379	2664.279	10.26826	384.8133	1.714552
71.46774	2688.571	10.56959	385.6151	1.63034
71.52169	2713.171	10.86641	386.1326	1.565771
71.57564	2738.057	11.16831	386.3638	1.524644
71.62959	2763.205	11.4841	386.3073	1.509786
71.68353	2788.578	11.81349	385.9626	1.522489
71.73748	2814.14	12.1503	385.3303	1.562217
71.79143	2839.85	12.48406	384.4112	1.626793
71.84538	2865.668	12.79933	383.2072	1.712935
71.89932	2891.548	13.08055	381.7207	1.816789
71.95327	2917.437	13.31541	379.955	1.934513
72.00723	2943.287	13.49588	377.9135	2.062648
72.06117	2969.055	13.61407	375.6006	2.198183
72.11512	2994.696	13.66939	373.021	2.338637
72.16907	3020.163	13.66325	370.1798	2.481899
72.22301	3045.406	13.59462	367.0828	2.626323
72.27696	3070.372	13.46865	363.7361	2.770516
72.33091	3095.008	13.29471	360.1461	2.913328
72.38486	3119.255	13.08621	356.3198	3.053829
72.4388	3143.06	12.85873	352.2645	3.191223
72.49275	3166.37	12.62668	347.9878	3.32486
72.54671	3189.134	12.40268	343.4976	3.454186
72.60065	3211.307	12.193	338.8023	3.578718
72.6546	3232.853	12.00024	333.9105	3.697984
72.70855	3253.747	11.82012	328.8311	3.811589
72.7625	3273.973	11.64419	323.5734	3.919076
72.81644	3293.524	11.46634	318.1469	4.020085
72.87039	3312.395	11.28453	312.5615	4.114173
72.92434	3330.584	11.09783	306.8273	4.200978
72.97829	3348.092	10.91234	300.9547	4.280107
73.03223	3364.921	10.73916	294.9547	4.351192
73.08619	3381.065	10.58962	288.8382	4.413796
73.14014	3396.523	10.47527	282.6168	4.467575
73.19408	3411.295	10.40938	276.3022	4.51213
73.24803	3425.394	10.40337	269.9066	4.5471
73.30198	3438.833	10.46306	263.4421	4.572116
73.35593	3451.631	10.58521	256.9214	4.58696
73.40987	3463.799	10.75716	250.3573	4.591432
73.46382	3475.362	10.96085	243.7627	4.585423
73.51777	3486.346	11.17885	237.1506	4.568847
73.57172	3496.785	11.3988	230.534	4.541746
73.62567	3506.713	11.60954	223.9259	4.50419
73.67962	3516.163	11.798	217.3393	4.456356
73.73357	3525.162	11.95298	210.787	4.398446
73.78751	3533.746	12.06625	204.2815	4.330752
73.84146	3541.942	12.13795	197.8352	4.253621
73.89541	3549.773	12.17923	191.4601	4.167448
73.94936	3557.255	12.20927	185.1677	4.072738
74.0033	3564.408	12.24314	178.9692	3.970023
74.05725	3571.252	12.29304	172.8749	3.859916
74.1112	3577.809	12.36659	166.8948	3.743066
74.16515	3584.101	12.4622	161.0378	3.620176
74.2191	3590.15	12.57242	155.3122	3.491953
74.27305	3595.979	12.68512	149.7255	3.359129
74.327	3601.61	12.7867	144.2842	3.222454
74.38094	3607.066	12.85977	138.994	3.082639
74.43489	3612.365	12.88782	133.8596	2.940408
74.48884	3617.517	12.85908	128.8847	2.796482
74.54279	3622.527	12.7684	124.0724	2.65158
74.59673	3627.392	12.61647	119.4244	2.506423
74.65068	3632.103	12.41451	114.942	2.361698
74.70464	3636.651	12.17918	110.6253	2.218073
74.75858	3641.032	11.93027	106.4737	2.076177
74.81253	3645.246	11.68404	102.4857	1.93661
74.86648	3649.296	11.45375	98.65948	1.799893
74.92043	3653.188	11.25084	94.9921	1.666515
74.97437	3656.936	11.08258	91.48027	1.53693
75.02832	3660.553	10.94783	88.12015	1.411555
75.08227	3664.055	10.84015	84.90747	1.290779
75.13622	3667.449	10.75053	81.83763	1.174978
75.19016	3670.74	10.67258	78.90574	1.064481
75.24412	3673.928	10.60073	76.1067	0.9595922
75.29807	3677.014	10.52918	73.43527	0.8605794
75.35201	3679.996	10.45625	70.8861	0.7677143
75.40596	3682.869	10.38495	68.45382	0.6812511
75.45991	3685.629	10.32041	66.13305	0.6013877
75.51385	3688.273	10.27103	63.91849	0.5282944
75.5678	3690.81	10.24836	61.80495	0.4621141
75.62175	3693.259	10.26421	59.7874	0.4029886
75.6757	3695.638	10.32702	57.86099	0.3511166
75.72964	3697.966	10.43711	56.02104	0.3068265
75.7836	3700.262	10.58757	54.26309	0.2707051
75.83755	3702.539	10.76813	52.58287	0.2436623
75.89149	3704.804	10.96641	50.97632	0.2268977
75.94544	3707.064	11.16938	49.43959	0.2215544
75.99939	3709.32	11.36605	47.96903	0.2281521
76.05334	3711.565	11.54513	46.56116	0.2462001
76.10728	3713.795	11.69956	45.21269	0.2744364
76.16123	3716.006	11.8306	43.92048	0.3113649
76.21518	3718.193	11.94131	42.68155	0.3556249
76.26913	3720.352	12.03675	41.49302	0.4060665
76.32308	3722.479	12.11755	40.35211	0.4617057
76.37703	3724.572	12.18247	39.25611	0.5216234
76.43098	3726.632	12.23292	38.20235	0.5849176
76.48492	3728.663	12.27129	37.18821	0.6506643
76.53887	3730.666	12.30132	36.21105	0.7179082
76.59282	3732.638	12.3249	35.26824	0.7856982
76.64677	3734.568	12.34352	34.3572	0.8530576
76.70071	3736.444	12.35758	33.4754	0.9190425
76.75466	3738.253	12.36532	32.62036	0.9827248
76.80861	3739.982	12.3632	31.78972	1.043237
76.86256	3741.621	12.34559	30.9812	1.099774
76.91651	3743.155	12.31054	30.19268	1.151603
76.97046	3744.583	12.26208	29.42218	1.198081
77.02441	3745.91	12.20607	28.6679	1.238642
77.07835	3747.141	12.14874	27.92821	1.272803
77.1323	3748.286	12.09444	27.20171	1.300161
77.18625	3749.357	12.04489	26.48721	1.320402
77.2402	3750.366	11.99785	25.78368	1.333296
77.29414	3751.327	11.95203	25.09033	1.338709
77.34809	3752.25	11.91038	24.40652	1.336605
77.40205	3753.147	11.87617	23.73185	1.327044
77.45599	3754.021	11.85379	23.06606	1.310196
77.50994	3754.875	11.84574	22.4091	1.286326
77.56389	3755.711	11.85277	21.76109	1.255823
77.61784	3756.536	11.8765	21.12229	1.219182
77.67178	3757.357	11.91702	20.49314	1.177001
77.72573	3758.19	11.97473	19.87418	1.129978
77.77968	3759.048	12.05178	19.26607	1.078905
77.83363	3759.941	12.15268	18.66954	1.024678
77.88757	3760.874	12.28185	18.08536	0.9682878
77.94153	3761.855	12.44213	17.51431	0.9108297
77.99548	3762.88	12.63133	16.95717	0.8534869
78.04942	3763.943	12.8452	16.41468	0.7975099
78.10337	3765.034	13.0823	15.88752	0.7441916
78.15732	3766.152	13.34553	15.37628	0.6948289
78.21127	3767.289	13.63867	14.88148	0.6506647
78.26521	3768.434	13.96286	14.40354	0.6127924
78.31916	3769.572	14.30991	13.94274	0.5820129
78.37311	3770.684	14.66553	13.49924	0.5586923
78.42706	3771.752	15.01276	13.07298	0.5426829
78.48101	3772.757	15.33696	12.66376	0.5333363
78.53496	3773.688	15.62887	12.27115	0.5296144
78.58891	3774.541	15.88156	11.89455	0.5302537
78.64285	3775.313	16.09023	11.53319	0.5339593
78.6968	3776.005	16.24986	11.18609	0.5395668
78.75075	3776.614	16.36281	10.85222	0.5461454
78.8047	3777.138	16.43135	10.53041	0.5530315
78.85864	3777.572	16.45764	10.2195	0.5598366
78.91259	3777.91	16.44804	9.918328	0.5664512
78.96654	3778.151	16.40668	9.625799	0.5730412
79.02048	3778.291	16.33359	9.340919	0.5800347
79.07444	3778.328	16.23057	9.062822	0.5880826
79.12839	3778.268	16.1016	8.790822	0.5979991
79.18233	3778.126	15.94901	8.52443	0.6107029
79.23628	3777.928	15.77371	8.263372	0.6271287
79.29023	3777.698	15.57263	8.007592	0.6481155
79.34418	3777.462	15.34212	7.757258	0.6743103
79.39812	3777.248	15.08241	7.512751	0.706101
79.45207	3777.074	14.79581	7.274656	0.7435881
79.50602	3776.95	14.4862	7.043722	0.7865965
79.55997	3776.877	14.1587	6.820841	0.8347067
79.61392	3776.853	13.81494	6.607034	0.8873308
79.66787	3776.879	13.45944	6.40343	0.9437776
79.72182	3776.961	13.09904	6.211238	1.003313
79.77576	3777.101	12.74202	6.031723	1.065196
79.82971	3777.299	12.39507	5.866171	1.12869
79.88366	3777.557	12.06543	5.715881	1.193056
79.93761	3777.879	11.75714	5.582109	1.257551
79.99155	3778.262	11.47594	5.46606	1.321442
80.0455	3778.698	11.22707	5.368834	1.384022
80.09945	3779.176	11.01265	5.291404	1.444627
80.1534	3779.685	10.83276	5.234571	1.50264
80.20735	3780.216	10.68294	5.198975	1.557474
80.2613	3780.763	10.55645	5.185052	1.608572
80.31525	3781.32	10.447	5.193051	1.655424
80.36919	3781.884	10.34903	5.223001	1.697597
80.42314	3782.449	10.26277	5.274706	1.734731
80.47709	3783	10.19608	5.347703	1.766532
80.53104	3783.521	10.15902	5.441271	1.792781
80.58498	3783.995	10.15678	5.554398	1.813338
80.63893	3784.405	10.18711	5.685785	1.828158
80.69289	3784.738	10.24579	5.833823	1.837304
80.74683	3784.996	10.32786	5.996652	1.840931
80.80078	3785.185	10.42722	6.17216	1.839289
80.85473	3785.318	10.54063	6.358057	1.832703
80.90868	3785.4	10.66486	6.551912	1.821572
80.96262	3785.439	10.78877	6.751206	1.80636
81.01657	3785.441	10.90138	6.953361	1.787588
81.07052	3785.408	11.00331	7.155801	1.765816
81.12447	3785.347	11.09783	7.355991	1.741619
81.17841	3785.261	11.18783	7.551507	1.715566
81.23237	3785.156	11.27645	7.740073	1.688203
81.28632	3785.04	11.3675	7.919618	1.660035
81.34026	3784.927	11.46368	8.088299	1.631513
81.39421	3784.833	11.56817	8.244538	1.603012
81.44816	3784.782	11.6798	8.387033	1.574836
81.50211	3784.798	11.79479	8.514744	1.547219
81.55605	3784.9	11.90469	8.626907	1.520331
81.61	3785.096	12.00047	8.723037	1.494297
81.66395	3785.39	12.07885	8.802904	1.469213
81.7179	3785.781	12.13724	8.866497	1.445138
81.77185	3786.266	12.16911	8.913992	1.422094
81.8258	3786.837	12.16963	8.945723	1.400046
81.87975	3787.488	12.13721	8.962175	1.378883
81.93369	3788.214	12.0766	8.963935	1.358411
81.98764	3789.01	11.9986	8.951688	1.338346
82.04159	3789.873	11.91422	8.926165	1.318341
82.09554	3790.792	11.83992	8.888134	1.298004
82.14948	3791.757	11.7902	8.838334	1.276911
82.20343	3792.758	11.76867	8.777464	1.254595
82.25738	3793.787	11.77009	8.70614	1.230566
82.31133	3794.834	11.78159	8.624907	1.204337
82.36528	3795.89	11.78558	8.53419	1.17546
82.41923	3796.952	11.76954	8.434291	1.143542
82.47318	3798.017	11.72869	8.325339	1.108268
82.52712	3799.084	11.66548	8.207328	1.069399
82.58107	3800.151	11.5813	8.080076	1.026798
82.63502	3801.211	11.47901	7.943237	0.9804304
82.68896	3802.254	11.36539	7.796253	0.9303754
82.74291	3803.271	11.24894	7.638391	0.8768135
82.79686	3804.253	11.14054	7.468715	0.8200196
82.85081	3805.196	11.04963	7.28613	0.7603527
82.90476	3806.095	10.97652	7.089361	0.6982908
82.95871	3806.946	10.91599	6.877003	0.6344804
83.01266	3807.744	10.86672	6.647517	0.5698281
83.0666	3808.485	10.83467	6.399285	0.5056029
83.12055	3809.165	10.82639	6.130622	0.4436109
83.1745	3809.779	10.84766	5.839843	0.3864528
83.22845	3810.32	10.90055	5.525281	0.3378665
83.28239	3810.784	10.98295	5.185367	0.3028275
83.33634	3811.169	11.09049	4.818645	0.2865239
83.3903	3811.471	11.21914	4.423852	0.2915946
83.44424	3811.698	11.36764	3.99992	0.3159607
83.49819	3811.857	11.53141	3.54602	0.3542957
83.55214	3811.957	11.70623	3.061557	0.4010981
83.60609	3811.996	11.89471	2.546203	0.4522129
83.66003	3811.974	12.10064	1.999871	0.5048448
83.71398	3811.892	12.32004	1.422714	0.5571607
83.76793	3811.75	12.54269	0.8151074	0.6079494
83.82188	3811.547	12.76165	0.1776505	0.6564
83.87582	3811.288	12.97432	-0.4888372	0.7019694
83.92978	3810.978	13.1791	-1.183333	0.7443123
83.98373	3810.626	13.37171	-1.904632	0.7832281
84.03767	3810.24	13.54635	-2.651365	0.8186417
84.09162	3809.825	13.69806	-3.422005	0.8505829
84.14557	3809.395	13.82194	-4.214905	0.8791864
84.19952	3808.975	13.91564	-5.028321	0.9046973
84.25346	3808.586	13.97813	-5.860466	0.9274745
84.30741	3808.239	14.00342	-6.709522	0.9479755
84.36136	3807.941	13.98456	-7.573672	0.9667495
84.41531	3807.69	13.91947	-8.451105	0.984437
84.46926	3807.486	13.80915	-9.34004	1.001765
84.52321	3807.32	13.65318	-10.2387	1.019529
84.57716	3807.185	13.44597	-11.14533	1.038564
84.6311	3807.072	13.18571	-12.05824	1.059678
84.68505	3806.966	12.87499	-12.97577	1.083595
84.739	3806.848	12.52594	-13.89641	1.110884
84.79295	3806.7	12.15534	-14.8187	1.141938
84.84689	3806.506	11.77632	-15.74132	1.176953
84.90084	3806.249	11.40076	-16.66304	1.215931
84.95479	3805.914	11.03733	-17.58281	1.258708
85.00874	3805.483	10.69029	-18.49971	1.304988
85.06269	3804.952	10.35937	-19.413	1.354345
85.11664	3804.324	10.04171	-20.32208	1.406239
85.17059	3803.594	9.732382	-21.22647	1.460025
85.22453	3802.76	9.431287	-22.12585	1.51497
85.27848	3801.816	9.143697	-23.01995	1.570257
85.33243	3800.753	8.874688	-23.90861	1.625023
85.38638	3799.569	8.625593	-24.79174	1.678363
85.44032	3798.26	8.394095	-25.66928	1.729355
85.49427	3796.824	8.1806	-26.54118	1.777087
85.54823	3795.259	7.99292	-27.40742	1.82069
85.60217	3793.566	7.839619	-28.26797	1.859362
85.65612	3791.753	7.724356	-29.12276	1.892373
85.71007	3789.833	7.646465	-29.97172	1.919066
85.76402	3787.822	7.605423	-30.81479	1.938884
85.81796	3785.738	7.601451	-31.65184	1.951373
85.87191	3783.603	7.634894	-32.48275	1.956207
85.92586	3781.43	7.703274	-33.30731	1.953174
85.9798	3779.228	7.801322	-34.1253	1.942173
86.03375	3776.993	7.91861	-34.93641	1.923207
86.08771	3774.723	8.043359	-35.74031	1.89637
86.14165	3772.415	8.16878	-36.53658	1.861854
86.1956	3770.064	8.293406	-37.32476	1.819973
86.24955	3767.661	8.418153	-38.10435	1.771155
86.3035	3765.198	8.539389	-38.87484	1.715951
86.35744	3762.669	8.658267	-39.6357	1.655039
86.41139	3760.083	8.776877	-40.38643	1.589191
86.46534	3757.445	8.900939	-41.12651	1.519283
86.51929	3754.772	9.036628	-41.85544	1.446262
86.57323	3752.067	9.189148	-42.57274	1.371143
86.62719	3749.341	9.362816	-43.27797	1.294984
86.68114	3746.597	9.558805	-43.97076	1.218877
86.73508	3743.84	9.77192	-44.65079	1.143911
86.78903	3741.074	9.988111	-45.31785	1.071175
86.84298	3738.304	10.19056	-45.97173	1.001701
86.89693	3735.526	10.36868	-46.61229	0.9364557
86.95087	3732.735	10.51797	-47.23946	0.8762734
87.00482	3729.926	10.63675	-47.85327	0.8218104
87.05877	3727.101	10.72142	-48.45377	0.7734595
87.11272	3724.259	10.7689	-49.04114	0.7313002
87.16667	3721.403	10.77814	-49.61559	0.6950769
87.22062	3718.531	10.75449	-50.17741	0.6642216
87.27457	3715.642	10.7093	-50.72693	0.6379364
87.32851	3712.742	10.65371	-51.26456	0.615285
87.38246	3709.849	10.59094	-51.79073	0.5952856
87.43641	3706.979	10.52167	-52.30593	0.5770375
87.49036	3704.146	10.44871	-52.81063	0.5598034
87.5443	3701.352	10.37229	-53.30532	0.5431235
87.59825	3698.591	10.28872	-53.7905	0.5268629
87.6522	3695.853	10.19085	-54.2667	0.511237
87.70615	3693.124	10.07683	-54.73439	0.496824
87.7601	3690.392	9.947104	-55.19408	0.4845215
87.81405	3687.65	9.807192	-55.64626	0.4755076
87.868	3684.894	9.662626	-56.09139	0.4710894
87.92194	3682.119	9.515532	-56.52991	0.4725217
87.97589	3679.321	9.363799	-56.9622	0.4807537
88.02984	3676.499	9.210208	-57.38859	0.4962139
88.08379	3673.652	9.061902	-57.80935	0.5187564
88.13773	3670.782	8.928446	-58.22467	0.5477171
88.19168	3667.888	8.825376	-58.63468	0.5820966
88.24563	3664.968	8.767481	-59.03945	0.6207166
88.29958	3662.013	8.764224	-59.43899	0.6623799
88.35353	3659.01	8.815173	-59.83324	0.7059576
88.40748	3655.952	8.909916	-60.22211	0.7504392
88.46143	3652.834	9.034158	-60.60542	0.7949225
88.51537	3649.663	9.173007	-60.98293	0.8386377
88.56932	3646.438	9.314224	-61.35434	0.8809207
88.62327	3643.163	9.447929	-61.71932	0.9212406
88.67722	3639.84	9.567546	-62.0775	0.9592142
88.73116	3636.479	9.668142	-62.4285	0.9945991
88.78511	3633.082	9.746198	-62.77197	1.027289
88.83907	3629.648	9.80252	-63.10754	1.057305
88.89301	3626.167	9.842399	-63.43493	1.084776
88.94696	3622.635	9.875556	-63.75387	1.109944
89.00091	3619.043	9.911699	-64.06414	1.133139
89.05486	3615.394	9.953257	-64.36554	1.154759
89.1088	3611.695	9.995293	-64.65786	1.175234
89.16275	3607.959	10.02674	-64.94094	1.194988
89.2167	3604.184	10.03976	-65.21461	1.214413
89.27065	3600.369	10.03105	-65.47876	1.233842
89.32459	3596.51	10.00037	-65.73327	1.253529
89.37855	3592.618	9.948277	-65.97803	1.273623
89.4325	3588.695	9.877316	-66.213	1.294198
89.48644	3584.749	9.788029	-66.43811	1.315233
89.54039	3580.782	9.681185	-66.65334	1.336646
89.59434	3576.805	9.557076	-66.8587	1.358289
89.64828	3572.821	9.418168	-67.05424	1.379965
89.70223	3568.836	9.265903	-67.24007	1.401438
89.75618	3564.848	9.10764	-67.41631	1.422457
89.81013	3560.859	8.95524	-67.58324	1.442736
89.86407	3556.86	8.824352	-67.74113	1.461964
89.91803	3552.853	8.723469	-67.89034	1.479804
89.97198	3548.839	8.655393	-68.0313	1.495891
90.02592	3544.829	8.615048	-68.16446	1.509845
90.07987	3540.826	8.595601	-68.29032	1.521276
90.13382	3536.84	8.593266	-68.40945	1.529852
90.18777	3532.877	8.605587	-68.52248	1.535298
90.24171	3528.948	8.629947	-68.63007	1.537436
90.29566	3525.052	8.665578	-68.73298	1.536212
90.34961	3521.182	8.711535	-68.83197	1.53169
90.40356	3517.333	8.769641	-68.92785	1.52402
90.45751	3513.507	8.841236	-69.02139	1.513408
90.51146	3509.708	8.926204	-69.11339	1.500076
90.56541	3505.938	9.024722	-69.20454	1.484244
90.61935	3502.192	9.140608	-69.29549	1.466074
90.6733	3498.471	9.279336	-69.38683	1.445693
90.72725	3494.776	9.442919	-69.47903	1.423202
90.7812	3491.11	9.62997	-69.5725	1.398675
90.83514	3487.477	9.841625	-69.66757	1.372154
90.88909	3483.876	10.0737	-69.7645	1.343682
90.94304	3480.304	10.31881	-69.86351	1.313302
90.99699	3476.753	10.56591	-69.96474	1.281059
91.05094	3473.223	10.80292	-70.06833	1.247024
91.10489	3469.714	11.01553	-70.17439	1.211311
91.15884	3466.228	11.1932	-70.28297	1.174048
91.21278	3462.763	11.33108	-70.39419	1.135383
91.26673	3459.317	11.42612	-70.50809	1.095477
91.32068	3455.885	11.48485	-70.6247	1.054503
91.37463	3452.461	11.51673	-70.74401	1.012665
91.42857	3449.031	11.53139	-70.86595	0.9701693
91.48252	3445.588	11.53904	-70.99043	0.9272869
91.53648	3442.131	11.54551	-71.11738	0.8843159
91.59042	3438.661	11.55047	-71.24671	0.841599
91.64437	3435.182	11.54899	-71.37836	0.7994918
91.69832	3431.699	11.53141	-71.51228	0.7583599
91.75227	3428.212	11.48646	-71.64835	0.7185609
91.80621	3424.712	11.40373	-71.78654	0.6804301
91.86016	3421.19	11.28065	-71.92675	0.6442412
91.91411	3417.634	11.12223	-72.06894	0.6102253
91.96806	3414.03	10.94065	-72.21307	0.5785542
92.022	3410.369	10.74941	-72.35906	0.5493264
92.07596	3406.642	10.56059	-72.5069	0.5225844
92.12991	3402.849	10.382	-72.65652	0.4983295
92.18385	3398.992	10.22025	-72.80789	0.4765254
92.2378	3395.071	10.07521	-72.96095	0.4571497
92.29175	3391.081	9.94503	-73.11563	0.4401841
92.3457	3387.017	9.831761	-73.27185	0.4256514
92.39964	3382.873	9.740726	-73.42941	0.4137685
92.45359	3378.66	9.669425	-73.55708	0.4210983
92.50754	3374.39	9.612769	-73.67503	0.428303
92.56149	3370.078	9.563297	-73.78676	0.4356887
92.61544	3365.732	9.516041	-73.89539	0.4435233
92.66939	3361.361	9.465594	-74.00312	0.4519616
92.72334	3356.966	9.411927	-74.11127	0.4611193
92.77728	3352.557	9.360609	-74.22053	0.471056
92.83123	3348.135	9.327237	-74.33118	0.4818061
92.88518	3343.707	9.327972	-74.44327	0.4933619
92.93913	3339.268	9.372855	-74.55666	0.5057226
92.99307	3334.82	9.462282	-74.67117	0.5188477
93.04702	3330.356	9.591131	-74.78656	0.5327114
93.10097	3325.881	9.749163	-74.90258	0.5472684
93.15492	3321.397	9.924367	-75.01899	0.5624869
93.20887	3316.922	10.09763	-75.13554	0.578319
93.26282	3312.466	10.25311	-75.25201	0.5947383
93.31676	3308.052	10.37927	-75.36818	0.6117079
93.37071	3303.688	10.47178	-75.48384	0.6291902
93.42466	3299.387	10.53257	-75.59881	0.6471527
93.47861	3295.146	10.57499	-75.7129	0.6655777
93.53255	3290.969	10.61064	-75.82595	0.6844261
93.5865	3286.844	10.6542	-75.93781	0.7036694
93.64045	3282.756	10.71819	-76.04835	0.7232903
93.6944	3278.693	10.80962	-76.15742	0.7432595
93.74835	3274.643	10.92764	-76.26492	0.7635646
93.8023	3270.588	11.06691	-76.37072	0.7841749
93.85625	3266.527	11.21747	-76.47474	0.8050877
93.91019	3262.47	11.36397	-76.57688	0.8262914
93.96414	3258.431	11.48961	-76.67706	0.8477715
94.01809	3254.412	11.57856	-76.77522	0.8695254
94.07204	3250.436	11.52207	-76.8713	0.8915411
94.12598	3246.417	11.461	-76.96524	0.9138116
94.17993	3242.361	11.40557	-77.057	0.9363384
94.23389	3238.286	11.35566	-77.14655	0.9591063
94.28783	3234.201	11.30891	-77.23388	0.9821093
94.34178	3230.111	11.26353	-77.31895	1.005348
94.39573	3226.016	11.21851	-77.40176	1.028803
94.44968	3221.918	11.17274	-77.4823	1.052484
94.50362	3217.817	11.12597	-77.56058	1.076374
94.55757	3213.711	11.07735	-77.6366	1.100467
94.61152	3209.602	11.02697	-77.71039	1.124764
94.66547	3205.489	10.97442	-77.78196	1.149246
94.71941	3201.373	10.91991	-77.85134	1.173915
94.77337	3197.255	10.86333	-77.91857	1.198771
94.82732	3193.134	10.80444	-77.98369	1.223793
94.88126	3189.009	10.74349	-78.04673	1.24899
94.93521	3184.879	10.68094	-78.10776	1.274355
94.98916	3180.742	10.61759	-78.16682	1.299868
