T[Â°C]	330nm [counts / mm]	S.D.
20.00115	3425.556	27.66672
20.0551	3422.316	20.9343
20.10905	3427.81	23.71906
20.16299	3423.506	26.54306
20.21694	3415.602	25.64245
20.27089	3408.164	25.39474
20.32484	3409.522	25.62483
20.37879	3409.303	25.52492
20.43274	3404.791	24.17609
20.48668	3401.047	28.40112
20.54063	3400.906	27.91564
20.59458	3398.614	25.56149
20.64853	3395.133	21.50126
20.70248	3395.128	22.3288
20.75643	3387.919	17.55404
20.81037	3387.122	21.1563
20.86432	3382.783	23.05352
20.91827	3380.737	23.95236
20.97222	3372.744	16.73882
21.02617	3374.464	23.20662
21.08011	3366.764	24.296
21.13406	3374.227	22.62365
21.18801	3367.267	18.88124
21.24196	3366.764	26.19646
21.29591	3363.871	24.94016
21.34986	3358.611	21.24582
21.4038	3357.85	19.58373
21.45775	3353.39	26.86067
21.5117	3348.794	27.8333
21.56565	3351.9	23.70593
21.6196	3343.113	20.92266
21.67354	3345.561	19.86509
21.72749	3341.894	24.3273
21.78144	3339.109	26.64855
21.83539	3337.469	22.20787
21.88934	3328.556	20.03622
21.94328	3330.227	23.16957
21.99723	3331.499	26.67332
22.05118	3329.075	25.09447
22.10513	3323.971	22.72032
22.15908	3320.732	20.64606
22.21303	3317.005	22.04172
22.26698	3315.637	22.14232
22.32092	3316.588	20.2172
22.37487	3312.223	20.11405
22.42882	3309.744	14.62148
22.48277	3306.906	19.91946
22.53672	3306.625	32.34028
22.59066	3302.431	26.52967
22.64461	3297.426	21.49639
22.69856	3292.556	19.17719
22.75251	3291.855	23.12506
22.80646	3288.554	20.68532
22.8604	3286.089	20.96959
22.91435	3282.708	20.30717
22.9683	3282.966	17.81097
23.02225	3282.387	19.49524
23.0762	3280.404	19.6801
23.13015	3274.098	21.59517
23.18409	3270.755	20.49425
23.23804	3269.418	21.42831
23.29199	3266.936	24.13758
23.34594	3262.025	21.58075
23.39989	3260.294	18.66771
23.45383	3260.981	17.65506
23.50778	3259.689	19.17252
23.56173	3257.655	21.2185
23.61568	3251.799	19.37374
23.66963	3248.64	20.01936
23.72358	3250.311	22.57773
23.77752	3244.592	23.7534
23.83147	3238.83	24.63163
23.88542	3238.893	22.24557
23.93937	3233.614	22.95539
23.99332	3232.449	20.84115
24.04727	3228.493	16.3725
24.10121	3226.615	18.32114
24.15516	3220.283	17.41461
24.20911	3223.804	18.98695
24.26306	3223.11	16.52415
24.31701	3216.12	23.81901
24.37095	3216.134	23.01319
24.4249	3214.437	22.66046
24.47885	3213.094	22.49414
24.5328	3207.662	19.55031
24.58675	3206.355	19.99247
24.6407	3204.043	18.68758
24.69464	3200.394	17.75834
24.74859	3199.85	19.75001
24.80254	3196.564	17.90316
24.85649	3192.062	21.04446
24.91044	3189.219	23.18736
24.96439	3185.694	26.1759
25.01833	3188.722	30.63821
25.07228	3179.478	25.48082
25.12623	3178.955	22.00043
25.18018	3176.664	26.55116
25.23413	3173.001	22.31287
25.28807	3174.993	25.47458
25.34202	3172.1	21.97402
25.39597	3167.259	22.62344
25.44992	3167.155	21.61815
25.50387	3164.345	22.15202
25.55782	3159.548	23.94939
25.61176	3158.757	19.13178
25.66571	3156.914	18.69903
25.71966	3153.833	25.1147
25.77361	3151.698	23.6955
25.82756	3144.38	21.43387
25.8815	3145.168	22.97473
25.93545	3142.883	19.54204
25.9894	3141.458	20.984
26.04335	3140.242	23.38025
26.0973	3133.507	19.60982
26.15125	3136.369	24.69405
26.20519	3130.792	22.5699
26.25914	3127.052	20.66471
26.31309	3122.707	20.44112
26.36704	3123.324	14.94138
26.42099	3120.842	18.09483
26.47494	3114.439	27.97405
26.52888	3112.475	23.82146
26.58283	3114.604	19.04546
26.63678	3113.435	21.06526
26.69073	3109.899	22.37105
26.74468	3107.509	23.7633
26.79862	3107.543	21.67325
26.85257	3104.464	23.46038
26.90652	3107.048	20.70962
26.96047	3103.342	20.63888
27.01442	3097.203	22.66902
27.06837	3093.732	21.44109
27.12231	3091.26	20.22217
27.17626	3086.97	19.17227
27.23021	3081.246	17.8639
27.28416	3079.269	20.60682
27.33811	3077.782	23.11935
27.39205	3076.878	19.71018
27.446	3073.735	20.07588
27.49995	3069.396	24.87623
27.5539	3065.903	22.42787
27.60785	3064.605	15.52887
27.66179	3065.503	14.14751
27.71574	3064.317	20.06522
27.76969	3061.585	19.81517
27.82364	3055.505	18.17066
27.87759	3051.663	22.07143
27.93154	3049.468	20.65694
27.98549	3047.11	23.47469
28.03943	3051.992	21.50196
28.09338	3048.453	20.42474
28.14733	3043.936	21.86881
28.20128	3042.627	21.2795
28.25523	3037.276	19.27973
28.30917	3035.248	25.34919
28.36312	3035.4	21.64611
28.41707	3031.609	24.24788
28.47102	3032.116	24.42869
28.52497	3030.043	19.43023
28.57891	3021.613	24.12367
28.63286	3019.479	21.6073
28.68681	3017.792	22.91642
28.74076	3014.712	19.30214
28.79471	3018.098	20.74438
28.84866	3009.524	17.55932
28.90261	3008.106	16.21742
28.95655	3008.933	18.03665
29.0105	3004.478	20.39083
29.06445	3004.232	18.26919
29.1184	3001.921	16.40051
29.17235	2998.592	19.65136
29.22629	2997.078	17.07563
29.28024	2990.866	22.68622
29.33419	2987.266	24.38723
29.38814	2990.576	20.34822
29.44209	2986.137	21.91695
29.49603	2982.103	19.17453
29.54998	2978.097	19.69453
29.60393	2978.346	22.22108
29.65788	2972.485	20.36251
29.71183	2975.628	18.80588
29.76578	2972.431	18.94126
29.81972	2967.567	18.43042
29.87367	2964.437	23.45032
29.92762	2966.597	14.97547
29.98157	2959.131	19.76859
30.03552	2962.62	14.93888
30.08946	2952.81	24.60031
30.14341	2953.362	24.22245
30.19736	2951.348	19.10043
30.25131	2948.711	17.68836
30.30526	2951.087	19.60559
30.35921	2946.004	16.36909
30.41315	2942.449	14.94378
30.4671	2942.206	14.53545
30.52105	2940.628	16.94847
30.575	2936.864	18.56967
30.62895	2935.722	18.8889
30.6829	2930.635	16.9027
30.73684	2928.847	19.47663
30.79079	2929.412	20.56282
30.84474	2926.308	20.54292
30.89869	2924.215	18.58957
30.95264	2919.795	15.15359
31.00658	2915.177	15.24936
31.06053	2913.024	14.92055
31.11448	2913.949	17.16031
31.16843	2913.207	21.07408
31.22238	2907.088	22.84412
31.27633	2908.178	21.92373
31.33027	2904.567	17.96101
31.38422	2901.085	16.85473
31.43817	2896.259	17.67254
31.49212	2895.935	18.55195
31.54607	2892.942	19.63052
31.60001	2892.265	21.55913
31.65396	2893.025	18.7972
31.70791	2890.96	19.73512
31.76186	2890.488	22.6965
31.81581	2885.348	20.0387
31.86975	2876.278	18.84623
31.9237	2874.454	16.81695
31.97765	2872.508	18.42101
32.0316	2874.003	18.07651
32.08555	2871.006	11.13472
32.1395	2863.873	12.02029
32.19344	2868.96	14.66909
32.24739	2868.615	16.64537
32.30134	2861.483	24.04943
32.35529	2857.475	19.33158
32.40924	2854.013	22.9996
32.46318	2859.96	20.27663
32.51714	2849.883	25.65436
32.57108	2847.767	23.96294
32.62503	2847.332	22.30925
32.67898	2843.786	24.4616
32.73293	2844.988	20.10115
32.78688	2845.712	21.397
32.84082	2838.789	22.42111
32.89477	2834.374	22.34787
32.94872	2833.927	21.00777
33.00267	2833.708	18.715
33.05662	2831.247	21.12918
33.11057	2830.055	21.00744
33.16451	2826.337	16.95917
33.21846	2824.817	19.45312
33.27241	2821.951	19.37302
33.32636	2823.654	20.17589
33.38031	2817.426	15.94876
33.43425	2813.493	17.35434
33.4882	2813.088	14.4426
33.54215	2813.236	19.6335
33.5961	2806.718	21.34303
33.65005	2808.198	18.6426
33.70399	2797.828	22.25148
33.75794	2795.94	15.19875
33.81189	2792.468	16.70756
33.86584	2795.786	22.98881
33.91979	2795.461	20.18481
33.97374	2793.469	18.73219
34.02768	2787.115	19.59705
34.08163	2788.204	18.78427
34.13558	2782.928	22.6801
34.18953	2781.385	20.37411
34.24348	2779.692	21.57816
34.29742	2777.373	18.89112
34.35137	2773.393	17.97705
34.40532	2774.42	17.85677
34.45927	2773.918	18.40025
34.51322	2770.565	20.7314
34.56717	2767.117	20.40529
34.62111	2765.529	16.81029
34.67506	2763.047	16.31489
34.72901	2758.052	19.36863
34.78296	2756.332	23.56671
34.83691	2756.327	24.32265
34.89085	2755.588	22.0172
34.94481	2755.131	20.52483
34.99875	2751.36	17.56918
35.0527	2746.872	18.79798
35.10665	2748.414	17.79368
35.16059	2741.225	18.76701
35.21455	2741.78	20.01098
35.26849	2734.11	20.44722
35.32244	2730.801	16.37166
35.37639	2729.456	12.35293
35.43034	2733.533	12.74142
35.48429	2727.098	17.81387
35.53823	2732.191	19.56201
35.59218	2724.989	20.37804
35.64613	2723.036	22.78172
35.70008	2718.014	18.01447
35.75403	2718.268	13.05109
35.80798	2714.027	13.68336
35.86192	2715.496	15.49922
35.91587	2710.088	17.07679
35.96982	2709.398	15.30551
36.02377	2705.985	15.7502
36.07772	2706.101	17.82541
36.13166	2702.317	21.50018
36.18561	2700.296	25.54727
36.23956	2694.402	18.17633
36.29351	2693.095	18.47831
36.34746	2692.354	21.7276
36.40141	2694.364	21.36739
36.45535	2687.605	18.98224
36.5093	2687.607	15.11652
36.56325	2684.289	11.97425
36.6172	2683.45	15.28225
36.67115	2679.181	19.37431
36.72509	2680.31	19.53316
36.77904	2672.295	16.42321
36.83299	2671.968	22.23294
36.88694	2670.747	16.36503
36.94089	2667.624	17.40399
36.99483	2666.833	16.84157
37.04878	2667.388	12.3336
37.10273	2662.129	17.17496
37.15668	2662.168	16.12409
37.21063	2653.84	16.07232
37.26458	2653.521	16.18528
37.31852	2653.99	17.35084
37.37247	2652.482	17.7361
37.42642	2651.659	21.64207
37.48037	2648.71	21.57575
37.53432	2643.647	21.6724
37.58826	2642.942	16.10215
37.64222	2640.345	15.16577
37.69616	2642.852	16.6855
37.75011	2636.766	20.61712
37.80406	2637.503	21.835
37.85801	2629.741	17.14913
37.91196	2629.56	17.65148
37.9659	2627.013	18.15596
38.01985	2625.12	21.26765
38.0738	2623.747	24.18519
38.12775	2623.281	19.79242
38.18169	2621.252	21.92387
38.23565	2617.708	20.12196
38.28959	2614.53	16.28057
38.34354	2614.19	20.0172
38.39749	2613.417	22.27641
38.45144	2612.585	17.55739
38.50539	2609.145	16.75621
38.55933	2606.339	19.68244
38.61328	2606.009	18.49619
38.66723	2599.29	15.32901
38.72118	2594.752	15.03336
38.77513	2592.702	17.01262
38.82907	2593.563	14.45109
38.88302	2591.525	17.00779
38.93697	2594.144	18.79163
38.99092	2583.589	16.39365
39.04487	2582.491	16.64496
39.09882	2582.148	17.17039
39.15276	2580.744	18.02734
39.20671	2577.261	12.51975
39.26066	2578.212	17.80833
39.31461	2576.391	19.85118
39.36856	2577.406	16.333
39.4225	2567.976	17.93458
39.47645	2565.375	19.979
39.5304	2571.741	20.34834
39.58435	2568.501	17.03193
39.6383	2558.548	18.24016
39.69225	2561.236	14.82716
39.74619	2553.925	17.30679
39.80014	2558.196	15.26181
39.85409	2554.209	19.57147
39.90804	2551.652	18.32842
39.96199	2549.952	17.89762
40.01593	2549.172	17.29984
40.06988	2540.519	16.8661
40.12383	2540.23	15.4034
40.17778	2539.249	13.81917
40.23173	2541.596	18.1074
40.28568	2530.708	15.67437
40.33962	2530.858	18.47274
40.39357	2529.313	16.69667
40.44752	2531.389	17.12724
40.50147	2525.734	15.74357
40.55542	2527.967	17.49183
40.60936	2520.226	16.26499
40.66331	2519.276	17.69303
40.71726	2516.381	20.18059
40.77121	2516.072	17.36255
40.82516	2511.904	17.33928
40.8791	2512.228	19.0661
40.93306	2503.924	16.34831
40.987	2509.841	12.07672
41.04095	2505.251	16.00668
41.0949	2510.637	22.05587
41.14885	2499.241	18.73764
41.2028	2498.811	18.44633
41.25674	2497.125	20.22889
41.31069	2498.776	18.66339
41.36464	2491.992	14.32454
41.41859	2489.144	14.38124
41.47254	2489.944	19.44469
41.52649	2487.32	18.32932
41.58043	2489.267	17.37237
41.63438	2486.83	17.80591
41.68833	2479.049	16.67013
41.74228	2481.173	19.69507
41.79623	2476.9	23.15604
41.85017	2475.883	20.34122
41.90412	2472.128	14.60903
41.95807	2468.533	9.729793
42.01202	2467.555	11.84501
42.06597	2467.804	17.93018
42.11992	2466.981	17.37239
42.17386	2464.304	15.69678
42.22781	2460.61	17.7203
42.28176	2456.523	17.55594
42.33571	2456.438	14.4397
42.38966	2455.207	15.50307
42.4436	2454.988	14.54605
42.49755	2450.364	14.42417
42.5515	2450.12	15.66033
42.60545	2447.619	17.86383
42.6594	2445.328	18.17629
42.71334	2443.684	17.86902
42.76729	2445.394	19.74993
42.82124	2436.978	17.58772
42.87519	2438.2	21.20727
42.92914	2434.022	15.82861
42.98309	2432.079	15.87768
43.03703	2429.497	15.95321
43.09098	2430.942	19.70914
43.14493	2429.469	15.52714
43.19888	2430.862	14.08264
43.25283	2419.865	14.59233
43.30677	2420.915	16.93037
43.36073	2419.223	16.83909
43.41467	2419.217	20.50307
43.46862	2409.286	16.47044
43.52257	2413.475	22.31428
43.57652	2409.102	12.98235
43.63047	2415.871	14.26481
43.68441	2405.548	17.5011
43.73836	2404.362	14.96378
43.79231	2403.083	15.56506
43.84626	2401.314	15.60262
43.90021	2393.886	17.89435
43.95415	2396.417	16.12456
44.0081	2393.41	14.14867
44.06205	2392.896	15.29079
44.116	2388.959	16.09437
44.16995	2386.899	12.94105
44.2239	2379.951	10.06121
44.27784	2385.679	9.448009
44.33179	2376.334	18.67698
44.38574	2380.779	19.22021
44.43969	2377.237	16.8708
44.49364	2376.435	18.44426
44.54758	2374.294	15.02553
44.60153	2371.885	14.88268
44.65548	2365.272	21.57967
44.70943	2366.331	18.56322
44.76338	2365.121	15.53159
44.81733	2365.223	17.62691
44.87127	2359.402	20.11514
44.92522	2360.761	17.02365
44.97917	2359.089	16.73014
45.03312	2357.709	18.8227
45.08707	2351.183	18.18848
45.14101	2350.901	15.69683
45.19496	2349.305	12.62607
45.24891	2348.213	13.86029
45.30286	2343.357	15.31473
45.35681	2343.563	14.61447
45.41076	2339.281	13.52713
45.4647	2338.243	14.59726
45.51865	2336.047	12.21329
45.5726	2334.031	12.57585
45.62655	2335.889	13.35082
45.6805	2334.701	12.61486
45.73444	2331.308	13.46591
45.78839	2329.736	12.58131
45.84234	2326.712	15.78607
45.89629	2322.374	14.56501
45.95024	2323.066	13.90426
46.00418	2321.079	16.14734
46.05814	2317.492	11.38714
46.11208	2314.064	16.18069
46.16603	2312.641	21.73429
46.21998	2310.956	17.92589
46.27393	2309.445	20.24891
46.32788	2306.737	15.53553
46.38182	2310.665	15.72314
46.43577	2303.556	16.50734
46.48972	2306.136	15.23681
46.54367	2299.814	18.13401
46.59762	2300.725	15.80916
46.65157	2299.401	14.27561
46.70551	2296.119	13.78545
46.75946	2294.406	13.45902
46.81341	2293.569	14.60224
46.86736	2287.703	14.31721
46.92131	2286.417	9.504722
46.97525	2281.094	11.34287
47.0292	2284.548	14.46041
47.08315	2277.599	15.69268
47.1371	2278.046	14.85659
47.19105	2272.342	16.08867
47.245	2276.397	19.64985
47.29894	2270.141	16.43245
47.35289	2274.264	19.40398
47.40684	2267.629	15.36135
47.46079	2270.384	17.93557
47.51474	2260.588	12.10508
47.56868	2259.909	10.47661
47.62263	2258.016	13.93245
47.67658	2258.679	14.28363
47.73053	2253.413	12.97969
47.78448	2257.767	17.89565
47.83842	2251.31	18.51023
47.89237	2249.956	18.57901
47.94632	2246.038	16.08545
48.00027	2249.898	18.29851
48.05422	2241.163	16.39584
48.10817	2244.508	14.01834
48.16211	2240.613	22.13336
48.21606	2240.259	15.47495
48.27001	2232.1	13.18093
48.32396	2233.893	15.0734
48.37791	2232.125	13.51716
48.43185	2230.81	12.90642
48.4858	2230.207	7.27031
48.53975	2228.609	10.81988
48.5937	2222.257	16.28809
48.64765	2223.306	14.62447
48.7016	2221.921	11.02483
48.75554	2222.567	12.67074
48.80949	2213.328	14.56176
48.86344	2213.179	15.7812
48.91739	2211.638	16.70139
48.97134	2210.844	16.22493
49.02528	2208.136	12.99038
49.07924	2210.433	13.55484
49.13318	2209	15.73347
49.18713	2206.177	14.9692
49.24108	2202.713	17.2141
49.29502	2200.233	14.01431
49.34898	2198.297	10.57129
49.40292	2194.589	15.78453
49.45687	2193.413	17.56526
49.51082	2194.604	14.45262
49.56477	2195.21	14.37643
49.61872	2192.664	17.61713
49.67266	2193.188	19.92455
49.72661	2190.506	14.80017
49.78056	2189.493	12.46116
49.83451	2182.008	12.1196
49.88846	2184.254	11.62866
49.94241	2176.722	14.83227
49.99635	2178.423	15.29717
50.0503	2174.493	15.21809
50.10425	2174.81	19.49296
50.1582	2171.279	13.09785
50.21215	2171.912	13.21111
50.26609	2165.107	13.17233
50.32004	2166.018	13.50909
50.37399	2161.173	16.11404
50.42794	2160.141	17.15517
50.48189	2155.426	16.92283
50.53584	2155.538	19.47671
50.58978	2155.114	15.59985
50.64373	2154.553	17.57808
50.69768	2149.354	17.61447
50.75163	2148.759	14.12404
50.80558	2142.679	13.31212
50.85952	2149.132	14.18047
50.91347	2142.509	13.83973
50.96742	2142.884	16.79433
51.02137	2136.177	13.72836
51.07532	2138.778	17.36274
51.12926	2135.079	16.88541
51.18321	2137.128	15.21058
51.23716	2133.777	18.8631
51.29111	2137.385	19.81367
51.34506	2123.761	16.93287
51.39901	2128.337	15.57729
51.45295	2122.334	15.47766
51.5069	2124.247	17.16859
51.56085	2120.543	15.07522
51.6148	2118.435	15.03076
51.66875	2118.503	16.17545
51.72269	2118.583	16.45942
51.77665	2111.998	13.97358
51.83059	2115.146	16.91674
51.88454	2110.43	14.13738
51.93849	2110.239	12.30656
51.99244	2104.191	18.008
52.04639	2106.394	14.69004
52.10033	2099.169	10.17659
52.15428	2103.552	11.77442
52.20823	2097.425	16.18451
52.26218	2096.67	15.88832
52.31613	2094.307	12.12656
52.37008	2094.097	10.1497
52.42402	2089.226	10.08678
52.47797	2087.74	15.31552
52.53192	2089.001	10.56429
52.58587	2088.559	13.42095
52.63982	2083.828	16.06485
52.69376	2084.861	15.48765
52.74771	2080.719	12.50655
52.80166	2078.458	10.40077
52.85561	2078.264	11.50283
52.90956	2075.578	13.40392
52.9635	2072.813	15.0508
53.01745	2070.966	15.22543
53.0714	2069.671	12.7083
53.12535	2068.891	10.52826
53.1793	2067.082	9.900271
53.23325	2063.572	11.6295
53.28719	2064.802	15.04559
53.34114	2062.199	13.45055
53.39509	2062.284	11.78566
53.44904	2057.725	13.32224
53.50299	2061.964	18.29223
53.55693	2055.625	16.20394
53.61088	2054.912	14.00762
53.66483	2048.58	15.12513
53.71878	2048.409	9.962985
53.77273	2043.313	10.96704
53.82668	2043.362	13.76823
53.88062	2043.646	11.13292
53.93457	2045.936	13.59528
53.98852	2036.728	13.57907
54.04247	2037.339	16.83209
54.09642	2035.803	15.39454
54.15036	2038.09	18.37616
54.20432	2030.318	13.54005
54.25826	2032.305	13.85903
54.31221	2027.268	12.79196
54.36616	2031.31	13.52936
54.4201	2023.646	15.00456
54.47406	2027.586	17.93196
54.528	2020.598	11.63969
54.58195	2023.865	15.46685
54.6359	2014.104	13.26162
54.68985	2019.099	14.50749
54.7438	2011.216	17.07584
54.79774	2014.69	17.82877
54.85169	2007.374	12.64805
54.90564	2013.911	17.34562
54.95959	2003.712	18.4139
55.01354	2005.578	16.67865
55.06749	1999.364	14.04418
55.12143	2001.663	13.76599
55.17538	2000.068	14.16445
55.22933	1999.493	13.07916
55.28328	1995.866	14.48897
55.33723	1996.399	15.61886
55.39117	1991.258	13.71262
55.44512	1992.082	13.98878
55.49907	1982.504	8.159357
55.55302	1986.335	14.90561
55.60697	1978.448	19.50866
55.66092	1984.459	13.46787
55.71486	1975.107	12.24158
55.76881	1979.656	10.35112
55.82276	1977.22	12.32215
55.87671	1976.046	12.49898
55.93066	1968.859	9.599278
55.9846	1971.198	10.80806
56.03855	1967.419	12.32094
56.0925	1967.62	13.8496
56.14645	1962.588	14.85068
56.2004	1966.138	14.40143
56.25434	1966.718	13.02771
56.30829	1963.292	13.02766
56.36224	1961.149	11.7527
56.41619	1960.803	11.37804
56.47014	1958.487	13.42168
56.52409	1955.682	13.95464
56.57803	1954.641	11.69056
56.63198	1951.476	10.43395
56.68593	1950.728	13.6871
56.73988	1946.378	14.21785
56.79383	1946.288	15.05669
56.84777	1943.972	13.69239
56.90172	1945.738	12.51219
56.95567	1940.31	10.5157
57.00962	1941.981	13.2219
57.06357	1936.387	10.72134
57.11752	1937.725	8.782744
57.17146	1934.956	10.9774
57.22541	1936.279	10.50705
57.27936	1930.635	10.29593
57.33331	1929.112	8.652867
57.38726	1921.072	10.39944
57.4412	1923.22	11.89713
57.49516	1920.533	9.34178
57.5491	1923.193	11.51962
57.60305	1917.832	14.98464
57.657	1921.038	13.73096
57.71095	1915.406	10.88725
57.7649	1920.955	10.34158
57.81884	1910.928	13.59464
57.87279	1911.925	15.66339
57.92674	1909.779	11.39302
57.98069	1911.541	8.832185
58.03464	1905.223	9.642792
58.08858	1905.485	15.13747
58.14253	1902.612	14.69715
58.19648	1905.049	13.34714
58.25043	1898.063	13.79638
58.30438	1900.174	14.56403
58.35833	1891.844	13.0692
58.41227	1896.759	13.00265
58.46622	1890.597	13.13038
58.52017	1891.072	12.58369
58.57412	1887.632	15.17867
58.62807	1885.248	15.37959
58.68201	1881.05	16.16829
58.73596	1884.783	14.76628
58.78991	1878.882	14.20986
58.84386	1881.768	13.40783
58.89781	1878.046	10.60647
58.95176	1877.423	9.542376
59.0057	1875.755	9.920489
59.05965	1878.482	10.78137
59.1136	1871.794	13.04268
59.16755	1870.574	11.63352
59.2215	1867.618	8.781811
59.27544	1867.781	9.563774
59.32939	1862.304	11.58701
59.38334	1861.669	12.48499
59.43729	1863.415	11.09973
59.49124	1861.829	12.86665
59.54519	1859.755	13.39076
59.59913	1856.03	11.42339
59.65308	1855.038	12.43585
59.70703	1854.555	11.72744
59.76098	1854.232	12.64518
59.81493	1848.519	13.71325
59.86887	1849.568	12.95982
59.92282	1845.201	11.01168
59.97677	1848.899	12.05627
60.03072	1839.608	12.24956
60.08467	1843.195	10.82245
60.13861	1840.437	10.55833
60.19257	1840.565	12.98196
60.24651	1836.703	13.09448
60.30046	1837.243	9.515665
60.35441	1830.105	11.61683
60.40836	1833.057	10.94904
60.46231	1826.975	13.31931
60.51625	1828.341	15.80738
60.5702	1826.21	12.46823
60.62415	1827.716	11.93628
60.6781	1820.253	11.56952
60.73205	1820.001	13.84874
60.786	1816.908	11.05894
60.83994	1821.295	12.08865
60.89389	1814.524	8.437751
60.94784	1819.649	12.34631
61.00179	1807.494	10.80091
61.05574	1812.512	11.52627
61.10968	1806.232	11.43834
61.16363	1810.073	9.237599
61.21758	1804.002	14.43539
61.27153	1807.121	14.77199
61.32548	1802.539	10.29481
61.37943	1806.642	10.35889
61.43337	1801.57	9.978633
61.48732	1801.073	9.567098
61.54127	1795.417	9.237897
61.59522	1796.276	7.9126
61.64917	1789.13	7.651578
61.70311	1789.998	7.476787
61.75706	1786.721	10.65752
61.81101	1791.733	10.91378
61.86496	1783.667	14.83796
61.91891	1787.749	14.14226
61.97285	1781.798	12.10583
62.0268	1783.097	12.33822
62.08075	1779.65	11.13677
62.1347	1779.795	9.318903
62.18865	1777.077	8.980474
62.2426	1778.167	11.09694
62.29654	1775.738	11.96021
62.35049	1775.67	13.27801
62.40444	1771.558	13.18895
62.45839	1770.819	13.682
62.51234	1770.265	13.89497
62.56628	1769.105	13.90451
62.62024	1768.232	14.31616
62.67418	1764.236	10.51999
62.72813	1765.097	10.07529
62.78208	1761.557	10.9349
62.83603	1764.276	9.855875
62.88998	1759.37	11.93224
62.94392	1761.758	12.70493
62.99787	1755.401	10.43023
63.05182	1757.465	10.902
63.10577	1753.077	10.92394
63.15972	1756.805	13.02142
63.21367	1747.775	12.61395
63.26761	1749.214	12.82858
63.32156	1748.068	9.663621
63.37551	1747.122	11.16756
63.42946	1744.716	12.23505
63.48341	1745.756	15.26707
63.53735	1739.769	11.1086
63.5913	1745.278	16.25046
63.64525	1735.476	12.07344
63.6992	1737.499	9.466469
63.75315	1735.482	12.53331
63.80709	1739.534	14.07335
63.86104	1734.776	6.426239
63.91499	1737.474	8.343396
63.96894	1729.825	10.74457
64.02289	1734.788	15.24579
64.07684	1727.875	10.62489
64.13078	1729.582	10.68478
64.18473	1727.265	11.19716
64.23868	1729.868	8.840248
64.29263	1722.509	9.53766
64.34657	1726.096	13.47048
64.40053	1719.844	8.7818
64.45448	1719.703	12.71234
64.50842	1715.334	9.783528
64.56237	1720.629	12.94368
64.61632	1714.762	11.82029
64.67027	1716.802	7.610776
64.72421	1708.316	11.53921
64.77816	1711.982	8.009382
64.83211	1706.545	9.608899
64.88605	1710.573	10.83213
64.94001	1709.892	12.12845
64.99396	1712.187	9.563206
65.0479	1706.584	11.49497
65.10185	1710.731	11.29907
65.1558	1706.683	10.52079
65.20975	1710.147	11.50981
65.26369	1707.762	11.01005
65.31764	1706.146	12.61556
65.37159	1703.039	10.99569
65.42554	1704.144	10.72794
65.47949	1704.146	9.87286
65.53344	1705.371	9.374829
65.58739	1705.248	9.798091
65.64133	1704.199	10.56423
65.69528	1704.782	13.26354
65.74923	1703.69	12.55652
65.80318	1705.917	10.63408
65.85712	1703.64	12.30725
65.91107	1705.502	13.51497
65.96502	1702.53	8.390909
66.01897	1705.488	9.369536
66.07292	1704.058	7.885577
66.12687	1708.461	4.45837
66.18082	1701.889	10.34577
66.23476	1709.18	9.899969
66.28871	1704.952	11.86319
66.34266	1708.787	10.57368
66.39661	1705.041	11.06927
66.45055	1711.207	8.397896
66.5045	1705.87	5.652318
66.55846	1714.092	3.5627
66.6124	1706.723	7.501429
66.66635	1715.077	10.86834
66.7203	1710.954	8.596676
66.77425	1718.353	9.387859
66.82819	1708.786	4.922335
66.88214	1713.807	7.241711
66.93609	1714.897	8.763111
66.99004	1722.743	9.17909
67.04398	1716.645	6.794531
67.09794	1725.018	6.418547
67.15189	1724.141	14.89054
67.20583	1730.178	11.87103
67.25978	1727.475	5.259946
67.31373	1732.339	6.71761
67.36768	1735.158	7.50258
67.42162	1743.528	6.688796
67.47557	1735.577	6.798422
67.52952	1745.904	8.895873
67.58347	1748.176	8.84464
67.63742	1756.609	7.542056
67.69137	1753.973	8.185465
67.74532	1763.935	10.72309
67.79926	1760.979	8.857596
67.85321	1771.197	8.239817
67.90716	1772.517	10.1409
67.96111	1780.768	10.26959
68.01505	1781.703	7.086689
68.069	1794.053	4.716955
68.12295	1787.751	10.84683
68.1769	1800.148	6.616545
68.23085	1804.978	7.105937
68.2848	1815.625	7.242408
68.33875	1816.058	6.475678
68.39269	1825.531	7.53911
68.44664	1832.446	7.366238
68.50059	1837.383	6.525304
68.55453	1841.637	5.8305
68.60848	1852.506	7.549148
68.66243	1857.711	5.067318
68.71638	1867.287	6.855922
68.77033	1876.656	6.669997
68.82428	1886.458	3.408004
68.87823	1893.792	4.68042
68.93217	1903.099	7.428528
68.98612	1912.792	7.244899
69.04007	1920.861	4.760196
69.09402	1932.245	7.377949
69.14796	1943.587	9.997061
69.20191	1955.692	8.313621
69.25587	1963.816	8.168114
69.30981	1977.639	5.525797
69.36376	1985.682	5.777066
69.41771	2001.818	5.062185
69.47166	2009.748	3.626491
69.5256	2028.735	7.090952
69.57955	2031.328	6.070233
69.6335	2050.917	7.716673
69.68745	2054.006	7.203133
69.74139	2074.408	9.038305
69.79534	2083.212	8.9314
69.8493	2104.676	4.033874
69.90324	2114.546	7.823568
69.95719	2136.906	9.314236
70.01114	2144.833	10.70156
70.06509	2168.258	9.959908
70.11903	2172.396	3.550472
70.17298	2196.998	0.4282418
70.22693	2205.735	6.74213
70.28088	2226.039	8.481721
70.33482	2237.134	6.055989
70.38878	2262.593	5.649057
70.44273	2274.904	7.843709
70.49667	2299.812	4.688707
70.55062	2309.54	5.533069
70.60457	2335.459	6.966088
70.65852	2349.643	9.935287
70.71246	2378.43	6.794977
70.76641	2388.442	7.952299
70.82036	2414.746	5.013861
70.87431	2427.832	11.3225
70.92826	2460.03	9.395678
70.98221	2468.491	7.719834
71.03616	2500.783	3.737896
71.0901	2511.713	7.263886
71.14405	2544.712	4.970008
71.198	2557.244	12.66551
71.25195	2590.273	6.665634
71.30589	2602.445	12.01118
71.35984	2637.384	11.37388
71.41379	2652.536	5.977536
71.46774	2681.896	7.813123
71.52169	2702.994	11.16663
71.57564	2734.56	15.68131
71.62959	2751.66	14.4061
71.68353	2781.438	16.02912
71.73748	2804.501	21.45155
71.79143	2831.865	16.7466
71.84538	2859.754	12.22378
71.89932	2891.988	12.88313
71.95327	2918.01	12.45286
72.00723	2944.241	12.2525
72.06117	2972.913	12.84147
72.11512	2999.608	14.13064
72.16907	3030.714	12.84972
72.22301	3051.124	11.77343
72.27696	3078.422	13.21787
72.33091	3105.446	18.38231
72.38486	3139	16.56535
72.4388	3151.3	20.84988
72.49275	3185.967	21.55809
72.54671	3198.869	12.08338
72.60065	3230.55	9.797129
72.6546	3245.178	14.03741
72.70855	3278.167	7.813257
72.7625	3280.505	15.64116
72.81644	3310.569	11.82602
72.87039	3325.675	11.91225
72.92434	3357.948	2.021536
72.97829	3364.544	15.65085
73.03223	3387.164	13.62902
73.08619	3396.138	7.870832
73.14014	3418.953	11.70499
73.19408	3423.324	13.03695
73.24803	3444.719	12.50226
73.30198	3448.095	8.812273
73.35593	3472.808	10.7167
73.40987	3468.752	12.82139
73.46382	3492.97	11.61719
73.51777	3491.062	11.86386
73.57172	3515.847	14.15826
73.62567	3512.213	11.12167
73.67962	3537.874	12.66972
73.73357	3530.052	10.25273
73.78751	3553.742	11.15066
73.84146	3546.676	10.74377
73.89541	3564.683	12.77306
73.94936	3551.529	11.61987
74.0033	3573.1	16.68171
74.05725	3569.591	15.04105
74.1112	3590.615	15.15905
74.16515	3581.388	14.41722
74.2191	3602.422	13.27757
74.27305	3590.65	13.75477
74.327	3608.395	15.19533
74.38094	3610.76	14.37882
74.43489	3620.5	12.72649
74.48884	3622.586	10.75833
74.54279	3626.415	8.787911
74.59673	3624.145	10.22563
74.65068	3635.219	10.60817
74.70464	3638.849	12.0226
74.75858	3639.01	15.05417
74.81253	3651.55	16.90808
74.86648	3650.533	18.90724
74.92043	3660.369	17.93454
74.97437	3654.634	14.57917
75.02832	3672.918	11.46679
75.08227	3662.273	13.49412
75.13622	3680.634	7.871473
75.19016	3668.56	8.176058
75.24412	3693.628	5.467052
75.29807	3667.66	5.099185
75.35201	3690.8	5.380738
75.40596	3675.251	8.848031
75.45991	3692.226	8.750105
75.51385	3677.131	12.25991
75.5678	3697.793	12.23686
75.62175	3687.209	10.04499
75.6757	3707.239	11.45097
75.72964	3690.361	13.71761
75.7836	3707.416	15.06703
75.83755	3692.484	14.42138
75.89149	3718.535	13.53427
75.94544	3704.515	11.86658
75.99939	3719.18	8.965835
76.05334	3699.414	14.47884
76.10728	3720.796	13.30159
76.16123	3705.349	12.41285
76.21518	3727.553	15.96145
76.26913	3713.488	14.51829
76.32308	3725.325	9.583854
76.37703	3715.979	11.37769
76.43098	3732.271	12.8669
76.48492	3730.549	14.37584
76.53887	3733.73	13.22582
76.59282	3734.585	9.029778
76.64677	3738.453	8.726414
76.70071	3739.822	13.38674
76.75466	3733.612	14.31086
76.80861	3746.037	13.76794
76.86256	3734.524	13.8621
76.91651	3748.68	9.730804
76.97046	3740.435	13.87027
77.02441	3760.015	19.58604
77.07835	3744.32	12.06318
77.1323	3761.052	15.77237
77.18625	3743.465	9.313599
77.2402	3761.163	10.6166
77.29414	3748.891	14.17593
77.34809	3764.234	14.42402
77.40205	3746.615	17.27281
77.45599	3765.921	12.056
77.50994	3744.238	11.12549
77.56389	3763.648	10.94968
77.61784	3742.1	10.21326
77.67178	3761.811	13.5763
77.72573	3745.973	8.847391
77.77968	3764.06	8.580826
77.83363	3752.667	14.76692
77.88757	3769.203	8.427817
77.94153	3745.552	15.66243
77.99548	3768.509	13.65671
78.04942	3760.025	15.81565
78.10337	3769.935	15.15703
78.15732	3762.371	14.8481
78.21127	3764.348	13.28942
78.26521	3767.591	14.17975
78.31916	3769.846	17.64082
78.37311	3773.02	15.13751
78.42706	3768.783	15.06282
78.48101	3781.836	16.61017
78.53496	3772.668	12.15072
78.58891	3790.546	18.47624
78.64285	3770.544	18.54174
78.6968	3785.053	20.25399
78.75075	3768.167	16.6459
78.8047	3791.454	16.75389
78.85864	3771.347	15.22995
78.91259	3785.96	18.88242
78.96654	3769.542	14.67165
79.02048	3796.142	23.4885
79.07444	3771.509	19.05989
79.12839	3790.221	22.5253
79.18233	3770.014	16.95291
79.23628	3786.167	17.31936
79.29023	3768.126	18.79106
79.34418	3783.886	16.11817
79.39812	3767.463	16.46235
79.45207	3789.008	15.53265
79.50602	3768.636	14.06285
79.55997	3786.643	9.46567
79.61392	3767.196	13.73695
79.66787	3787.819	11.69325
79.72182	3763.99	14.27683
79.77576	3779.867	16.43167
79.82971	3761.427	15.60514
79.88366	3778.414	8.515304
79.93761	3764.834	13.87641
79.99155	3778.14	13.70597
80.0455	3771.928	11.04978
80.09945	3785.403	10.99479
80.1534	3776.067	12.22943
80.20735	3786.342	12.53941
80.2613	3784.751	12.01414
80.31525	3781.07	11.68069
80.36919	3785.94	11.6203
80.42314	3777.491	11.47752
80.47709	3785.613	8.838359
80.53104	3780.906	9.459919
80.58498	3794.177	12.21862
80.63893	3780.014	7.528153
80.69289	3794.635	6.012743
80.74683	3780.662	10.71912
80.80078	3799.763	8.381449
80.85473	3778.992	12.53486
80.90868	3796.716	18.00579
80.96262	3773.177	8.262776
81.01657	3792.689	19.23747
81.07052	3775.243	4.347795
81.12447	3793.127	12.58243
81.17841	3775.374	11.61969
81.23237	3800.053	10.32141
81.28632	3776.137	17.07953
81.34026	3794.361	20.62063
81.39421	3773.503	17.9751
81.44816	3790.289	11.61629
81.50211	3773.477	9.6585
81.55605	3792.04	11.48035
81.61	3777.673	12.40583
81.66395	3796.388	11.65849
81.7179	3776.349	11.22572
81.77185	3789.108	11.03497
81.8258	3772.675	9.921879
81.87975	3792.602	9.085017
81.93369	3774.555	20.34201
81.98764	3794.602	15.49083
82.04159	3775.662	11.9267
82.09554	3793.812	12.92129
82.14948	3782.319	13.90968
82.20343	3795.82	10.94708
82.25738	3785.989	17.38783
82.31133	3801.276	15.37711
82.36528	3800.589	13.01074
82.41923	3801.226	8.56949
82.47318	3798.426	8.191675
82.52712	3796.546	12.8026
82.58107	3806.768	10.91404
82.63502	3804.046	7.26012
82.68896	3807.53	9.35802
82.74291	3803.493	14.53501
82.79686	3810.588	13.83569
82.85081	3798.752	12.02413
82.90476	3816.823	10.17696
82.95871	3794.381	13.62901
83.01266	3812.297	15.59052
83.0666	3801.526	10.18743
83.12055	3822.497	9.682126
83.1745	3794.331	11.03635
83.22845	3814.496	5.897522
83.28239	3799.655	11.32359
83.33634	3823.341	12.20326
83.3903	3805.343	15.76968
83.44424	3827.167	8.206683
83.49819	3806.618	11.08529
83.55214	3826.452	13.50128
83.60609	3802.483	9.238205
83.66003	3827.888	16.64833
83.71398	3806.137	11.15707
83.76793	3830.431	8.427746
83.82188	3805.846	10.49559
83.87582	3825.561	15.24035
83.92978	3798.101	16.38597
83.98373	3822.529	17.78297
84.03767	3798.912	17.00225
84.09162	3813.256	15.36006
84.14557	3798.076	21.35771
84.19952	3818.216	15.10302
84.25346	3792.491	14.03732
84.30741	3818.586	15.69185
84.36136	3798.432	12.86396
84.41531	3812.671	12.59287
84.46926	3793.48	20.63491
84.52321	3813.656	18.15307
84.57716	3799.452	11.96395
84.6311	3809.905	11.77166
84.68505	3799.063	14.86075
84.739	3810.376	15.98966
84.79295	3807.61	13.97777
84.84689	3809.059	14.09323
84.90084	3807.265	12.15941
84.95479	3802.505	8.876235
85.00874	3820.154	9.830442
85.06269	3807.852	12.30779
85.11664	3814.957	11.37712
85.17059	3801.648	6.374228
85.22453	3814.542	5.996013
85.27848	3797.543	14.94051
85.33243	3818.225	7.93983
85.38638	3788.73	8.028509
85.44032	3811.845	3.428202
85.49427	3789.272	7.365867
85.54823	3807.109	7.911969
85.60217	3784.697	8.965639
85.65612	3802.636	10.53791
85.71007	3784.386	5.658885
85.76402	3797.915	9.790029
85.81796	3769.975	13.34837
85.87191	3788.924	8.401868
85.92586	3775.774	7.717016
85.9798	3798.365	6.11741
86.03375	3764.489	7.342204
86.08771	3790.518	10.54299
86.14165	3761.145	11.95828
86.1956	3779.896	10.18008
86.24955	3762.763	6.417238
86.3035	3775.153	12.09489
86.35744	3748.836	13.8107
86.41139	3768.34	12.69872
86.46534	3746.395	10.21669
86.51929	3765.319	7.609885
86.57323	3742.794	9.992818
86.62719	3765.079	15.25111
86.68114	3740.594	10.31272
86.73508	3765.082	14.7755
86.78903	3725.233	10.00343
86.84298	3748.941	9.192007
86.89693	3726.463	10.78256
86.95087	3742.349	9.859747
87.00482	3718.368	11.49827
87.05877	3736.928	8.460833
87.11272	3706.101	18.74777
87.16667	3726.03	10.77481
87.22062	3708.753	11.05006
87.27457	3725.126	6.444242
87.32851	3710.732	12.09074
87.38246	3719	14.02293
87.43641	3701.867	13.88105
87.49036	3707.709	15.35534
87.5443	3699.774	13.61922
87.59825	3702.255	9.811958
87.6522	3693.549	12.27403
87.70615	3690.034	10.94455
87.7601	3685.725	11.2483
87.81405	3689.659	9.847876
87.868	3688.769	7.580902
87.92194	3679.339	7.651889
87.97589	3685.209	8.058053
88.02984	3673.164	7.911504
88.08379	3672.795	8.112211
88.13773	3662.118	12.21196
88.19168	3672.083	11.08836
88.24563	3663.2	10.00331
88.29958	3676.087	7.838053
88.35353	3653.531	10.67453
88.40748	3663.751	7.640432
88.46143	3642.625	7.059241
88.51537	3663.14	5.929549
88.56932	3637.571	12.38252
88.62327	3657.634	10.36089
88.67722	3628.918	13.68411
88.73116	3650.607	14.96159
88.78511	3626.522	9.503759
88.83907	3643.49	8.354688
88.89301	3616.674	14.95013
88.94696	3633.973	13.19146
89.00091	3606.226	13.99935
89.05486	3625.903	14.32524
89.1088	3602.185	12.30406
89.16275	3615.804	11.61875
89.2167	3590.144	10.4595
89.27065	3607.337	7.006554
89.32459	3589.492	11.57578
89.37855	3609.805	10.8118
89.4325	3576.8	12.33949
89.48644	3594.994	5.43568
89.54039	3573.472	8.853876
89.59434	3591.086	8.503651
89.64828	3563.757	9.285346
89.70223	3582.246	11.13816
89.75618	3553.471	13.3114
89.81013	3568.701	8.388439
89.86407	3546.953	14.21689
89.91803	3561.966	8.66788
89.97198	3540.971	7.130199
90.02592	3557.893	5.544741
90.07987	3526.955	15.24288
90.13382	3543.537	9.743473
90.18777	3521.793	10.09163
90.24171	3540.509	8.868547
90.29566	3509.732	6.663022
90.34961	3525.659	2.10874
90.40356	3509.857	9.53858
90.45751	3522.069	8.004462
90.51146	3499.979	12.23871
90.56541	3515.051	4.334229
90.61935	3493.47	10.72022
90.6733	3507.458	11.52505
90.72725	3483.338	14.12227
90.7812	3496.798	11.38118
90.83514	3483.57	10.30136
90.88909	3492.103	7.892813
90.94304	3477.919	12.05683
90.99699	3480.132	9.478318
91.05094	3472.258	9.410898
91.10489	3473.405	8.714037
91.15884	3458.708	10.66595
91.21278	3459.976	14.83531
91.26673	3456.408	16.52416
91.32068	3455.432	10.21759
91.37463	3454.82	8.59155
91.42857	3446.113	11.03916
91.48252	3445.788	14.20342
91.53648	3437.239	17.50118
91.59042	3444.551	13.44441
91.64437	3429.639	14.34948
91.69832	3438.585	18.05265
91.75227	3421.087	14.53432
91.80621	3431.718	7.938106
91.86016	3412.799	6.38982
91.91411	3435.107	8.930993
91.96806	3402.895	13.79869
92.022	3429.224	8.809034
92.07596	3399.61	12.28092
92.12991	3415.342	1.718754
92.18385	3388.21	14.91535
92.2378	3402.515	10.15615
92.29175	3376.345	14.85627
92.3457	3401.358	14.66325
92.39964	3375.063	11.46301
92.45359	3393.402	7.144884
92.50754	3368.738	10.88999
92.56149	3384.961	7.065505
92.61544	3354.698	8.598577
92.66939	3368.66	6.360754
92.72334	3348.229	14.88101
92.77728	3364.366	7.977639
92.83123	3333.927	17.85425
92.88518	3355.079	13.63919
92.93913	3326.974	14.9732
92.99307	3350.943	8.276923
93.04702	3320.82	20.0204
93.10097	3332.93	7.563973
93.15492	3308.313	5.698576
93.20887	3323.165	4.489872
93.26282	3294.714	12.54884
93.31676	3323.125	4.891382
93.37071	3297.716	11.09398
93.42466	3312.622	7.283802
93.47861	3283.372	12.325
93.53255	3300.813	5.63926
93.5865	3274.413	18.21875
93.64045	3287.517	8.268142
93.6944	3269.821	19.43322
93.74835	3284.934	15.78985
93.8023	3256.68	17.83358
93.85625	3273.295	11.01954
93.91019	3248.542	10.48787
93.96414	3267.677	7.626147
94.01809	3243.672	11.55078
94.07204	3260.048	10.99061
94.12598	3233.813	13.11882
94.17993	3259.234	12.73292
94.23389	3231.811	17.03041
94.28783	3248.576	10.84718
94.34178	3226.478	17.65708
94.39573	3240.563	9.405021
94.44968	3219.812	11.30209
94.50362	3200.688	13.56522
94.55757	3224.839	7.616348
94.61152	3202.425	12.68159
94.66547	3192.441	10.493
94.71941	3210.34	14.29389
94.77337	3209.596	7.452233
94.82732	3202.914	10.56634
94.88126	3196.042	7.302405
94.93521	3173.465	10.79377
94.98916	3166.162	13.54624
