T[Â°C]	350nm [counts / mm]	S.D.
20.00115	3073.511	21.28091
20.0551	3067.602	22.80661
20.10905	3067.422	21.19938
20.16299	3063.928	21.85556
20.21694	3061.17	19.66364
20.27089	3057.427	24.55319
20.32484	3058.088	23.28668
20.37879	3053.444	25.9223
20.43274	3044.842	20.93797
20.48668	3048.766	24.45287
20.54063	3048.058	21.93149
20.59458	3045.281	21.8883
20.64853	3040.447	25.01931
20.70248	3040.93	27.03999
20.75643	3032.937	21.42318
20.81037	3031.846	17.7162
20.86432	3027.129	21.10974
20.91827	3025.836	21.24926
20.97222	3024.226	18.05752
21.02617	3024.627	23.12028
21.08011	3020.351	25.81017
21.13406	3017.302	25.13449
21.18801	3014.604	23.24402
21.24196	3011.748	19.18352
21.29591	3011.619	22.65174
21.34986	3010.117	25.79798
21.4038	3007.156	23.8577
21.45775	3003.573	23.8383
21.5117	3000.151	26.15336
21.56565	3000.028	20.89139
21.6196	2996.542	24.65225
21.67354	2994.395	25.33978
21.72749	2990.798	24.00105
21.78144	2987.968	23.07569
21.83539	2984.973	22.18735
21.88934	2983.614	21.91687
21.94328	2985.311	23.95573
21.99723	2981.862	24.49769
22.05118	2978.198	18.35335
22.10513	2978.034	23.04903
22.15908	2975.158	23.29519
22.21303	2971.929	25.33574
22.26698	2968.365	22.05103
22.32092	2966.604	20.89125
22.37487	2964.301	18.22396
22.42882	2963.594	21.23538
22.48277	2962.833	19.93771
22.53672	2957.807	26.46397
22.59066	2954.282	23.25535
22.64461	2947.463	23.51309
22.69856	2948.24	25.37537
22.75251	2949.263	27.61134
22.80646	2947.802	26.41695
22.8604	2945.895	23.75469
22.91435	2940.774	21.92766
22.9683	2939.78	19.21324
23.02225	2936.056	21.76617
23.0762	2931.822	24.90891
23.13015	2930.627	22.75254
23.18409	2930.523	21.75751
23.23804	2926.426	22.51195
23.29199	2921.482	19.9784
23.34594	2918.99	20.14675
23.39989	2920.396	20.50292
23.45383	2919.986	20.53779
23.50778	2915.555	20.48414
23.56173	2913.383	18.71981
23.61568	2911.292	20.08593
23.66963	2907.52	21.82133
23.72358	2907.048	21.11378
23.77752	2903.204	24.03762
23.83147	2898.409	24.72307
23.88542	2898.587	23.59796
23.93937	2895.921	23.8668
23.99332	2890.691	19.88198
24.04727	2885.938	20.39942
24.10121	2889.079	19.56864
24.15516	2883.147	16.35368
24.20911	2882.302	18.17203
24.26306	2881.613	17.11237
24.31701	2881.176	17.73625
24.37095	2875.308	19.78137
24.4249	2876.801	20.10369
24.47885	2872.675	21.32634
24.5328	2873.533	18.38712
24.58675	2871.222	22.37834
24.6407	2868.678	16.30555
24.69464	2867.624	21.48856
24.74859	2862.171	20.12806
24.80254	2863.225	21.23047
24.85649	2858.74	20.66132
24.91044	2855.732	24.33984
24.96439	2848.85	22.50989
25.01833	2846.98	26.32518
25.07228	2848.664	23.61254
25.12623	2845.068	18.65601
25.18018	2843.419	24.2283
25.23413	2843.187	24.87167
25.28807	2841.149	21.88887
25.34202	2838.565	17.85312
25.39597	2835.241	23.10765
25.44992	2835.549	21.40836
25.50387	2829.304	19.69286
25.55782	2826.704	20.42844
25.61176	2823.949	16.51023
25.66571	2822.814	18.08281
25.71966	2817.846	22.53194
25.77361	2819.87	20.13087
25.82756	2812.964	23.50931
25.8815	2813.281	25.98891
25.93545	2808.637	18.06847
25.9894	2809.525	20.11037
26.04335	2808.669	17.97649
26.0973	2804.347	18.4349
26.15125	2803.676	19.46998
26.20519	2799.158	21.72219
26.25914	2797.936	18.80732
26.31309	2794.988	17.24861
26.36704	2794.371	12.93649
26.42099	2791.891	16.00981
26.47494	2787.362	19.47958
26.52888	2786.707	18.06273
26.58283	2783.791	18.0328
26.63678	2782.441	19.96702
26.69073	2781.403	23.21706
26.74468	2779.051	18.1908
26.79862	2776.553	17.82801
26.85257	2776.084	20.40864
26.90652	2772.784	17.83027
26.96047	2767.985	19.05051
27.01442	2764.162	20.26729
27.06837	2761.409	19.06373
27.12231	2758.711	19.78505
27.17626	2758.322	19.65161
27.23021	2757.229	18.5633
27.28416	2751.315	21.16681
27.33811	2748.486	23.31412
27.39205	2748.636	19.80294
27.446	2745.584	19.09617
27.49995	2745.5	20.47467
27.5539	2742.243	21.10102
27.60785	2742.691	22.42713
27.66179	2740.457	17.75247
27.71574	2736.845	16.00404
27.76969	2735.803	18.05468
27.82364	2732.409	19.33956
27.87759	2731.213	20.838
27.93154	2729.309	17.99696
27.98549	2728.913	20.41799
28.03943	2723.883	18.36799
28.09338	2723.109	16.48962
28.14733	2719.192	22.20037
28.20128	2716.239	23.85413
28.25523	2711.598	18.71904
28.30917	2712.309	19.38551
28.36312	2709.189	21.67274
28.41707	2704.256	22.61429
28.47102	2707.868	22.2416
28.52497	2707.672	22.74259
28.57891	2699.802	23.36325
28.63286	2702.519	22.36853
28.68681	2692.33	20.27877
28.74076	2689.904	15.91965
28.79471	2693.298	15.5275
28.84866	2687.625	17.31384
28.90261	2686.145	15.12562
28.95655	2687.937	18.74574
29.0105	2684.833	20.68031
29.06445	2680.299	17.28033
29.1184	2682.486	18.36554
29.17235	2676.75	17.47862
29.22629	2672.621	22.42433
29.28024	2668.238	17.93618
29.33419	2668.637	18.61725
29.38814	2667.534	22.13698
29.44209	2664.761	20.86317
29.49603	2663.93	22.2561
29.54998	2660.336	16.87119
29.60393	2657.706	18.47105
29.65788	2654.794	20.49571
29.71183	2653.24	18.7682
29.76578	2653.321	15.78991
29.81972	2650.006	17.50949
29.87367	2649.273	20.56982
29.92762	2649.889	18.61448
29.98157	2638.688	19.52211
30.03552	2640.603	17.50733
30.08946	2633.846	18.04011
30.14341	2635.173	18.52019
30.19736	2635.481	19.36073
30.25131	2630.39	19.21631
30.30526	2627.315	18.54783
30.35921	2625.585	19.07438
30.41315	2625.187	18.63761
30.4671	2622.055	17.32837
30.52105	2617.524	15.70535
30.575	2616.289	15.53085
30.62895	2614.402	18.6856
30.6829	2612.563	19.7063
30.73684	2611.073	21.38574
30.79079	2611.579	18.99129
30.84474	2608.857	16.82949
30.89869	2604.648	16.18709
30.95264	2600.714	15.80345
31.00658	2599.624	18.71643
31.06053	2599.017	19.52362
31.11448	2595.102	20.18797
31.16843	2592.608	20.94678
31.22238	2593.478	18.23404
31.27633	2593.408	20.37723
31.33027	2590.195	20.82158
31.38422	2587.533	21.0062
31.43817	2583.682	20.6006
31.49212	2583.524	22.15406
31.54607	2575.822	20.87843
31.60001	2577.104	22.05557
31.65396	2574.938	18.47081
31.70791	2573.59	23.18364
31.76186	2569.715	23.69203
31.81581	2566.236	20.82076
31.86975	2565.979	20.93365
31.9237	2563.941	19.99742
31.97765	2560.469	15.09127
32.0316	2559.051	15.36684
32.08555	2560.112	18.22802
32.1395	2557.054	21.33488
32.19344	2554.588	20.38062
32.24739	2551.569	20.38716
32.30134	2548.718	19.01504
32.35529	2550.369	20.76815
32.40924	2543.155	18.16333
32.46318	2542.286	15.95018
32.51714	2539.309	18.64923
32.57108	2538.663	19.87683
32.62503	2537.514	17.11145
32.67898	2532.163	20.94499
32.73293	2530.733	18.04404
32.78688	2529.784	21.715
32.84082	2523.562	15.01092
32.89477	2521.671	15.9912
32.94872	2520.713	20.84059
33.00267	2519.144	20.12033
33.05662	2518.147	17.47691
33.11057	2518.533	19.62938
33.16451	2513.057	19.17544
33.21846	2512.804	19.18434
33.27241	2509.014	16.03443
33.32636	2510.213	18.69047
33.38031	2505.174	15.40407
33.43425	2505.486	19.74051
33.4882	2501.758	17.95354
33.54215	2498.718	16.11025
33.5961	2492.675	19.28784
33.65005	2491.956	16.62064
33.70399	2488.419	15.99113
33.75794	2486.621	18.1403
33.81189	2485.427	15.4725
33.86584	2483.792	18.69299
33.91979	2479.891	18.95401
33.97374	2480.481	17.47253
34.02768	2478.21	17.00626
34.08163	2477.164	18.18717
34.13558	2472.913	17.07275
34.18953	2471.73	16.30929
34.24348	2470.802	19.58862
34.29742	2468.576	19.90787
34.35137	2468.407	20.0663
34.40532	2466.989	18.95115
34.45927	2464.411	19.33785
34.51322	2462.925	18.48535
34.56717	2459.793	19.54726
34.62111	2457.83	21.19494
34.67506	2455.838	21.29771
34.72901	2450.994	21.93028
34.78296	2447.488	21.66949
34.83691	2446.828	18.24701
34.89085	2445.875	17.34246
34.94481	2442.473	20.8067
34.99875	2439.866	18.77262
35.0527	2439.065	16.0501
35.10665	2439.158	16.6071
35.16059	2433.889	19.84392
35.21455	2432.951	17.92035
35.26849	2430.048	17.07528
35.32244	2427.744	17.78252
35.37639	2425.11	15.37069
35.43034	2426.604	13.00976
35.48429	2418.671	16.59826
35.53823	2420.358	16.17774
35.59218	2414.711	18.25893
35.64613	2413.612	19.51476
35.70008	2410.398	19.88385
35.75403	2410.97	16.9966
35.80798	2405.945	13.43844
35.86192	2406.896	16.5334
35.91587	2404.471	20.59314
35.96982	2406.171	20.36778
36.02377	2401.217	12.57879
36.07772	2399.579	18.92084
36.13166	2396.149	18.45614
36.18561	2396.778	20.97123
36.23956	2392.282	20.8797
36.29351	2392.813	19.84614
36.34746	2389.375	15.9987
36.40141	2389.273	18.24329
36.45535	2381.684	16.42774
36.5093	2383.126	16.72345
36.56325	2380.319	16.97099
36.6172	2382.267	18.58321
36.67115	2376.826	19.32404
36.72509	2371.704	15.5232
36.77904	2370.869	18.22418
36.83299	2368.384	19.50764
36.88694	2365.759	15.35502
36.94089	2366.939	17.01342
36.99483	2357.256	16.18877
37.04878	2358.917	14.47953
37.10273	2360.885	18.50886
37.15668	2356.723	12.73102
37.21063	2351.851	15.49412
37.26458	2352.998	16.85848
37.31852	2349.737	16.94728
37.37247	2348.936	17.13642
37.42642	2343.27	15.13333
37.48037	2346.552	17.17004
37.53432	2340.45	21.67924
37.58826	2341.588	13.80948
37.64222	2332.157	9.84378
37.69616	2336.581	13.15044
37.75011	2332.837	18.16023
37.80406	2332.192	20.66379
37.85801	2328.277	22.01332
37.91196	2327.284	20.76389
37.9659	2323.999	17.90796
38.01985	2322.872	18.49543
38.0738	2319.962	18.21616
38.12775	2319.073	17.35423
38.18169	2316.622	21.40459
38.23565	2315.33	19.2275
38.28959	2312.395	18.47567
38.34354	2311.285	19.08898
38.39749	2310.121	18.20779
38.45144	2307.626	17.85242
38.50539	2304.017	17.4198
38.55933	2300.953	18.16329
38.61328	2300.553	17.65965
38.66723	2299.223	13.12898
38.72118	2297.753	11.39617
38.77513	2293.836	15.59919
38.82907	2292.255	18.39052
38.88302	2290.283	18.83851
38.93697	2291.465	17.43628
38.99092	2286.349	15.86532
39.04487	2282.744	17.37555
39.09882	2282.826	14.99783
39.15276	2281.816	14.80889
39.20671	2275.939	16.50362
39.26066	2276.573	15.38584
39.31461	2272.898	17.36005
39.36856	2271.898	15.28036
39.4225	2269.513	16.6047
39.47645	2271.042	22.93148
39.5304	2265.873	21.14996
39.58435	2261.607	19.44534
39.6383	2259.27	18.55672
39.69225	2264.365	20.13468
39.74619	2260.285	16.67936
39.80014	2259.413	15.37564
39.85409	2253.406	17.583
39.90804	2254.407	19.85626
39.96199	2249.3	14.9353
40.01593	2251.602	17.53243
40.06988	2243.115	14.1989
40.12383	2242.064	14.72101
40.17778	2240.651	8.879189
40.23173	2239.186	11.88354
40.28568	2232.877	13.18345
40.33962	2235.812	10.78899
40.39357	2230.397	14.2817
40.44752	2230.231	16.16163
40.50147	2229.192	14.19697
40.55542	2229.696	13.71027
40.60936	2223.087	14.86913
40.66331	2223.962	15.40257
40.71726	2215.993	19.30098
40.77121	2216.768	15.73396
40.82516	2214.997	16.35407
40.8791	2217.247	15.99561
40.93306	2209.515	16.01939
40.987	2212.408	14.03902
41.04095	2207.461	12.75843
41.0949	2210.754	17.54981
41.14885	2205.225	16.76878
41.2028	2206.229	18.56889
41.25674	2199.798	15.04579
41.31069	2198.116	17.77496
41.36464	2190.957	12.95574
41.41859	2193.655	16.17572
41.47254	2191.818	15.68864
41.52649	2192.027	14.07071
41.58043	2190.381	17.44176
41.63438	2188.07	18.36737
41.68833	2183.466	16.9787
41.74228	2181.615	16.17708
41.79623	2176.449	18.48304
41.85017	2176.274	16.43375
41.90412	2175.994	14.88041
41.95807	2175.686	14.59298
42.01202	2172.613	13.8089
42.06597	2170.6	16.24466
42.11992	2168.315	17.53131
42.17386	2166.462	16.25732
42.22781	2165.71	14.90153
42.28176	2162.223	16.06531
42.33571	2160.733	17.39449
42.38966	2157.723	15.43811
42.4436	2157.364	16.59305
42.49755	2151.876	15.1989
42.5515	2152.013	13.42555
42.60545	2151.141	14.58807
42.6594	2149.087	17.12124
42.71334	2145.054	15.71205
42.76729	2141.43	16.31538
42.82124	2139.113	15.52564
42.87519	2143.603	14.70039
42.92914	2136.885	15.87895
42.98309	2140.215	12.02142
43.03703	2136.964	14.10193
43.09098	2138.905	14.0803
43.14493	2129.111	16.06616
43.19888	2129.862	14.2658
43.25283	2123.361	13.26503
43.30677	2126.781	17.13185
43.36073	2124.098	12.68234
43.41467	2122.78	17.18051
43.46862	2116.417	12.29278
43.52257	2117.257	15.30261
43.57652	2111.974	10.73282
43.63047	2114.202	11.66072
43.68441	2106.819	16.79438
43.73836	2108.718	13.87011
43.79231	2106.308	15.03431
43.84626	2106.788	16.17648
43.90021	2101.156	17.53112
43.95415	2105.201	12.22676
44.0081	2100.471	14.24861
44.06205	2098.785	14.4554
44.116	2093.43	13.93429
44.16995	2095.357	14.28658
44.2239	2090.586	16.02966
44.27784	2093.237	14.2764
44.33179	2085.842	17.73229
44.38574	2087.291	17.96152
44.43969	2084.244	17.22352
44.49364	2084.376	16.03912
44.54758	2077.116	12.35855
44.60153	2076.362	13.43065
44.65548	2073.503	15.61716
44.70943	2075.566	16.31596
44.76338	2070.121	13.91363
44.81733	2067.917	17.31068
44.87127	2069.678	17.54639
44.92522	2067.694	16.13627
44.97917	2064.83	16.39794
45.03312	2064.256	15.56151
45.08707	2059.572	16.47339
45.14101	2058.328	12.85891
45.19496	2055.547	12.85334
45.24891	2054.886	14.73366
45.30286	2051.247	16.97081
45.35681	2052.323	13.63537
45.41076	2049.412	8.633874
45.4647	2048.511	10.47929
45.51865	2044.612	16.08305
45.5726	2042.504	15.78362
45.62655	2042.311	12.44749
45.6805	2040.545	16.3387
45.73444	2037.709	17.74439
45.78839	2034.793	14.77693
45.84234	2033.739	15.56875
45.89629	2031.774	14.754
45.95024	2030.297	16.51851
46.00418	2027.125	15.11116
46.05814	2024.393	12.42175
46.11208	2019.033	16.77603
46.16603	2019.16	15.0988
46.21998	2020.582	12.57597
46.27393	2021.83	13.94652
46.32788	2014.313	14.93634
46.38182	2017.024	11.93133
46.43577	2010.965	12.47095
46.48972	2013.375	13.15496
46.54367	2008.33	12.78488
46.59762	2009.578	15.12726
46.65157	2003.172	13.47027
46.70551	2006.992	15.46874
46.75946	2000.724	15.76004
46.81341	1999.512	16.76932
46.86736	1995.522	14.60504
46.92131	1996.019	12.10258
46.97525	1990.941	10.50167
47.0292	1994.035	8.5495
47.08315	1986.296	14.31158
47.1371	1986.79	14.3514
47.19105	1982.703	10.81222
47.245	1984.331	12.36027
47.29894	1979.184	13.98025
47.35289	1980.425	14.16079
47.40684	1976.264	11.6328
47.46079	1976.852	13.19445
47.51474	1971.518	15.17993
47.56868	1974.079	11.70397
47.62263	1967.416	15.02215
47.67658	1969.959	15.9997
47.73053	1964.057	16.99058
47.78448	1964.547	16.95262
47.83842	1957.809	15.73875
47.89237	1960.707	16.25738
47.94632	1956.366	15.7097
48.00027	1957.688	14.2822
48.05422	1953.131	18.38824
48.10817	1955.116	15.80826
48.16211	1949.515	21.96367
48.21606	1950.222	13.12149
48.27001	1945.345	12.94717
48.32396	1946.882	14.34451
48.37791	1937.728	13.68451
48.43185	1941.81	11.82738
48.4858	1936.313	13.51385
48.53975	1937.4	13.76112
48.5937	1931.759	13.26598
48.64765	1932.82	12.61428
48.7016	1930.419	11.33852
48.75554	1930.22	11.55156
48.80949	1925.542	15.56322
48.86344	1925.391	16.33949
48.91739	1923.94	15.22638
48.97134	1922.472	14.58893
49.02528	1918.465	12.5447
49.07924	1916.901	13.21181
49.13318	1912.356	14.10955
49.18713	1913.766	13.81419
49.24108	1913.287	16.77575
49.29502	1910.4	14.56101
49.34898	1908.068	11.06131
49.40292	1905.453	12.05088
49.45687	1904.685	12.7215
49.51082	1901.826	13.88086
49.56477	1902.317	12.52177
49.61872	1900.075	13.58348
49.67266	1899.87	15.46776
49.72661	1896.599	13.32722
49.78056	1895.434	10.87048
49.83451	1892.342	9.939466
49.88846	1895.04	10.43156
49.94241	1885.651	15.11802
49.99635	1888.09	14.0824
50.0503	1882.613	9.219168
50.10425	1885.197	10.11077
50.1582	1878.737	11.19002
50.21215	1880.583	13.70012
50.26609	1874.323	12.40816
50.32004	1876.829	14.63305
50.37399	1873.148	14.68198
50.42794	1871.374	20.19573
50.48189	1865.581	13.10571
50.53584	1871.46	12.67153
50.58978	1861.715	14.14816
50.64373	1860.389	11.42831
50.69768	1859.532	11.27955
50.75163	1858.172	8.408362
50.80558	1857.177	12.99885
50.85952	1860.603	13.76618
50.91347	1849.509	10.98371
50.96742	1852.106	11.83041
51.02137	1849.744	10.96869
51.07532	1851.881	11.74111
51.12926	1846.579	11.16169
51.18321	1846.798	12.11365
51.23716	1841.05	14.62562
51.29111	1839.663	15.53013
51.34506	1835.05	12.37427
51.39901	1835.414	13.42396
51.45295	1831.26	13.46385
51.5069	1833.13	13.82255
51.56085	1832.408	14.67082
51.6148	1828.745	13.07278
51.66875	1827.495	16.10088
51.72269	1830.198	14.24749
51.77665	1821.209	12.87327
51.83059	1821.366	14.05905
51.88454	1816.97	10.75636
51.93849	1819.567	12.35095
51.99244	1811.308	16.36279
52.04639	1816.789	12.08693
52.10033	1811.758	12.95895
52.15428	1813.108	13.13192
52.20823	1800.908	18.11753
52.26218	1805.103	15.39797
52.31613	1803.358	15.86143
52.37008	1803.294	11.85624
52.42402	1800.196	11.54455
52.47797	1801.538	14.27481
52.53192	1796.245	10.97299
52.58587	1796.378	11.97034
52.63982	1793.825	13.57946
52.69376	1794.092	13.33755
52.74771	1790.23	11.64572
52.80166	1787.429	9.604586
52.85561	1787.263	12.41511
52.90956	1784.976	12.97957
52.9635	1782.693	14.37457
53.01745	1781.297	16.43775
53.0714	1780.692	16.01543
53.12535	1780.159	13.55653
53.1793	1777.529	11.20823
53.23325	1773.969	11.55344
53.28719	1773.588	12.12955
53.34114	1773.014	11.76673
53.39509	1773.419	11.5732
53.44904	1765.591	14.27613
53.50299	1768.16	14.2088
53.55693	1760.722	16.65474
53.61088	1762.769	17.24673
53.66483	1760.902	13.79759
53.71878	1761.872	14.18347
53.77273	1752.81	9.900427
53.82668	1755.379	8.378749
53.88062	1751.646	9.37966
53.93457	1754.395	9.023841
53.98852	1746.802	14.22829
54.04247	1745.309	14.61853
54.09642	1740.761	10.82142
54.15036	1741.521	15.27026
54.20432	1740.333	14.19553
54.25826	1741.193	11.37498
54.31221	1735.464	11.40049
54.36616	1737.209	12.53212
54.4201	1730.956	10.98219
54.47406	1734.767	15.08361
54.528	1726.551	12.33761
54.58195	1729.219	15.67737
54.6359	1723.847	15.75527
54.68985	1727.711	14.73528
54.7438	1722.645	12.40112
54.79774	1725.721	10.82016
54.85169	1715.297	14.23363
54.90564	1720.258	12.72014
54.95959	1715.109	13.16094
55.01354	1717.161	14.58471
55.06749	1709.249	15.8322
55.12143	1711.468	12.56941
55.17538	1708.211	10.70291
55.22933	1710.733	11.68296
55.28328	1702.231	11.04846
55.33723	1702.796	11.97939
55.39117	1699.493	13.91667
55.44512	1699.786	10.71663
55.49907	1694.969	10.92842
55.55302	1696.868	13.85036
55.60697	1690.607	14.73246
55.66092	1693.989	12.36677
55.71486	1686.586	11.57606
55.76881	1689.22	9.643835
55.82276	1684.416	7.887946
55.87671	1684.493	11.10856
55.93066	1681.9	8.786526
55.9846	1681.466	10.32007
56.03855	1677.373	16.25924
56.0925	1677.097	16.41695
56.14645	1676.434	11.60381
56.2004	1676.77	9.684397
56.25434	1672.487	10.93941
56.30829	1670.111	12.13452
56.36224	1667.857	11.28522
56.41619	1665.033	9.289755
56.47014	1663.404	8.270975
56.52409	1662.654	10.91078
56.57803	1662.495	12.37266
56.63198	1661.347	12.45835
56.68593	1657.857	15.39841
56.73988	1654.482	13.4473
56.79383	1655.807	12.95574
56.84777	1650.108	14.28755
56.90172	1653.176	13.07763
56.95567	1648.324	11.27966
57.00962	1649.568	16.35161
57.06357	1645.78	12.85852
57.11752	1645.22	8.593429
57.17146	1639.707	9.633708
57.22541	1643.339	13.72825
57.27936	1637.636	11.07235
57.33331	1640.114	11.597
57.38726	1631.826	10.48674
57.4412	1633.023	7.993205
57.49516	1626.098	12.00563
57.5491	1628.191	15.36626
57.60305	1625.604	13.5605
57.657	1627.101	11.38355
57.71095	1620.798	11.58665
57.7649	1624.819	9.806346
57.81884	1618.116	10.09142
57.87279	1618.198	11.98408
57.92674	1615.813	11.54967
57.98069	1616.836	11.13044
58.03464	1610.705	10.52705
58.08858	1613.28	11.94186
58.14253	1608.664	9.559352
58.19648	1611.293	9.415207
58.25043	1602.979	14.40483
58.30438	1604.599	14.67444
58.35833	1599.949	13.9327
58.41227	1601.876	12.19526
58.46622	1594.385	12.97208
58.52017	1597.943	12.17092
58.57412	1591.637	12.24544
58.62807	1595.251	12.07573
58.68201	1586.741	12.31557
58.73596	1590.345	12.14375
58.78991	1585.7	10.69519
58.84386	1586.834	11.70559
58.89781	1581.858	11.93091
58.95176	1579.76	12.88114
59.0057	1577.583	11.21581
59.05965	1579.772	9.321255
59.1136	1574.597	12.1392
59.16755	1574.821	15.41732
59.2215	1569.52	14.97959
59.27544	1570.403	13.17654
59.32939	1568.548	11.82514
59.38334	1567.244	13.31946
59.43729	1566.522	13.47387
59.49124	1563.52	12.52437
59.54519	1562.236	12.38688
59.59913	1562.068	11.06585
59.65308	1561.79	9.643779
59.70703	1558.846	9.571622
59.76098	1557.249	11.53779
59.81493	1552.377	10.22815
59.86887	1551.613	9.948913
59.92282	1550.405	8.219456
59.97677	1551.837	11.34141
60.03072	1545.935	11.10582
60.08467	1549.212	11.70957
60.13861	1543.693	11.47412
60.19257	1545.037	9.704853
60.24651	1541.942	8.173932
60.30046	1544.302	9.709211
60.35441	1537.2	12.14949
60.40836	1540.507	9.97098
60.46231	1533.05	11.37916
60.51625	1535.588	13.95358
60.5702	1527.096	11.00255
60.62415	1527.304	11.45512
60.6781	1527.212	9.959335
60.73205	1527.291	12.60883
60.786	1522.971	12.14356
60.83994	1525.707	12.48856
60.89389	1517.723	9.727254
60.94784	1519.625	8.975075
61.00179	1514.646	8.883986
61.05574	1515.896	9.125031
61.10968	1509.121	8.995359
61.16363	1513.409	10.00961
61.21758	1507.147	7.524195
61.27153	1506.583	11.42101
61.32548	1502.51	13.23931
61.37943	1506.781	10.44276
61.43337	1501.782	8.496089
61.48732	1501.681	10.97975
61.54127	1497.713	16.27843
61.59522	1499.284	13.88694
61.64917	1492.958	11.13592
61.70311	1493.706	9.404943
61.75706	1490.245	11.43611
61.81101	1493.294	10.16139
61.86496	1487.503	14.81075
61.91891	1490.61	15.34776
61.97285	1482.948	13.10096
62.0268	1483.948	16.33091
62.08075	1479.85	10.78097
62.1347	1480.94	10.38127
62.18865	1478.662	10.79661
62.2426	1478.093	10.30575
62.29654	1478.227	14.2928
62.35049	1478.029	14.81097
62.40444	1473.094	11.61316
62.45839	1472.532	12.29198
62.51234	1471.108	13.76104
62.56628	1469.75	15.91214
62.62024	1469.692	15.69595
62.67418	1465.461	9.141757
62.72813	1465.386	9.144612
62.78208	1463.328	10.44544
62.83603	1466.135	9.012256
62.88998	1457.425	10.09902
62.94392	1459.244	11.61668
62.99787	1452.683	9.586759
63.05182	1454.677	10.57769
63.10577	1452.106	8.620281
63.15972	1453.46	10.83879
63.21367	1447.496	9.435596
63.26761	1450.027	9.61561
63.32156	1445.169	10.46559
63.37551	1447.287	9.781155
63.42946	1442.748	10.55716
63.48341	1445.445	13.03157
63.53735	1439.836	8.751837
63.5913	1444.815	11.79311
63.64525	1436.039	10.17502
63.6992	1436.471	8.9622
63.75315	1434.609	10.5943
63.80709	1436.494	14.26024
63.86104	1432.622	9.897629
63.91499	1434.464	11.63498
63.96894	1429.566	6.738334
64.02289	1433.698	11.10421
64.07684	1426.366	7.635066
64.13078	1427.279	10.1774
64.18473	1422.984	8.943024
64.23868	1426.969	11.68849
64.29263	1421.213	10.95929
64.34657	1420.629	14.12573
64.40053	1419.308	10.8854
64.45448	1420.688	13.20936
64.50842	1412.834	9.162625
64.56237	1417.822	10.10835
64.61632	1411.841	10.80564
64.67027	1415.752	10.73537
64.72421	1407.566	5.570798
64.77816	1410.688	8.592822
64.83211	1408.151	10.46088
64.88605	1407.761	9.054902
64.94001	1405.584	7.548822
64.99396	1410.261	9.485633
65.0479	1406.536	8.920804
65.10185	1408.465	7.894745
65.1558	1405.355	9.532186
65.20975	1407	10.52657
65.26369	1400.961	9.564105
65.31764	1401.94	9.687375
65.37159	1404.309	9.707557
65.42554	1403.674	7.843659
65.47949	1402.856	7.565636
65.53344	1404.203	9.52682
65.58739	1402.356	9.198815
65.64133	1401.695	8.302701
65.69528	1403.251	8.258187
65.74923	1400.504	10.42801
65.80318	1401.544	10.46804
65.85712	1401.894	8.753952
65.91107	1402.911	10.21426
65.96502	1397.247	7.581499
66.01897	1398.333	8.278805
66.07292	1399.263	7.444182
66.12687	1404.179	9.820416
66.18082	1399.917	11.27999
66.23476	1403.416	10.17166
66.28871	1397.603	9.365691
66.34266	1405.117	8.273007
66.39661	1400.458	7.638495
66.45055	1407.108	6.561077
66.5045	1404.238	6.402354
66.55846	1410.665	4.343837
66.6124	1402.227	6.96048
66.66635	1407.183	6.581254
66.7203	1406.441	7.281506
66.77425	1414.372	10.43817
66.82819	1406.471	7.152287
66.88214	1410.413	6.859108
66.93609	1408.307	6.480553
66.99004	1415.792	7.064163
67.04398	1413.195	6.379319
67.09794	1417.417	7.509871
67.15189	1413.327	9.347007
67.20583	1422.714	5.641418
67.25978	1418.778	4.702095
67.31373	1427.203	5.323952
67.36768	1428.138	4.46067
67.42162	1436.34	6.740685
67.47557	1431.37	6.289878
67.52952	1439.678	6.240407
67.58347	1440.326	6.32029
67.63742	1448.199	6.835055
67.69137	1442.952	7.742241
67.74532	1451.932	4.397243
67.79926	1448.396	6.973876
67.85321	1458.962	6.226156
67.90716	1456.911	6.946326
67.96111	1465.943	8.762784
68.01505	1464.793	7.704853
68.069	1474.508	7.032865
68.12295	1474.568	4.295723
68.1769	1485.908	5.460634
68.23085	1486.762	7.275442
68.2848	1493.542	7.708386
68.33875	1494.368	4.414363
68.39269	1503.002	5.632875
68.44664	1507.624	4.28888
68.50059	1513.902	5.774131
68.55453	1516.938	7.062557
68.60848	1526.288	4.698472
68.66243	1532.572	4.936559
68.71638	1540.037	5.443104
68.77033	1545.186	6.829988
68.82428	1553.704	6.332831
68.87823	1561.739	7.08335
68.93217	1569.962	7.125162
68.98612	1578.596	5.644433
69.04007	1585.994	6.371956
69.09402	1594.666	7.047442
69.14796	1601.439	8.949176
69.20191	1612.068	5.831878
69.25587	1620.682	5.898376
69.30981	1632.852	6.848874
69.36376	1635.946	4.51503
69.41771	1647.834	4.546367
69.47166	1654.4	1.411143
69.5256	1671.38	4.51774
69.57955	1675.61	3.947037
69.6335	1691.232	3.86223
69.68745	1696.792	7.373027
69.74139	1713.121	6.594292
69.79534	1717.436	7.310703
69.8493	1737.742	5.399264
69.90324	1741.413	7.741309
69.95719	1760.45	6.652998
70.01114	1768.138	9.185173
70.06509	1786.491	7.55091
70.11903	1790.995	7.128902
70.17298	1812.139	6.950294
70.22693	1821.206	6.519254
70.28088	1835.984	7.299891
70.33482	1846.914	6.105787
70.38878	1868.086	5.976484
70.44273	1873.363	5.486239
70.49667	1893.377	5.530555
70.55062	1904.67	8.650348
70.60457	1925.653	8.694187
70.65852	1935.993	9.023272
70.71246	1958.046	5.779843
70.76641	1967.219	7.963102
70.82036	1988.974	6.032872
70.87431	2003.845	8.775382
70.92826	2026.437	7.927835
70.98221	2034.092	10.09769
71.03616	2060.92	5.487711
71.0901	2068.591	7.246904
71.14405	2094.999	4.587281
71.198	2105.236	10.11807
71.25195	2129.853	6.87335
71.30589	2140.303	8.432914
71.35984	2166.551	4.481071
71.41379	2176.49	5.156878
71.46774	2203.254	8.821754
71.52169	2216.926	9.303357
71.57564	2245.135	10.36027
71.62959	2259.914	9.959173
71.68353	2283.278	8.767861
71.73748	2297.419	11.27474
71.79143	2319.983	9.162483
71.84538	2341.756	7.706209
71.89932	2368.097	4.032567
71.95327	2388.286	3.931776
72.00723	2404.283	5.865312
72.06117	2423.385	6.400791
72.11512	2445.141	10.34837
72.16907	2470.911	13.2538
72.22301	2486.828	11.14997
72.27696	2512.647	6.73388
72.33091	2528.729	10.70791
72.38486	2554.372	10.56968
72.4388	2566.221	10.1415
72.49275	2592.94	6.005762
72.54671	2603.715	7.878932
72.60065	2632.162	9.188936
72.6546	2634.96	9.322349
72.70855	2658.203	4.436353
72.7625	2664.084	9.703021
72.81644	2685.121	7.519813
72.87039	2693.979	9.524892
72.92434	2722.972	6.712698
72.97829	2728.433	10.77902
73.03223	2753.616	11.52636
73.08619	2751.631	10.27625
73.14014	2772.515	4.238711
73.19408	2774.771	9.719321
73.24803	2790.786	6.226442
73.30198	2790.442	11.71087
73.35593	2809.354	9.00492
73.40987	2810.451	9.093138
73.46382	2829.709	6.453996
73.51777	2825.748	10.80909
73.57172	2844.513	11.8261
73.62567	2843.18	11.0404
73.67962	2862.643	7.855802
73.73357	2857.567	8.81548
73.78751	2877.862	10.2176
73.84146	2870.188	13.35469
73.89541	2883.423	13.45148
73.94936	2877.573	12.7648
74.0033	2891.195	16.74571
74.05725	2884.647	19.75106
74.1112	2904.491	14.66226
74.16515	2896.721	14.85495
74.2191	2911.842	11.86387
74.27305	2903.346	6.666809
74.327	2917.277	10.27536
74.38094	2920.743	12.40469
74.43489	2930.47	9.742824
74.48884	2930.887	10.15362
74.54279	2935.784	8.510041
74.59673	2936.514	8.170903
74.65068	2945.544	6.112011
74.70464	2948.201	7.588276
74.75858	2947.565	11.64742
74.81253	2956.027	10.28258
74.86648	2952.165	9.884904
74.92043	2961.664	10.97545
74.97437	2958.948	9.372863
75.02832	2977.839	10.52303
75.08227	2964.69	6.170027
75.13622	2980.693	10.18796
75.19016	2971.53	5.518063
75.24412	2989.226	9.342542
75.29807	2977.605	8.512602
75.35201	2992.668	10.46717
75.40596	2980.848	6.058807
75.45991	2993.117	12.67256
75.51385	2979.073	5.808834
75.5678	2994.319	11.24249
75.62175	2987.707	6.216372
75.6757	3001.248	7.274359
75.72964	2993.172	6.822071
75.7836	3008.751	13.02108
75.83755	2999.205	11.04556
75.89149	3012.922	10.33608
75.94544	3002.191	10.81923
75.99939	3013.804	12.23826
76.05334	3004.435	8.843117
76.10728	3020.336	10.52401
76.16123	3010.969	14.22959
76.21518	3025.808	10.6733
76.26913	3014.857	7.771966
76.32308	3025.988	8.891886
76.37703	3017.765	8.218419
76.43098	3032.326	12.64188
76.48492	3028.661	14.75968
76.53887	3030.153	14.25113
76.59282	3031.624	11.17287
76.64677	3034.754	11.65982
76.70071	3036.776	12.356
76.75466	3035.228	6.82608
76.80861	3048.432	7.928843
76.86256	3036.803	6.998068
76.91651	3044.484	9.807067
76.97046	3037.426	8.379397
77.02441	3056.073	12.87433
77.07835	3046.506	8.838146
77.1323	3054.731	9.538863
77.18625	3042.503	9.912529
77.2402	3059.39	7.144595
77.29414	3048.579	7.741075
77.34809	3061.675	10.56689
77.40205	3047.085	11.3475
77.45599	3063.253	8.585793
77.50994	3045.032	9.691815
77.56389	3062.169	8.83131
77.61784	3045.823	8.71346
77.67178	3061.92	6.551554
77.72573	3049.053	9.611962
77.77968	3067.642	7.635856
77.83363	3052.225	7.057087
77.88757	3063.767	12.21047
77.94153	3050.594	11.60162
77.99548	3069.731	10.36641
78.04942	3063.046	11.74315
78.10337	3070.851	13.96726
78.15732	3066.672	12.09464
78.21127	3070.389	10.96075
78.26521	3072.823	10.12465
78.31916	3073.478	7.515118
78.37311	3076.647	9.501383
78.42706	3071.499	10.70027
78.48101	3079.474	9.517809
78.53496	3072.965	11.16783
78.58891	3086.764	11.22047
78.64285	3078.613	9.728806
78.6968	3090.198	11.88674
78.75075	3074.271	13.59169
78.8047	3091.559	14.98268
78.85864	3074.654	13.41407
78.91259	3092.563	21.09888
78.96654	3080.585	14.35781
79.02048	3100.574	20.6826
79.07444	3079.138	12.45747
79.12839	3092.251	14.23946
79.18233	3077.639	12.71458
79.23628	3092.357	11.21727
79.29023	3081.615	15.42931
79.34418	3094.536	9.930897
79.39812	3083.295	11.38017
79.45207	3097.124	15.52018
79.50602	3081.011	14.83518
79.55997	3094.891	9.977573
79.61392	3079.049	11.57414
79.66787	3097.167	16.82259
79.72182	3081.623	11.83642
79.77576	3093.754	10.9476
79.82971	3080.186	11.32701
79.88366	3091.883	9.339338
79.93761	3079.294	11.34798
79.99155	3095.881	9.747445
80.0455	3090.887	9.531245
80.09945	3100.133	9.130344
80.1534	3096.414	11.39531
80.20735	3103.07	13.47069
80.2613	3099.912	13.80748
80.31525	3099.196	14.71989
80.36919	3106.593	14.79483
80.42314	3101.152	6.714213
80.47709	3103.127	4.829701
80.53104	3100.166	7.515893
80.58498	3114.99	12.83687
80.63893	3101.104	7.365919
80.69289	3108.053	5.854074
80.74683	3104.24	2.827044
80.80078	3119.159	3.534969
80.85473	3104.199	9.330081
80.90868	3124.64	9.83231
80.96262	3104.979	10.24732
81.01657	3124.076	13.49588
81.07052	3104.789	4.263155
81.12447	3124.266	11.71718
81.17841	3105.383	4.16607
81.23237	3120.885	3.726839
81.28632	3103.859	3.173415
81.34026	3123.835	9.170402
81.39421	3102.086	7.971025
81.44816	3122.655	7.079378
81.50211	3111.407	9.142173
81.55605	3124.375	7.667786
81.61	3112.247	13.5036
81.66395	3128.8	12.25238
81.7179	3119.01	3.102499
81.77185	3131.012	5.049907
81.8258	3114.681	9.285169
81.87975	3131.799	11.09815
81.93369	3121.554	11.19001
81.98764	3134.076	12.74955
82.04159	3119.514	12.95445
82.09554	3135.031	8.15731
82.14948	3125.649	10.29893
82.20343	3138.884	10.06528
82.25738	3131.109	11.34243
82.31133	3142.653	10.89044
82.36528	3140.789	7.741146
82.41923	3141.968	7.116507
82.47318	3142.699	9.207985
82.52712	3145.029	8.211061
82.58107	3154.498	5.920334
82.63502	3151.296	7.310537
82.68896	3155.426	6.683816
82.74291	3152.412	10.39713
82.79686	3159.622	9.359671
82.85081	3150.585	8.341036
82.90476	3163.805	7.807117
82.95871	3147.951	6.291913
83.01266	3164.613	2.954518
83.0666	3152.575	13.34699
83.12055	3170.884	14.44104
83.1745	3151.497	10.26506
83.22845	3174.366	4.75186
83.28239	3154.369	3.681431
83.33634	3172.415	3.451599
83.3903	3157.152	11.84593
83.44424	3178.871	4.90996
83.49819	3161.507	7.167786
83.55214	3178.249	9.727905
83.60609	3162.121	5.770164
83.66003	3183.25	10.93892
83.71398	3165.777	8.443064
83.76793	3187.117	6.249165
83.82188	3164.802	4.029377
83.87582	3183.666	11.12852
83.92978	3165.84	13.40403
83.98373	3186.759	14.77175
84.03767	3165.651	9.53354
84.09162	3182.297	12.81358
84.14557	3165.385	12.87619
84.19952	3182.557	13.34985
84.25346	3163.981	9.023154
84.30741	3183.832	8.978078
84.36136	3167.849	13.55315
84.41531	3180.926	10.90715
84.46926	3165.782	15.07782
84.52321	3186.617	9.61976
84.57716	3174.316	12.33412
84.6311	3181.921	9.023426
84.68505	3173.668	13.79036
84.739	3182.198	12.47695
84.79295	3180.35	11.62971
84.84689	3179.982	11.90116
84.90084	3180.966	7.171702
84.95479	3181.51	5.560744
85.00874	3193.532	8.712142
85.06269	3183.917	5.936242
85.11664	3191.378	9.465265
85.17059	3179.958	8.435404
85.22453	3191.95	6.685847
85.27848	3170.591	4.322165
85.33243	3185.594	4.411263
85.38638	3168.893	5.777121
85.44032	3186.05	3.479212
85.49427	3173.573	6.616896
85.54823	3186.029	3.325537
85.60217	3164.235	5.98531
85.65612	3185.698	4.652788
85.71007	3164.591	10.00087
85.76402	3181.933	7.529394
85.81796	3158.669	11.44343
85.87191	3174.566	5.369839
85.92586	3163.701	4.519902
85.9798	3181.461	1.774659
86.03375	3148.996	7.369321
86.08771	3169.603	9.532409
86.14165	3148.034	10.94532
86.1956	3166.087	9.245364
86.24955	3148.76	2.872841
86.3035	3167.172	7.595013
86.35744	3140.16	11.64657
86.41139	3156.52	9.407448
86.46534	3138.746	11.01698
86.51929	3155.397	5.49309
86.57323	3134.524	7.620847
86.62719	3159.135	10.85252
86.68114	3137.044	6.465692
86.73508	3154.328	10.29871
86.78903	3126.571	8.266969
86.84298	3145	9.395172
86.89693	3123.248	14.27099
86.95087	3136.6	10.83937
87.00482	3116.779	12.58899
87.05877	3132.502	10.57121
87.11272	3115.953	16.42826
87.16667	3128.715	12.46738
87.22062	3113.293	4.733679
87.27457	3122.455	2.902279
87.32851	3109.794	6.65595
87.38246	3117.501	5.262552
87.43641	3105.654	12.43246
87.49036	3112.137	9.54565
87.5443	3104.564	9.620561
87.59825	3104.33	10.33771
87.6522	3098.03	7.937019
87.70615	3096.96	9.585148
87.7601	3094.604	13.51405
87.81405	3097.84	9.22464
87.868	3099.208	7.483505
87.92194	3091.831	4.219879
87.97589	3091.995	2.509275
88.02984	3081.49	4.529785
88.08379	3083.006	4.519198
88.13773	3072.827	6.952151
88.19168	3080.143	8.058061
88.24563	3073.637	4.927864
88.29958	3085.656	5.500597
88.35353	3065.332	10.11952
88.40748	3074.22	5.615496
88.46143	3057.262	7.55997
88.51537	3075.272	1.179317
88.56932	3055.354	11.95469
88.62327	3071.238	6.105959
88.67722	3052.47	6.871768
88.73116	3070.018	5.130456
88.78511	3046.368	10.77374
88.83907	3066.366	9.860429
88.89301	3038.805	10.48917
88.94696	3052.528	13.70274
89.00091	3027.116	10.40666
89.05486	3047.947	10.00273
89.1088	3021.918	12.11801
89.16275	3034.27	5.810072
89.2167	3016.318	13.26017
89.27065	3037.225	8.021966
89.32459	3011.662	9.390394
89.37855	3031.732	8.911694
89.4325	3005.295	8.214982
89.48644	3020.485	8.660373
89.54039	2998.289	12.68799
89.59434	3015.854	11.14841
89.64828	2992.325	9.540823
89.70223	3008.203	10.4713
89.75618	2984.548	10.37881
89.81013	2998.518	10.70111
89.86407	2981.03	12.05324
89.91803	2997.791	6.820157
89.97198	2976.78	11.68843
90.02592	2989.791	4.88331
90.07987	2965.863	12.6583
90.13382	2982.116	9.338418
90.18777	2959.179	10.6893
90.24171	2974.601	5.951331
90.29566	2951.806	7.430387
90.34961	2966.019	2.406454
90.40356	2947.922	6.620546
90.45751	2963.67	4.374379
90.51146	2943.605	4.099867
90.56541	2955.011	2.115797
90.61935	2935.917	10.22809
90.6733	2948.717	6.422874
90.72725	2934.394	9.176906
90.7812	2946.676	5.324605
90.83514	2934.481	11.29715
90.88909	2938.453	10.99459
90.94304	2926.196	7.404208
90.99699	2930.914	1.901187
91.05094	2921.328	4.605145
91.10489	2924.357	9.51932
91.15884	2914.524	9.534602
91.21278	2913.206	8.122444
91.26673	2909.032	7.568206
91.32068	2907.452	6.248866
91.37463	2907.985	7.52876
91.42857	2902.922	9.229522
91.48252	2902.448	10.11689
91.53648	2893.674	9.734022
91.59042	2897.993	7.308379
91.64437	2887.839	8.073215
91.69832	2895.775	10.07117
91.75227	2883.431	6.357648
91.80621	2892.769	3.893091
91.86016	2874.806	9.469748
91.91411	2892.911	6.516707
91.96806	2869.913	13.08858
92.022	2894.065	9.352009
92.07596	2865.961	6.337134
92.12991	2881.138	5.406991
92.18385	2856.811	7.554142
92.2378	2871.773	5.998425
92.29175	2848.445	7.164698
92.3457	2864.779	2.903283
92.39964	2844.782	8.769924
92.45359	2858.171	6.534123
92.50754	2836.151	11.88392
92.56149	2851.872	3.015936
92.61544	2834.936	10.22439
92.66939	2847.314	6.452314
92.72334	2820.751	10.15404
92.77728	2837.385	9.622461
92.83123	2812.037	12.1987
92.88518	2829.59	9.587898
92.93913	2811.47	12.55409
92.99307	2827.172	10.01496
93.04702	2800.387	9.701308
93.10097	2813.959	2.10896
93.15492	2789.729	12.36824
93.20887	2801.076	6.330464
93.26282	2781.732	10.46362
93.31676	2802.281	7.701865
93.37071	2781.333	8.898685
93.42466	2795.809	4.93359
93.47861	2772.476	9.329851
93.53255	2787.657	8.11615
93.5865	2763.217	18.34661
93.64045	2778.971	6.011323
93.6944	2759.192	14.39685
93.74835	2772.513	5.395305
93.8023	2757.075	15.30792
93.85625	2766.117	8.926449
93.91019	2743.558	12.39893
93.96414	2757.342	6.140936
94.01809	2740.457	12.76575
94.07204	2753.973	7.883874
94.12598	2732.451	10.41412
94.17993	2747.83	6.977669
94.23389	2725.528	8.812018
94.28783	2739.165	5.15779
94.34178	2725.348	12.84487
94.39573	2738.013	6.630509
94.44968	2720.044	5.768038
94.50362	2702.11	8.57043
94.55757	2726.998	5.33732
94.61152	2711.279	6.105192
94.66547	2695.077	16.06188
94.71941	2711.004	7.755832
94.77337	2712.096	11.17872
94.82732	2708.334	5.21529
94.88126	2707.221	9.214374
94.93521	2686.071	11.53967
94.98916	2677.245	8.832893
