T[Â°C]	350nm [counts / mm]	S.D.	First derivative	S.D. of first derivative
20.00045	2815.757		-40.1949	
20.0544	2813.462		-40.15802	
20.10835	2811.16		-40.12206	
20.1623	2808.851		-40.08704	
20.21625	2806.536		-40.053	
20.2702	2804.217		-40.01995	
20.32414	2801.895		-39.98792	
20.37809	2799.57		-39.95691	
20.43204	2797.245		-39.92695	
20.48599	2794.918		-39.89805	
20.53994	2792.592		-39.87021	
20.59389	2790.266		-39.84343	
20.64784	2787.941		-39.81773	
20.70179	2785.618		-39.79308	
20.75574	2783.297		-39.76949	
20.80969	2780.975		-39.74694	
20.86364	2778.646		-39.72541	
20.91759	2776.292		-39.70488	
20.97153	2773.892		-39.68532	
21.02548	2771.56		-39.66669	
21.07943	2769.256		-39.64897	
21.13338	2766.988		-39.63209	
21.18733	2764.76		-39.61601	
21.24128	2762.576		-39.60066	
21.29523	2760.436		-39.58598	
21.34918	2758.341		-39.57191	
21.40313	2756.295		-39.55835	
21.45708	2754.302		-39.54524	
21.51102	2752.365		-39.53249	
21.56497	2750.483		-39.52001	
21.61892	2748.652		-39.50771	
21.67287	2746.862		-39.49549	
21.72682	2745.093		-39.48325	
21.78077	2743.323		-39.47088	
21.83472	2741.54		-39.45828	
21.88867	2739.731		-39.44532	
21.94262	2737.89		-39.43188	
21.99657	2736.013		-39.41787	
22.05052	2734.097		-39.40316	
22.10447	2732.147		-39.38766	
22.15841	2730.169		-39.37131	
22.21236	2728.173		-39.35406	
22.26631	2726.164		-39.33599	
22.32026	2724.143		-39.31727	
22.37421	2722.107		-39.2983	
22.42816	2720.047		-39.27981	
22.48211	2717.953		-39.26298	
22.53606	2715.816		-39.2495	
22.59001	2713.635		-39.24139	
22.64396	2711.418		-39.25873	
22.6979	2709.171		-39.27843	
22.75185	2706.892		-39.3004	
22.8058	2704.586		-39.32449	
22.85975	2702.266		-39.35051	
22.9137	2699.951		-39.3782	
22.96765	2697.655		-39.40725	
23.0216	2695.385		-39.43732	
23.07555	2693.144		-39.46801	
23.1295	2690.934		-39.49896	
23.18345	2688.753		-39.52976	
23.2374	2686.596		-39.56005	
23.29135	2684.453		-39.58947	
23.34529	2682.315		-39.61766	
23.39924	2680.174		-39.64425	
23.45319	2678.027		-39.66886	
23.50714	2675.87		-39.69107	
23.56109	2673.703		-39.71048	
23.61504	2671.527		-39.72668	
23.66899	2669.337		-39.73928	
23.72294	2667.13		-39.74797	
23.77689	2664.908		-39.75246	
23.83084	2662.676		-39.75255	
23.88478	2660.439		-39.74809	
23.93873	2658.208		-39.73901	
23.99268	2655.991		-39.7253	
24.04663	2653.789		-39.70702	
24.10058	2651.603		-39.68434	
24.15453	2649.431		-39.65746	
24.20848	2647.272		-39.6267	
24.26243	2645.119		-39.59243	
24.31638	2642.965		-39.55507	
24.37033	2640.807		-39.51513	
24.42428	2638.639		-39.47311	
24.47823	2636.455		-39.42958	
24.53218	2634.253		-39.38511	
24.58612	2632.041		-39.34026	
24.64007	2629.824		-39.29557	
24.69402	2627.608		-39.25154	
24.74797	2625.394		-39.2086	
24.80192	2623.187		-39.1671	
24.85587	2620.997		-39.12731	
24.90982	2618.836		-39.08945	
24.96377	2616.719		-39.05366	
25.01772	2614.649		-39.02003	
25.07166	2612.62		-38.98862	
25.12561	2610.624		-38.95942	
25.17956	2608.656		-38.93238	
25.23351	2606.708		-38.90744	
25.28746	2604.768		-38.88448	
25.34141	2602.821		-38.86336	
25.39536	2600.858		-38.84394	
25.44931	2598.874		-38.8261	
25.50326	2596.867		-38.80971	
25.55721	2594.847		-38.79464	
25.61116	2592.821		-38.78082	
25.66511	2590.801		-38.76821	
25.71906	2588.791		-38.75679	
25.773	2586.793		-38.7466	
25.82695	2584.803		-38.73767	
25.8809	2582.818		-38.73006	
25.93485	2580.835		-38.72378	
25.9888	2578.853		-38.71887	
26.04275	2576.873		-38.71537	
26.0967	2574.898		-38.71328	
26.15065	2572.925		-38.71264	
26.2046	2570.942		-38.71343	
26.25854	2568.938		-38.71563	
26.31249	2566.907		-38.71918	
26.36644	2564.841		-38.72404	
26.42039	2562.738		-38.73015	
26.47434	2560.605		-38.73743	
26.52829	2558.454		-38.74582	
26.58224	2556.292		-38.75521	
26.63619	2554.125		-38.76552	
26.69014	2551.956		-38.77659	
26.74409	2549.78		-38.78828	
26.79804	2547.595		-38.80039	
26.85199	2545.401		-38.81268	
26.90594	2543.209		-38.82486	
26.95988	2541.029		-38.83664	
27.01383	2538.86		-38.84768	
27.06778	2536.698		-38.85765	
27.12173	2534.538		-38.86621	
27.17568	2532.378		-38.87299	
27.22963	2530.215		-38.87765	
27.28358	2528.052		-38.87983	
27.33753	2525.891		-38.87925	
27.39148	2523.731		-38.87567	
27.44543	2521.572		-38.86891	
27.49937	2519.411		-38.85883	
27.55332	2517.248		-38.84534	
27.60727	2515.084		-38.82837	
27.66122	2512.929		-38.80792	
27.71517	2510.788		-38.78403	
27.76912	2508.666		-38.75681	
27.82307	2506.564		-38.72641	
27.87702	2504.479		-38.693	
27.93097	2502.402		-38.65681	
27.98492	2500.327		-38.61804	
28.03887	2498.253		-38.57696	
28.09282	2496.181		-38.53383	
28.14676	2494.106		-38.48893	
28.20071	2492.026		-38.44255	
28.25466	2489.938		-38.39494	
28.30861	2487.838		-38.34639	
28.36256	2485.723		-38.29715	
28.41651	2483.595		-38.24755	
28.47046	2481.463		-38.1979	
28.52441	2479.333		-38.14853	
28.57836	2477.212		-38.09976	
28.63231	2475.099		-38.05191	
28.68625	2472.995		-38.00526	
28.7402	2470.899		-37.96006	
28.79415	2468.811		-37.91653	
28.8481	2466.732		-37.87482	
28.90205	2464.665		-37.83506	
28.956	2462.615		-37.79731	
29.00995	2460.584		-37.76162	
29.0639	2458.576		-37.72797	
29.11785	2456.593		-37.69632	
29.1718	2454.633		-37.66659	
29.22575	2452.695		-37.63867	
29.2797	2450.778		-37.61243	
29.33364	2448.877		-37.58776	
29.38759	2446.993		-37.56453	
29.44154	2445.127		-37.54263	
29.49549	2443.275		-37.52195	
29.54944	2441.43		-37.50234	
29.60339	2439.583		-37.48365	
29.65734	2437.728		-37.46569	
29.71129	2435.854		-37.44832	
29.76524	2433.955		-37.43139	
29.81919	2432.027		-37.41479	
29.87314	2430.068		-37.39842	
29.92708	2428.081		-37.38218	
29.98103	2426.072		-37.36595	
30.03498	2424.052		-37.34964	
30.08893	2422.03		-37.33315	
30.14288	2420.014		-37.31641	
30.19683	2418.006		-37.2994	
30.25078	2416.001		-37.28211	
30.30473	2413.989		-37.26455	
30.35868	2411.957		-37.24679	
30.41263	2409.9		-37.22894	
30.46658	2407.82		-37.21115	
30.52052	2405.723		-37.1936	
30.57447	2403.618		-37.17652	
30.62842	2401.509		-37.16011	
30.68237	2399.404		-37.14456	
30.73632	2397.305		-37.13005	
30.79027	2395.218		-37.1167	
30.84422	2393.144		-37.10465	
30.89817	2391.088		-37.09398	
30.95212	2389.048		-37.08474	
31.00607	2387.018		-37.07698	
31.06002	2384.995		-37.07069	
31.11396	2382.979		-37.06583	
31.16791	2380.966		-37.06235	
31.22186	2378.947		-37.06013	
31.27581	2376.913		-37.05903	
31.32976	2374.859		-37.05889	
31.38371	2372.784		-37.05952	
31.43766	2370.689		-37.0607	
31.49161	2368.581		-37.06221	
31.54556	2366.467		-37.06381	
31.59951	2364.355		-37.06527	
31.65346	2362.253		-37.06635	
31.70741	2360.165		-37.06683	
31.76135	2358.099		-37.06651	
31.8153	2356.063		-37.06521	
31.86925	2354.061		-37.06277	
31.9232	2352.091		-37.05906	
31.97715	2350.146		-37.05393	
32.0311	2348.221		-37.04731	
32.08505	2346.312		-37.03909	
32.139	2344.417		-37.02927	
32.19295	2342.537		-37.01787	
32.24689	2340.672		-37.00497	
32.30085	2338.819		-36.99072	
32.35479	2336.973		-36.97529	
32.40874	2335.129		-36.95894	
32.46269	2333.284		-36.94197	
32.51664	2331.44		-36.92471	
32.57059	2329.599		-36.90752	
32.62454	2327.762		-36.89079	
32.67849	2325.925		-36.87488	
32.73244	2324.08		-36.86014	
32.78639	2322.219		-36.84687	
32.84034	2320.338		-36.83536	
32.89429	2318.429		-36.82584	
32.94823	2316.48		-36.8185	
33.00218	2314.485		-36.81348	
33.05613	2312.442		-36.81086	
33.11008	2310.358		-36.81069	
33.16403	2308.237		-36.81292	
33.21798	2306.09		-36.81746	
33.27193	2303.934		-36.8242	
33.32588	2301.781		-36.83295	
33.37983	2299.634		-36.84348	
33.43378	2297.501		-36.85554	
33.48772	2295.39		-36.86883	
33.54168	2293.303		-36.88302	
33.59562	2291.24		-36.89775	
33.64957	2289.191		-36.91265	
33.70352	2287.15		-36.92731	
33.75747	2285.114		-36.94124	
33.81142	2283.081		-36.95398	
33.86537	2281.052		-36.96505	
33.91932	2279.03		-36.97397	
33.97327	2277.021		-36.98031	
34.02722	2275.032		-36.98368	
34.08117	2273.071		-36.98373	
34.13511	2271.14		-36.9802	
34.18906	2269.241		-36.97287	
34.24301	2267.374		-36.96163	
34.29696	2265.532		-36.94643	
34.35091	2263.701		-36.9273	
34.40486	2261.867		-36.90432	
34.45881	2260.015		-36.87766	
34.51276	2258.134		-36.84755	
34.56671	2256.217		-36.81425	
34.62066	2254.259		-36.7781	
34.67461	2252.252		-36.73942	
34.72855	2250.193		-36.6986	
34.78251	2248.089		-36.65599	
34.83645	2245.952		-36.61194	
34.8904	2243.796		-36.56681	
34.94435	2241.636		-36.52095	
34.9983	2239.482		-36.4747	
35.05225	2237.343		-36.42839	
35.1062	2235.218		-36.38233	
35.16015	2233.108		-36.33677	
35.2141	2231.015		-36.29196	
35.26805	2228.936		-36.24806	
35.32199	2226.866		-36.2052	
35.37594	2224.799		-36.16348	
35.42989	2222.74		-36.12294	
35.48384	2220.695		-36.08361	
35.53779	2218.671		-36.04547	
35.59174	2216.677		-36.0085	
35.64569	2214.719		-35.97265	
35.69964	2212.801		-35.93784	
35.75359	2210.922		-35.90396	
35.80754	2209.076		-35.87085	
35.86148	2207.258		-35.83834	
35.91544	2205.466		-35.80622	
35.96938	2203.693		-35.77428	
36.02333	2201.931		-35.74228	
36.07728	2200.173		-35.71003	
36.13123	2198.415		-35.67733	
36.18518	2196.652		-35.64401	
36.23913	2194.88		-35.60997	
36.29308	2193.102		-35.57514	
36.34703	2191.318		-35.53955	
36.40098	2189.527		-35.50329	
36.45493	2187.728		-35.46649	
36.50888	2185.914		-35.42934	
36.56282	2184.084		-35.39209	
36.61677	2182.24		-35.35497	
36.67072	2180.375		-35.31828	
36.72467	2178.484		-35.28228	
36.77862	2176.567		-35.24724	
36.83257	2174.625		-35.21341	
36.88652	2172.661		-35.18099	
36.94047	2170.682		-35.15019	
36.99442	2168.692		-35.12118	
37.04837	2166.696		-35.09409	
37.10231	2164.702		-35.06903	
37.15627	2162.717		-35.04605	
37.21021	2160.75		-35.02515	
37.26416	2158.808		-35.00631	
37.31811	2156.892		-34.98944	
37.37206	2154.997		-34.97444	
37.42601	2153.119		-34.96116	
37.47996	2151.249		-34.94943	
37.53391	2149.377		-34.93906	
37.58786	2147.496		-34.92985	
37.64181	2145.605		-34.92162	
37.69576	2143.706		-34.91416	
37.7497	2141.799		-34.90729	
37.80365	2139.889		-34.90084	
37.8576	2137.986		-34.89463	
37.91155	2136.095		-34.88851	
37.9655	2134.222		-34.88234	
38.01945	2132.363		-34.87598	
38.0734	2130.516		-34.86931	
38.12735	2128.674		-34.86217	
38.1813	2126.828		-34.85444	
38.23524	2124.97		-34.84598	
38.2892	2123.094		-34.83668	
38.34314	2121.202		-34.82647	
38.39709	2119.295		-34.81533	
38.45104	2117.376		-34.80326	
38.50499	2115.452		-34.79031	
38.55894	2113.528		-34.77654	
38.61289	2111.609		-34.76203	
38.66684	2109.695		-34.74689	
38.72079	2107.785		-34.73126	
38.77474	2105.878		-34.7153	
38.82869	2103.975		-34.69923	
38.88264	2102.079		-34.68328	
38.93658	2100.187		-34.66769	
38.99053	2098.3		-34.65269	
39.04448	2096.422		-34.63848	
39.09843	2094.557		-34.62525	
39.15238	2092.705		-34.61314	
39.20633	2090.865		-34.60227	
39.26028	2089.036		-34.59273	
39.31423	2087.216		-34.58456	
39.36818	2085.404		-34.57777	
39.42213	2083.601		-34.57235	
39.47607	2081.808		-34.56828	
39.53003	2080.026		-34.56553	
39.58397	2078.25		-34.56405	
39.63792	2076.473		-34.56378	
39.69187	2074.688		-34.56465	
39.74582	2072.888		-34.56657	
39.79977	2071.066		-34.56947	
39.85372	2069.221		-34.57326	
39.90767	2067.357		-34.57786	
39.96162	2065.483		-34.5832	
40.01557	2063.604		-34.58918	
40.06952	2061.725		-34.5957	
40.12347	2059.85		-34.60261	
40.17741	2057.983		-34.60975	
40.23136	2056.124		-34.61694	
40.28531	2054.271		-34.62399	
40.33926	2052.423		-34.63071	
40.39321	2050.574		-34.63685	
40.44716	2048.715		-34.64219	
40.50111	2046.842		-34.64647	
40.55506	2044.954		-34.6494	
40.609	2043.056		-34.65071	
40.66296	2041.152		-34.65011	
40.7169	2039.249		-34.64735	
40.77085	2037.353		-34.64223	
40.8248	2035.467		-34.63459	
40.87875	2033.587		-34.62436	
40.9327	2031.708		-34.61149	
40.98665	2029.828		-34.59599	
41.0406	2027.949		-34.57792	
41.09455	2026.077		-34.55733	
41.1485	2024.216		-34.53436	
41.20245	2022.375		-34.50911	
41.2564	2020.553		-34.48173	
41.31034	2018.744		-34.45236	
41.3643	2016.93		-34.42116	
41.41824	2015.094		-34.38829	
41.47219	2013.225		-34.35389	
41.52614	2011.321		-34.31812	
41.58009	2009.386		-34.28115	
41.63404	2007.424		-34.24318	
41.68799	2005.439		-34.20437	
41.74194	2003.438		-34.16491	
41.79589	2001.433		-34.12498	
41.84983	1999.434		-34.08476	
41.90379	1997.454		-34.0444	
41.95773	1995.498		-34.00406	
42.01168	1993.566		-33.96386	
42.06563	1991.655		-33.92387	
42.11958	1989.756		-33.88412	
42.17353	1987.861		-33.84464	
42.22748	1985.968		-33.80541	
42.28143	1984.079		-33.7664	
42.33538	1982.198		-33.72756	
42.38933	1980.327		-33.6888	
42.44328	1978.467		-33.65005	
42.49723	1976.615		-33.61118	
42.55117	1974.772		-33.57207	
42.60512	1972.948		-33.53263	
42.65907	1971.154		-33.49277	
42.71302	1969.403		-33.45246	
42.76697	1967.698		-33.41166	
42.82092	1966.036		-33.37039	
42.87487	1964.415		-33.32864	
42.92882	1962.827		-33.28646	
42.98277	1961.261		-33.24389	
43.03672	1959.698		-33.20102	
43.09066	1958.121		-33.15794	
43.14462	1956.519		-33.11477	
43.19856	1954.883		-33.07162	
43.25251	1953.215		-33.02863	
43.30646	1951.521		-32.98592	
43.36041	1949.803		-32.94363	
43.41436	1948.065		-32.90189	
43.46831	1946.312		-32.86082	
43.52226	1944.555		-32.8206	
43.57621	1942.798		-32.78137	
43.63016	1941.042		-32.74332	
43.6841	1939.28		-32.70663	
43.73806	1937.509		-32.67145	
43.792	1935.729		-32.63791	
43.84595	1933.937		-32.60609	
43.8999	1932.129		-32.57602	
43.95385	1930.305		-32.54766	
44.0078	1928.473		-32.52097	
44.06175	1926.633		-32.49586	
44.1157	1924.787		-32.47221	
44.16965	1922.937		-32.44987	
44.22359	1921.088		-32.42864	
44.27755	1919.244		-32.40833	
44.33149	1917.407		-32.38871	
44.38544	1915.586		-32.36953	
44.43939	1913.782		-32.35057	
44.49334	1911.995		-32.33154	
44.54729	1910.226		-32.31218	
44.60124	1908.48		-32.29227	
44.65519	1906.76		-32.27158	
44.70914	1905.064		-32.24997	
44.76309	1903.381		-32.22729	
44.81704	1901.702		-32.20346	
44.87099	1900.02		-32.1784	
44.92493	1898.335		-32.15204	
44.97889	1896.645		-32.12436	
45.03283	1894.946		-32.09536	
45.08678	1893.241		-32.06507	
45.14073	1891.525		-32.03357	
45.19468	1889.79		-32.00095	
45.24863	1888.032		-31.96731	
45.30258	1886.254		-31.93274	
45.35653	1884.459		-31.89734	
45.41048	1882.655		-31.86124	
45.46442	1880.846		-31.8246	
45.51838	1879.037		-31.78759	
45.57232	1877.231		-31.75041	
45.62627	1875.428		-31.71327	
45.68022	1873.63		-31.67641	
45.73417	1871.847		-31.64006	
45.78812	1870.086		-31.60445	
45.84207	1868.348		-31.56978	
45.89602	1866.628		-31.53623	
45.94997	1864.925		-31.50398	
46.00392	1863.238		-31.47321	
46.05787	1861.563		-31.4441	
46.11182	1859.898		-31.41679	
46.16576	1858.248		-31.39145	
46.21971	1856.617		-31.36819	
46.27366	1855		-31.34711	
46.32761	1853.397		-31.32828	
46.38156	1851.807		-31.3117	
46.43551	1850.231		-31.29738	
46.48946	1848.664		-31.28524	
46.54341	1847.099		-31.27524	
46.59736	1845.536		-31.26726	
46.65131	1843.975		-31.26122	
46.70525	1842.41		-31.25698	
46.7592	1840.833		-31.25445	
46.81315	1839.238		-31.25348	
46.8671	1837.626		-31.25395	
46.92105	1835.993		-31.25573	
46.975	1834.339		-31.25872	
47.02895	1832.671		-31.26279	
47.0829	1830.996		-31.26785	
47.13685	1829.316		-31.27382	
47.1908	1827.625		-31.28059	
47.24475	1825.922		-31.2881	
47.29869	1824.206		-31.29622	
47.35265	1822.482		-31.30483	
47.40659	1820.753		-31.31385	
47.46054	1819.024		-31.32315	
47.51449	1817.303		-31.33262	
47.56844	1815.594		-31.34212	
47.62239	1813.895		-31.35151	
47.67634	1812.208		-31.3606	
47.73029	1810.531		-31.36921	
47.78424	1808.864		-31.37714	
47.83818	1807.201		-31.38423	
47.89214	1805.541		-31.39035	
47.94608	1803.883		-31.39542	
48.00003	1802.223		-31.39938	
48.05398	1800.555		-31.40223	
48.10793	1798.875		-31.40395	
48.16188	1797.179		-31.4046	
48.21583	1795.466		-31.40421	
48.26978	1793.737		-31.40287	
48.32373	1791.992		-31.40064	
48.37768	1790.238		-31.39754	
48.43163	1788.479		-31.39361	
48.48558	1786.709		-31.38884	
48.53952	1784.928		-31.38319	
48.59348	1783.137		-31.37661	
48.64742	1781.341		-31.36901	
48.70137	1779.536		-31.36034	
48.75532	1777.723		-31.3505	
48.80927	1775.906		-31.3394	
48.86322	1774.093		-31.32698	
48.91717	1772.289		-31.3132	
48.97112	1770.497		-31.29803	
49.02507	1768.719		-31.2815	
49.07901	1766.956		-31.26361	
49.13297	1765.207		-31.24442	
49.18691	1763.471		-31.22401	
49.24086	1761.749		-31.2024	
49.29481	1760.037		-31.17965	
49.34876	1758.34		-31.15578	
49.40271	1756.659		-31.13087	
49.45666	1754.994		-31.10493	
49.51061	1753.345		-31.07803	
49.56456	1751.715		-31.05021	
49.61851	1750.104		-31.02153	
49.67245	1748.512		-30.99203	
49.72641	1746.938		-30.96176	
49.78035	1745.379		-30.93078	
49.8343	1743.833		-30.89918	
49.88825	1742.298		-30.86705	
49.9422	1740.766		-30.8345	
49.99615	1739.234		-30.80163	
50.0501	1737.696		-30.76856	
50.10405	1736.143		-30.73537	
50.158	1734.569		-30.70219	
50.21195	1732.968		-30.66913	
50.2659	1731.345		-30.63635	
50.31984	1729.702		-30.60399	
50.37379	1728.045		-30.57221	
50.42774	1726.377		-30.54114	
50.48169	1724.701		-30.51086	
50.53564	1723.016		-30.48143	
50.58959	1721.327		-30.45286	
50.64354	1719.641		-30.42513	
50.69749	1717.959		-30.39819	
50.75144	1716.275		-30.37198	
50.80539	1714.584		-30.34642	
50.85934	1712.886		-30.3214	
50.91328	1711.188		-30.29682	
50.96724	1709.497		-30.27258	
51.02118	1707.822		-30.24857	
51.07513	1706.17		-30.22467	
51.12908	1704.547		-30.2008	
51.18303	1702.953		-30.1769	
51.23698	1701.379		-30.15287	
51.29093	1699.814		-30.12868	
51.34488	1698.251		-30.10424	
51.39883	1696.68		-30.07955	
51.45277	1695.095		-30.05455	
51.50673	1693.494		-30.02924	
51.56067	1691.876		-30.00357	
51.61462	1690.243		-29.97753	
51.66857	1688.596		-29.95113	
51.72252	1686.939		-29.92439	
51.77647	1685.283		-29.89737	
51.83042	1683.64		-29.87017	
51.88437	1682.016		-29.8429	
51.93832	1680.411		-29.81569	
51.99227	1678.822		-29.78867	
52.04622	1677.238		-29.76198	
52.10017	1675.647		-29.73576	
52.15411	1674.035		-29.71016	
52.20807	1672.39		-29.68529	
52.26201	1670.707		-29.66126	
52.31596	1668.988		-29.63815	
52.36991	1667.24		-29.61603	
52.42386	1665.475		-29.59493	
52.47781	1663.705		-29.57483	
52.53176	1661.948		-29.55572	
52.58571	1660.224		-29.53755	
52.63966	1658.551		-29.52024	
52.6936	1656.937		-29.5037	
52.74755	1655.382		-29.48782	
52.8015	1653.878		-29.47247	
52.85545	1652.412		-29.45749	
52.9094	1650.967		-29.44268	
52.96335	1649.527		-29.42781	
53.0173	1648.083		-29.41267	
53.07125	1646.626		-29.39701	
53.1252	1645.153		-29.38063	
53.17915	1643.661		-29.36339	
53.2331	1642.154		-29.34516	
53.28704	1640.638		-29.32587	
53.341	1639.123		-29.30552	
53.39494	1637.617		-29.28417	
53.44889	1636.126		-29.26192	
53.50284	1634.653		-29.23891	
53.55679	1633.194		-29.21527	
53.61074	1631.74		-29.19117	
53.66469	1630.28		-29.16676	
53.71864	1628.798		-29.14216	
53.77259	1627.285		-29.11752	
53.82654	1625.734		-29.09298	
53.88049	1624.146		-29.06867	
53.93443	1622.522		-29.04474	
53.98838	1620.867		-29.02134	
54.04233	1619.191		-28.99865	
54.09628	1617.507		-28.97686	
54.15023	1615.828		-28.9562	
54.20418	1614.164		-28.93683	
54.25813	1612.518		-28.91896	
54.31208	1610.884		-28.90273	
54.36603	1609.257		-28.88826	
54.41998	1607.629		-28.87561	
54.47393	1605.998		-28.86479	
54.52787	1604.365		-28.85575	
54.58183	1602.729		-28.8484	
54.63577	1601.09		-28.84256	
54.68972	1599.454		-28.83804	
54.74367	1597.826		-28.83456	
54.79762	1596.212		-28.83183	
54.85157	1594.615		-28.82949	
54.90552	1593.039		-28.82718	
54.95947	1591.484		-28.82453	
55.01342	1589.949		-28.82116	
55.06737	1588.432		-28.81672	
55.12132	1586.928		-28.81087	
55.17526	1585.427		-28.80331	
55.22921	1583.927		-28.79372	
55.28316	1582.424		-28.78187	
55.33711	1580.919		-28.76755	
55.39106	1579.411		-28.75065	
55.44501	1577.902		-28.73112	
55.49896	1576.396		-28.70897	
55.55291	1574.893		-28.68428	
55.60686	1573.396		-28.65717	
55.6608	1571.908		-28.6278	
55.71476	1570.426		-28.59633	
55.7687	1568.948		-28.56293	
55.82265	1567.467		-28.52777	
55.8766	1565.974		-28.49105	
55.93055	1564.464		-28.45297	
55.9845	1562.93		-28.41375	
56.03845	1561.377		-28.37361	
56.0924	1559.81		-28.33282	
56.14635	1558.238		-28.29163	
56.2003	1556.666		-28.25032	
56.25425	1555.098		-28.20916	
56.30819	1553.536		-28.16842	
56.36214	1551.98		-28.12837	
56.41609	1550.431		-28.08927	
56.47004	1548.889		-28.05133	
56.52399	1547.352		-28.01474	
56.57794	1545.813		-27.97965	
56.63189	1544.266		-27.94616	
56.68584	1542.706		-27.91432	
56.73979	1541.133		-27.88413	
56.79374	1539.55		-27.85554	
56.84769	1537.967		-27.82845	
56.90163	1536.393		-27.80276	
56.95559	1534.838		-27.77835	
57.00953	1533.309		-27.75508	
57.06348	1531.803		-27.73282	
57.11743	1530.317		-27.7114	
57.17138	1528.85		-27.69065	
57.22533	1527.397		-27.67038	
57.27928	1525.95		-27.65043	
57.33323	1524.505		-27.63062	
57.38718	1523.059		-27.6108	
57.44113	1521.608		-27.59083	
57.49508	1520.15		-27.5706	
57.54902	1518.684		-27.54998	
57.60297	1517.209		-27.52887	
57.65692	1515.732		-27.50714	
57.71087	1514.264		-27.48471	
57.76482	1512.814		-27.46149	
57.81877	1511.388		-27.43742	
57.87272	1509.98		-27.41244	
57.92667	1508.583		-27.38654	
57.98062	1507.188		-27.35971	
58.03456	1505.791		-27.33197	
58.08852	1504.386		-27.30331	
58.14246	1502.967		-27.27374	
58.19641	1501.529		-27.24323	
58.25036	1500.076		-27.21178	
58.30431	1498.613		-27.17935	
58.35826	1497.144		-27.14593	
58.41221	1495.671		-27.11151	
58.46616	1494.197		-27.07609	
58.52011	1492.722		-27.03971	
58.57406	1491.245		-27.00241	
58.62801	1489.765		-26.96427	
58.68196	1488.279		-26.92538	
58.7359	1486.791		-26.88581	
58.78985	1485.299		-26.84563	
58.8438	1483.804		-26.8049	
58.89775	1482.31		-26.76366	
58.9517	1480.817		-26.72191	
59.00565	1479.331		-26.67965	
59.0596	1477.854		-26.63682	
59.11355	1476.387		-26.59338	
59.1675	1474.927		-26.54924	
59.22145	1473.472		-26.50437	
59.27539	1472.017		-26.45871	
59.32935	1470.558		-26.41224	
59.38329	1469.094		-26.36494	
59.43724	1467.627		-26.3168	
59.49119	1466.158		-26.26779	
59.54514	1464.687		-26.21785	
59.59909	1463.215		-26.1669	
59.65304	1461.744		-26.11485	
59.70699	1460.276		-26.06163	
59.76094	1458.816		-26.00714	
59.81489	1457.363		-25.95133	
59.86884	1455.918		-25.89414	
59.92278	1454.481		-25.83554	
59.97673	1453.054		-25.77551	
60.03068	1451.635		-25.71408	
60.08463	1450.225		-25.65126	
60.13858	1448.823		-25.5871	
60.19253	1447.427		-25.52164	
60.24648	1446.04		-25.45497	
60.30043	1444.663		-25.38715	
60.35438	1443.299		-25.31825	
60.40833	1441.951		-25.24834	
60.46228	1440.62		-25.17747	
60.51622	1439.304		-25.10574	
60.57018	1437.999		-25.03322	
60.62412	1436.702		-24.96005	
60.67807	1435.413		-24.88632	
60.73202	1434.133		-24.81219	
60.78597	1432.862		-24.73777	
60.83992	1431.599		-24.66321	
60.89387	1430.335		-24.58862	
60.94782	1429.068		-24.51406	
61.00177	1427.796		-24.43961	
61.05572	1426.517		-24.36528	
61.10966	1425.229		-24.29111	
61.16361	1423.93		-24.21713	
61.21756	1422.622		-24.14337	
61.27151	1421.308		-24.06987	
61.32546	1419.99		-23.99664	
61.37941	1418.672		-23.9237	
61.43336	1417.356		-23.85105	
61.48731	1416.047		-23.77865	
61.54126	1414.745		-23.70641	
61.59521	1413.454		-23.63418	
61.64915	1412.174		-23.56176	
61.70311	1410.901		-23.48891	
61.75705	1409.633		-23.41532	
61.811	1408.37		-23.34066	
61.86495	1407.111		-23.26457	
61.9189	1405.853		-23.18668	
61.97285	1404.595		-23.10661	
62.0268	1403.336		-23.02398	
62.08075	1402.078		-22.93841	
62.1347	1400.828		-22.84955	
62.18865	1399.588		-22.75707	
62.2426	1398.362		-22.66064	
62.29655	1397.15		-22.55992	
62.35049	1395.953		-22.45458	
62.40444	1394.773		-22.34426	
62.45839	1393.604		-22.2286	
62.51234	1392.441		-22.10724	
62.56629	1391.272		-21.9798	
62.62024	1390.088		-21.84595	
62.67419	1388.883		-21.70533	
62.72814	1387.655		-21.55766	
62.78209	1386.405		-21.40261	
62.83604	1385.138		-21.23989	
62.88998	1383.858		-21.06921	
62.94394	1382.578		-20.89028	
62.99788	1381.308		-20.70282	
63.05183	1380.059		-20.50653	
63.10578	1378.836		-20.30117	
63.15973	1377.639		-20.08649	
63.21368	1376.466		-19.86229	
63.26763	1375.31		-19.62839	
63.32158	1374.165		-19.38457	
63.37553	1373.025		-19.13069	
63.42948	1371.887		-18.8665	
63.48343	1370.744		-18.59184	
63.53738	1369.598		-18.30642	
63.59132	1368.455		-18.01001	
63.64527	1367.315		-17.70224	
63.69922	1366.183		-17.38276	
63.75317	1365.064		-17.05117	
63.80712	1363.963		-16.70699	
63.86107	1362.887		-16.34981	
63.91502	1361.839		-15.9791	
63.96897	1360.822		-15.59445	
64.02292	1359.834		-15.1953	
64.07687	1358.878		-14.78121	
64.13081	1357.958		-14.35164	
64.18476	1357.074		-13.90608	
64.23872	1356.227		-13.44392	
64.29266	1355.413		-12.96474	
64.34661	1354.625		-12.46789	
64.40056	1353.859		-11.95278	
64.45451	1353.108		-11.41884	
64.50846	1352.369		-10.8654	
64.56241	1351.646		-10.29204	
64.61636	1350.939		-9.698133	
64.6703	1350.255		-9.083154	
64.72426	1349.6		-8.446514	
64.77821	1348.979		-7.787899	
64.83215	1348.397		-7.106709	
64.8861	1347.859		-6.402461	
64.94005	1347.368		-5.674695	
64.994	1346.93		-4.922813	
65.04795	1346.545		-4.146543	
65.1019	1346.213		-3.345264	
65.15585	1345.926		-2.518488	
65.20979	1345.672		-1.665763	
65.26375	1345.443		-0.7864999	
65.3177	1345.231		0.1195396	
65.37164	1345.032		1.052947	
65.42559	1344.847		2.014168	
65.47955	1344.681		3.003833	
65.53349	1344.541		4.022135	
65.58744	1344.439		5.069734	
65.64139	1344.383		6.147139	
65.69534	1344.38		7.25485	
65.74929	1344.437		8.393593	
65.80324	1344.558		9.563592	
65.85719	1344.75		10.76562	
65.91113	1345.013		12.00025	
65.96508	1345.347		13.26808	
66.01904	1345.746		14.56992	
66.07298	1346.206		15.90612	
66.12693	1346.725		17.27756	
66.18088	1347.304		18.68495	
66.23483	1347.944		20.12929	
66.28878	1348.652		21.61096	
66.34273	1349.436		23.13103	
66.39668	1350.301		24.69039	
66.45062	1351.251		26.28987	
66.50458	1352.291		27.93062	
66.55853	1353.423		29.61312	
66.61247	1354.652		31.33845	
66.66642	1355.981		33.10758	
66.72038	1357.411		34.92154	
66.77432	1358.938		36.78074	
66.82827	1360.562		38.68622	
66.88222	1362.285		40.63898	
66.93616	1364.112		42.63971	
66.99012	1366.045		44.68957	
67.04407	1368.086		46.7888	
67.09801	1370.237		48.93839	
67.15196	1372.503		51.13926	
67.20591	1374.884		53.39195	
67.25986	1377.381		55.69748	
67.31381	1379.991		58.05571	
67.36776	1382.716		60.46763	
67.42171	1385.554		62.93352	
67.47566	1388.507		65.45413	
67.52961	1391.58		68.02905	
67.58356	1394.78		70.65875	
67.6375	1398.118		73.34351	
67.69145	1401.6		76.08317	
67.74541	1405.23		78.87813	
67.79935	1409.009		81.72744	
67.8533	1412.939		84.63119	
67.90725	1417.022		87.58918	
67.9612	1421.264		90.60121	
68.01515	1425.664		93.66592	
68.0691	1430.226		96.78298	
68.12305	1434.948		99.95181	
68.17699	1439.828		103.1714	
68.23095	1444.865		106.4413	
68.2849	1450.063		109.7597	
68.33884	1455.43		113.1261	
68.39279	1460.971		116.5395	
68.44674	1466.693		119.9987	
68.50069	1472.6		123.5034	
68.55464	1478.699		127.0513	
68.60859	1484.999		130.6419	
68.66254	1491.505		134.2741	
68.71649	1498.221		137.9471	
68.77044	1505.146		141.6588	
68.82439	1512.288		145.4083	
68.87833	1519.656		149.1946	
68.93228	1527.259		153.0161	
68.98624	1535.106		156.8719	
69.04018	1543.199		160.7595	
69.09413	1551.544		164.6775	
69.14808	1560.142		168.6241	
69.20203	1568.998		172.5973	
69.25598	1578.115		176.5952	
69.30993	1587.488		180.6141	
69.36388	1597.118		184.652	
69.41782	1607.001		188.7056	
69.47178	1617.139		192.772	
69.52573	1627.53		196.8465	
69.57967	1638.18		200.9256	
69.63362	1649.092		205.0049	
69.68757	1660.268		209.0797	
69.74152	1671.713		213.1455	
69.79547	1683.42		217.1957	
69.84942	1695.387		221.2251	
69.90337	1707.612		225.2274	
69.95732	1720.091		229.1965	
70.01127	1732.82		233.1244	
70.06522	1745.799		237.0041	
70.11916	1759.025		240.8279	
70.17311	1772.49		244.5878	
70.22707	1786.19		248.276	
70.28101	1800.115		251.8829	
70.33496	1814.266		255.4007	
70.38891	1828.641		258.8203	
70.44286	1843.234		262.1332	
70.49681	1858.043		265.331	
70.55076	1873.062		268.4044	
70.60471	1888.291		271.345	
70.65865	1903.728		274.1449	
70.71261	1919.376		276.7963	
70.76656	1935.234		279.2907	
70.8205	1951.312		281.6216	
70.87445	1967.617		283.7815	
70.9284	1984.156		285.7645	
70.98235	2000.936		287.5648	
71.0363	2017.955		289.1764	
71.09025	2035.212		290.5949	
71.1442	2052.701		291.8156	
71.19815	2070.421		292.8353	
71.2521	2088.364		293.6505	
71.30605	2106.523		294.2589	
71.35999	2124.889		294.6579	
71.41394	2143.448		294.8467	
71.4679	2162.185		294.8242	
71.52184	2181.068		294.5902	
71.57579	2200.079		294.1451	
71.62974	2219.199		293.4891	
71.68369	2238.41		292.6243	
71.73764	2257.692		291.5521	
71.79159	2277.016		290.2751	
71.84554	2296.353		288.7962	
71.89948	2315.669		287.1178	
71.95344	2334.929		285.244	
72.00739	2354.091		283.1789	
72.06133	2373.116		280.9267	
72.11528	2391.965		278.491	
72.16923	2410.6		275.8773	
72.22318	2428.979		273.0899	
72.27713	2447.056		270.1348	
72.33108	2464.792		267.0169	
72.38503	2482.149		263.7415	
72.43897	2499.099		260.3146	
72.49293	2515.625		256.7417	
72.54688	2531.704		253.0302	
72.60082	2547.325		249.1854	
72.65477	2562.476		245.2146	
72.70872	2577.154		241.1239	
72.76267	2591.343		236.9216	
72.81662	2605.044		232.6147	
72.87057	2618.257		228.2106	
72.92451	2630.985		223.7175	
72.97847	2643.236		219.1429	
73.03242	2655.018		214.4967	
73.08636	2666.34		209.7869	
73.14031	2677.203		205.0224	
73.19427	2687.603		200.2119	
73.24821	2697.532		195.3659	
73.30216	2707		190.4932	
73.35611	2716.024		185.6032	
73.41006	2724.628		180.7052	
73.46401	2732.835		175.808	
73.51796	2740.66		170.9223	
73.57191	2748.128		166.0565	
73.62585	2755.256		161.2197	
73.6798	2762.068		156.4206	
73.73376	2768.586		151.6672	
73.7877	2774.829		146.9689	
73.84165	2780.809		142.3334	
73.8956	2786.537		137.768	
73.94955	2792.023		133.2795	
74.0035	2797.274		128.8759	
74.05745	2802.301		124.5629	
74.1114	2807.112		120.3467	
74.16534	2811.72		116.2321	
74.2193	2816.136		112.2235	
74.27325	2820.375		108.326	
74.32719	2824.453		104.5423	
74.38114	2828.39		100.8757	
74.43509	2832.202		97.32779	
74.48904	2835.896		93.89973	
74.54299	2839.474		90.59318	
74.59694	2842.938		87.40824	
74.65089	2846.295		84.34418	
74.70484	2849.55		81.39985	
74.75879	2852.7		78.57471	
74.81274	2855.745		75.86645	
74.86668	2858.687		73.27323	
74.92063	2861.523		70.79224	
74.97459	2864.259		68.4205	
75.02853	2866.904		66.15574	
75.08248	2869.475		63.99435	
75.13643	2871.989		61.93328	
75.19038	2874.458		59.96853	
75.24433	2876.885		58.0972	
75.29828	2879.273		56.31528	
75.35223	2881.621		54.61929	
75.40617	2883.922		53.00525	
75.46013	2886.175		51.46921	
75.51408	2888.386		50.0078	
75.56802	2890.564		48.61694	
75.62197	2892.714		47.29306	
75.67592	2894.842		46.03229	
75.72987	2896.956		44.83094	
75.78382	2899.059		43.68583	
75.83777	2901.152		42.59351	
75.89172	2903.228		41.55065	
75.94567	2905.283		40.5541	
75.99962	2907.313		39.6013	
76.05357	2909.319		38.6894	
76.10751	2911.298		37.81601	
76.16146	2913.245		36.97877	
76.21542	2915.149		36.17548	
76.26936	2917.005		35.40443	
76.32331	2918.816		34.66375	
76.37726	2920.588		33.95185	
76.43121	2922.326		33.26704	
76.48516	2924.038		32.60803	
76.53911	2925.723		31.97328	
76.59306	2927.381		31.36144	
76.647	2929.015		30.77112	
76.70096	2930.624		30.20094	
76.75491	2932.201		29.6498	
76.80885	2933.745		29.11638	
76.8628	2935.253		28.59956	
76.91675	2936.718		28.09823	
76.9707	2938.126		27.61136	
77.02465	2939.471		27.13825	
77.0786	2940.754		26.67811	
77.13255	2941.984		26.23032	
77.1865	2943.179		25.79431	
77.24045	2944.358		25.36977	
77.2944	2945.536		24.95627	
77.34834	2946.719		24.55358	
77.40229	2947.907		24.1614	
77.45625	2949.098		23.77947	
77.51019	2950.293		23.40768	
77.56414	2951.489		23.04577	
77.61809	2952.675		22.69362	
77.67204	2953.838		22.35108	
77.72599	2954.969		22.01806	
77.77994	2956.061		21.69462	
77.83389	2957.113		21.38075	
77.88783	2958.124		21.07642	
77.94179	2959.095		20.78165	
77.99574	2960.027		20.49656	
78.04968	2960.926		20.22117	
78.10363	2961.802		19.9556	
78.15758	2962.667		19.69994	
78.21153	2963.526		19.45433	
78.26548	2964.383		19.21903	
78.31943	2965.24		18.99425	
78.37337	2966.098		18.78028	
78.42733	2966.958		18.57737	
78.48128	2967.824		18.38589	
78.53522	2968.697		18.2061	
78.58917	2969.578		18.03828	
78.64312	2970.463		17.88258	
78.69707	2971.345		17.73914	
78.75102	2972.223		17.60805	
78.80497	2973.104		17.48926	
78.85892	2973.998		17.38272	
78.91286	2974.911		17.28824	
78.96682	2975.84		17.20563	
79.02077	2976.779		17.13471	
79.07471	2977.72		17.07528	
79.12866	2978.657		17.0271	
79.18262	2979.588		16.98995	
79.23656	2980.504		16.96364	
79.29051	2981.4		16.94797	
79.34446	2982.272		16.94281	
79.39841	2983.119		16.94798	
79.45236	2983.942		16.96342	
79.50631	2984.751		16.98903	
79.56026	2985.554		17.02476	
79.6142	2986.362		17.07062	
79.66816	2987.18		17.12658	
79.72211	2988.007		17.19265	
79.77605	2988.837		17.2688	
79.83	2989.662		17.35506	
79.88395	2990.475		17.4513	
79.9379	2991.268		17.55739	
79.99185	2992.032		17.67307	
80.0458	2992.762		17.79806	
80.09975	2993.466		17.93204	
80.15369	2994.156		18.07458	
80.20765	2994.856		18.2253	
80.2616	2995.592		18.38369	
80.31554	2996.382		18.54926	
80.36949	2997.232		18.72156	
80.42345	2998.149		18.90007	
80.47739	2999.129		19.08424	
80.53134	3000.167		19.27357	
80.58529	3001.252		19.46749	
80.63924	3002.372		19.66534	
80.69319	3003.511		19.86644	
80.74714	3004.651		20.06998	
80.80109	3005.779		20.27517	
80.85503	3006.884		20.48117	
80.90898	3007.962		20.68707	
80.96294	3009.015		20.89196	
81.01688	3010.049		21.09477	
81.07083	3011.08		21.29447	
81.12478	3012.121		21.48991	
81.17873	3013.179		21.68001	
81.23268	3014.259		21.86357	
81.28663	3015.37		22.03952	
81.34058	3016.517		22.20676	
81.39452	3017.704		22.3643	
81.44848	3018.927		22.5112	
81.50243	3020.18		22.64655	
81.55637	3021.455		22.76962	
81.61032	3022.745		22.87972	
81.66428	3024.038		22.97637	
81.71822	3025.332		23.05905	
81.77217	3026.631		23.12739	
81.82612	3027.942		23.18099	
81.88007	3029.283		23.21957	
81.93402	3030.668		23.2428	
81.98797	3032.107		23.25034	
82.04192	3033.599		23.24189	
82.09586	3035.143		23.21705	
82.14981	3036.739		23.17555	
82.20377	3038.391		23.11704	
82.25771	3040.096		23.04128	
82.31166	3041.845		22.94793	
82.36561	3043.62		22.83681	
82.41956	3045.402		22.70765	
82.47351	3047.162		22.56027	
82.52746	3048.882		22.39445	
82.58141	3050.547		22.20988	
82.63535	3052.158		22.00634	
82.68931	3053.719		21.78348	
82.74326	3055.238		21.54104	
82.7972	3056.719		21.27869	
82.85115	3058.169		20.99603	
82.9051	3059.591		20.69283	
82.95905	3060.992		20.36866	
83.013	3062.377		20.02328	
83.06695	3063.749		19.65616	
83.1209	3065.095		19.26697	
83.17485	3066.396		18.85522	
83.2288	3067.627		18.42069	
83.28275	3068.772		17.96307	
83.33669	3069.819		17.48208	
83.39064	3070.771		16.97765	
83.4446	3071.637		16.44962	
83.49854	3072.438		15.89816	
83.55249	3073.194		15.32333	
83.60644	3073.922		14.7253	
83.66039	3074.631		14.10438	
83.71434	3075.335		13.46117	
83.76829	3076.046		12.79614	
83.82224	3076.773		12.1099	
83.87618	3077.517		11.40324	
83.93014	3078.27		10.67685	
83.98409	3079.008		9.931888	
84.03803	3079.703		9.169283	
84.09198	3080.333		8.390092	
84.14593	3080.895		7.59552	
84.19988	3081.396		6.78665	
84.25383	3081.845		5.964975	
84.30778	3082.249		5.131628	
84.36172	3082.619		4.287942	
84.41568	3082.964		3.435071	
84.46963	3083.289		2.574512	
84.52357	3083.6		1.707352	
84.57752	3083.896		0.8347052	
84.63147	3084.173		-0.04234323	
84.68542	3084.42		-0.9229285	
84.73937	3084.624		-1.805855	
84.79332	3084.771		-2.69032	
84.84727	3084.846		-3.575433	
84.90122	3084.839		-4.460412	
84.95517	3084.742		-5.344153	
85.00912	3084.552		-6.225964	
85.06306	3084.271		-7.105099	
85.11701	3083.901		-7.980861	
85.17097	3083.447		-8.852739	
85.22491	3082.917		-9.719888	
85.27886	3082.327		-10.58188	
85.33281	3081.691		-11.43818	
85.38676	3081.018		-12.28831	
85.44071	3080.31		-13.13192	
85.49466	3079.567		-13.9683	
85.54861	3078.775		-14.79712	
85.60255	3077.914		-15.61787	
85.65651	3076.962		-16.43017	
85.71046	3075.913		-17.23325	
85.7644	3074.763		-18.02671	
85.81835	3073.526		-18.81	
85.8723	3072.216		-19.58269	
85.92625	3070.848		-20.34441	
85.9802	3069.431		-21.0945	
86.03415	3067.974		-21.83264	
86.0881	3066.477		-22.55834	
86.14204	3064.948		-23.27122	
86.196	3063.386		-23.97094	
86.24995	3061.79		-24.65694	
86.30389	3060.153		-25.32891	
86.35784	3058.47		-25.98659	
86.4118	3056.742		-26.6298	
86.46574	3054.972		-27.25812	
86.51969	3053.164		-27.87151	
86.57364	3051.328		-28.4698	
86.62759	3049.465		-29.05309	
86.68154	3047.571		-29.62154	
86.73549	3045.645		-30.17523	
86.78944	3043.691		-30.71453	
86.84338	3041.717		-31.2397	
86.89734	3039.739		-31.75121	
86.95129	3037.771		-32.24926	
87.00523	3035.822		-32.73434	
87.05918	3033.885		-33.20679	
87.11313	3031.949		-33.6671	
87.16708	3029.995		-34.11572	
87.22103	3028.015		-34.55299	
87.27498	3026.006		-34.97946	
87.32893	3023.974		-35.39559	
87.38287	3021.926		-35.8019	
87.43683	3019.877		-36.19892	
87.49078	3017.841		-36.58696	
87.54472	3015.822		-36.9665	
87.59867	3013.817		-37.33793	
87.65263	3011.823		-37.70167	
87.70657	3009.835		-38.05793	
87.76052	3007.849		-38.40709	
87.81447	3005.858		-38.74947	
87.86842	3003.852		-39.08541	
87.92237	3001.817		-39.41529	
87.97632	2999.754		-39.73934	
88.03027	2997.665		-40.05791	
88.08421	2995.561		-40.37128	
88.13816	2993.451		-40.6797	
88.19212	2991.346		-40.98346	
88.24606	2989.251		-41.28271	
88.30001	2987.168		-41.57771	
88.35396	2985.091		-41.86866	
88.40791	2983.004		-42.15576	
88.46186	2980.895		-42.43908	
88.51581	2978.758		-42.71877	
88.56976	2976.595		-42.99488	
88.6237	2974.406		-43.26748	
88.67766	2972.184		-43.53667	
88.73161	2969.926		-43.80248	
88.78555	2967.628		-44.06507	
88.8395	2965.289		-44.32463	
88.89346	2962.908		-44.58138	
88.9474	2960.488		-44.83549	
89.00135	2958.031		-45.08726	
89.0553	2955.542		-45.33693	
89.10925	2953.029		-45.58475	
89.1632	2950.49		-45.83097	
89.21715	2947.921		-46.07569	
89.2711	2945.311		-46.31907	
89.32504	2942.649		-46.56115	
89.37899	2939.935		-46.80193	
89.43295	2937.177		-47.04136	
89.48689	2934.383		-47.27915	
89.54084	2931.562		-47.51506	
89.59479	2928.721		-47.74878	
89.64874	2925.871		-47.97998	
89.70269	2923.02		-48.20825	
89.75664	2920.177		-48.43331	
89.81059	2917.34		-48.65482	
89.86453	2914.511		-48.87252	
89.91849	2911.697		-49.08618	
89.97243	2908.908		-49.29546	
90.02638	2906.147		-49.50016	
90.08033	2903.409		-49.70002	
90.13428	2900.677		-49.89487	
90.18823	2897.941		-50.08448	
90.24218	2895.198		-50.26871	
90.29613	2892.457		-50.44737	
90.35007	2889.719		-50.62036	
90.40403	2886.984		-50.78754	
90.45798	2884.248		-50.94873	
90.51192	2881.508		-51.10381	
90.56587	2878.765		-51.25262	
90.61982	2876.019		-51.39508	
90.67377	2873.262		-51.53111	
90.72772	2870.495		-51.66062	
90.78167	2867.723		-51.78366	
90.83562	2864.96		-51.90034	
90.88957	2862.207		-52.01087	
90.94352	2859.461		-52.11546	
90.99747	2856.711		-52.21447	
91.05141	2853.956		-52.30828	
91.10536	2851.197		-52.39738	
91.15932	2848.438		-52.48225	
91.21326	2845.679		-52.56339	
91.26721	2842.914		-52.6413	
91.32116	2840.125		-52.7165	
91.37511	2837.302		-52.78947	
91.42906	2834.438		-52.86071	
91.48301	2831.532		-52.9306	
91.53696	2828.594		-52.99949	
91.5909	2825.636		-53.06763	
91.64486	2822.675		-53.13525	
91.69881	2819.726		-53.20244	
91.75275	2816.795		-53.26926	
91.8067	2813.879		-53.33571	
91.86065	2810.976		-53.40174	
91.9146	2808.078		-53.4673	
91.96855	2805.184		-53.5323	
92.0225	2802.295		-53.59664	
92.07645	2799.415		-53.66024	
92.1304	2796.531		-53.72299	
92.18435	2793.63		-53.78477	
92.2383	2790.702		-53.84543	
92.29224	2787.744		-53.90484	
92.34619	2784.76		-53.96283	
92.40015	2781.758		-54.01924	
92.45409	2778.75		-54.05457	
92.50804	2775.748		-54.08682	
92.56199	2772.761		-54.1168	
92.61594	2769.794		-54.14526	
92.66989	2766.844		-54.17277	
92.72384	2763.907		-54.19965	
92.77779	2760.979		-54.22612	
92.83173	2758.057		-54.25229	
92.88569	2755.137		-54.2782	
92.93964	2752.216		-54.30386	
92.99358	2749.292		-54.32927	
93.04753	2746.362		-54.35443	
93.10148	2743.42		-54.37934	
93.15543	2740.468		-54.40398	
93.20938	2737.506		-54.42834	
93.26333	2734.537		-54.45244	
93.31728	2731.56		-54.47626	
93.37123	2728.576		-54.49982	
93.42518	2725.582		-54.5231	
93.47913	2722.58		-54.5461	
93.53307	2719.572		-54.56882	
93.58702	2716.566		-54.59125	
93.64098	2713.567		-54.61338	
93.69492	2710.58		-54.63521	
93.74887	2707.604		-54.6567	
93.80282	2704.644		-54.67787	
93.85677	2701.698		-54.69869	
93.91072	2698.758		-54.71915	
93.96467	2695.811		-54.73923	
94.01862	2692.852		-54.75893	
94.07256	2689.842		-54.77822	
94.12652	2686.849		-54.79712	
94.18047	2683.873		-54.81558	
94.23441	2680.905		-54.83361	
94.28836	2677.94		-54.85122	
94.34231	2674.976		-54.86837	
94.39626	2672.01		-54.88509	
94.45021	2669.044		-54.90137	
94.50416	2666.077		-54.91719	
94.55811	2663.11		-54.93258	
94.61205	2660.141		-54.94751	
94.66601	2657.171		-54.96201	
94.71996	2654.202		-54.97607	
94.7739	2651.232		-54.98971	
94.82785	2648.263		-55.00292	
94.88181	2645.294		-55.01573	
94.93575	2642.326		-55.02812	
94.9897	2639.361		-55.04013	
