T[Â°C]	330nm [counts / mm]	S.D.	First derivative	S.D. of first derivative
20.00045	3211.489		-45.73503	
20.0544	3208.742		-45.67489	
20.10835	3206		-45.61557	
20.1623	3203.263		-45.55708	
20.21625	3200.531		-45.49946	
20.2702	3197.803		-45.4427	
20.32414	3195.08		-45.38683	
20.37809	3192.36		-45.33186	
20.43204	3189.644		-45.2778	
20.48599	3186.934		-45.22465	
20.53994	3184.229		-45.17242	
20.59389	3181.531		-45.12109	
20.64784	3178.84		-45.07067	
20.70179	3176.158		-45.02115	
20.75574	3173.486		-44.9725	
20.80969	3170.825		-44.92471	
20.86364	3168.178		-44.87775	
20.91759	3165.551		-44.83159	
20.97153	3162.961		-44.7862	
21.02548	3160.512		-44.74152	
21.07943	3158.08		-44.69751	
21.13338	3155.659		-44.65411	
21.18733	3153.247		-44.61125	
21.24128	3150.848		-44.56887	
21.29523	3148.478		-44.52689	
21.34918	3146.148		-44.48525	
21.40313	3143.864		-44.44386	
21.45708	3141.63		-44.40263	
21.51102	3139.437		-44.36149	
21.56497	3137.281		-44.32034	
21.61892	3135.163		-44.27908	
21.67287	3133.079		-44.23763	
21.72682	3131.017		-44.19589	
21.78077	3128.954		-44.15377	
21.83472	3126.868		-44.11116	
21.88867	3124.743		-44.06797	
21.94262	3122.576		-44.02412	
21.99657	3120.369		-43.97953	
22.05052	3118.128		-43.93412	
22.10447	3115.859		-43.88784	
22.15841	3113.572		-43.84067	
22.21236	3111.273		-43.79263	
22.26631	3108.964		-43.7438	
22.32026	3106.645		-43.69443	
22.37421	3104.317		-43.64491	
22.42816	3101.977		-43.59596	
22.48211	3099.621		-43.54869	
22.53606	3097.251		-43.50465	
22.59001	3094.87		-43.46569	
22.64396	3092.481		-43.43649	
22.6979	3090.082		-43.40876	
22.75185	3087.667		-43.38269	
22.8058	3085.23		-43.35843	
22.85975	3082.765		-43.33612	
22.9137	3080.28		-43.31585	
22.96765	3077.781		-43.29769	
23.0216	3075.271		-43.28165	
23.07555	3072.757		-43.26769	
23.1295	3070.246		-43.25572	
23.18345	3067.746		-43.24564	
23.2374	3065.271		-43.23735	
23.29135	3062.829		-43.23071	
23.34529	3060.421		-43.22556	
23.39924	3058.045		-43.22169	
23.45319	3055.688		-43.21887	
23.50714	3053.337		-43.21684	
23.56109	3050.985		-43.21528	
23.61504	3048.633		-43.21391	
23.66899	3046.279		-43.21241	
23.72294	3043.918		-43.2105	
23.77689	3041.544		-43.20789	
23.83084	3039.153		-43.2043	
23.88478	3036.747		-43.19948	
23.93873	3034.335		-43.19319	
23.99268	3031.93		-43.18523	
24.04663	3029.54		-43.17544	
24.10058	3027.17		-43.16374	
24.15453	3024.829		-43.15012	
24.20848	3022.526		-43.13461	
24.26243	3020.27		-43.11729	
24.31638	3018.06		-43.09822	
24.37033	3015.884		-43.07749	
24.42428	3013.72		-43.05516	
24.47823	3011.555		-43.0313	
24.53218	3009.376		-43.006	
24.58612	3007.174		-42.97927	
24.64007	3004.949		-42.95112	
24.69402	3002.706		-42.92155	
24.74797	3000.452		-42.89057	
24.80192	2998.192		-42.85817	
24.85587	2995.936		-42.82439	
24.90982	2993.7		-42.78929	
24.96377	2991.491		-42.75294	
25.01772	2989.306		-42.71548	
25.07166	2987.136		-42.6771	
25.12561	2984.969		-42.63803	
25.17956	2982.794		-42.59848	
25.23351	2980.607		-42.5587	
25.28746	2978.397		-42.51891	
25.34141	2976.153		-42.47927	
25.39536	2973.864		-42.43999	
25.44931	2971.521		-42.40122	
25.50326	2969.129		-42.36311	
25.55721	2966.699		-42.32582	
25.61116	2964.25		-42.28949	
25.66511	2961.802		-42.25429	
25.71906	2959.365		-42.22033	
25.773	2956.942		-42.18773	
25.82695	2954.536		-42.15656	
25.8809	2952.15		-42.12685	
25.93485	2949.783		-42.09862	
25.9888	2947.437		-42.07188	
26.04275	2945.105		-42.04665	
26.0967	2942.783		-42.02294	
26.15065	2940.459		-42.00081	
26.2046	2938.128		-41.98025	
26.25854	2935.792		-41.96122	
26.31249	2933.452		-41.94361	
26.36644	2931.114		-41.92728	
26.42039	2928.784		-41.91204	
26.47434	2926.468		-41.89771	
26.52829	2924.168		-41.88405	
26.58224	2921.882		-41.87082	
26.63619	2919.608		-41.85772	
26.69014	2917.345		-41.84447	
26.74409	2915.088		-41.83075	
26.79804	2912.832		-41.81625	
26.85199	2910.578		-41.80061	
26.90594	2908.332		-41.78352	
26.95988	2906.099		-41.76468	
27.01383	2903.885		-41.74385	
27.06778	2901.689		-41.7209	
27.12173	2899.515		-41.69576	
27.17568	2897.37		-41.66845	
27.22963	2895.256		-41.63905	
27.28358	2893.169		-41.60769	
27.33753	2891.097		-41.57457	
27.39148	2889.031		-41.5399	
27.44543	2886.959		-41.50397	
27.49937	2884.873		-41.46715	
27.55332	2882.764		-41.42982	
27.60727	2880.629		-41.39239	
27.66122	2878.464		-41.35531	
27.71517	2876.271		-41.31901	
27.76912	2874.062		-41.28387	
27.82307	2871.848		-41.25027	
27.87702	2869.632		-41.21848	
27.93097	2867.418		-41.18876	
27.98492	2865.208		-41.16133	
28.03887	2863.003		-41.13638	
28.09282	2860.793		-41.11406	
28.14676	2858.565		-41.09447	
28.20071	2856.315		-41.07767	
28.25466	2854.044		-41.06364	
28.30861	2851.755		-41.05233	
28.36256	2849.449		-41.04365	
28.41651	2847.128		-41.03748	
28.47046	2844.795		-41.03372	
28.52441	2842.451		-41.03223	
28.57836	2840.102		-41.0329	
28.63231	2837.752		-41.03558	
28.68625	2835.406		-41.04011	
28.7402	2833.068		-41.04628	
28.79415	2830.745		-41.05383	
28.8481	2828.449		-41.06242	
28.90205	2826.188		-41.07166	
28.956	2823.968		-41.0811	
29.00995	2821.78		-41.09028	
29.0639	2819.616		-41.09875	
29.11785	2817.474		-41.10608	
29.1718	2815.348		-41.11186	
29.22575	2813.229		-41.1158	
29.2797	2811.111		-41.11763	
29.33364	2808.994		-41.11717	
29.38759	2806.876		-41.11434	
29.44154	2804.763		-41.10912	
29.49549	2802.655		-41.10156	
29.54944	2800.552		-41.09176	
29.60339	2798.448		-41.07985	
29.65734	2796.329		-41.06602	
29.71129	2794.184		-41.05046	
29.76524	2792.009		-41.03337	
29.81919	2789.803		-41.0149	
29.87314	2787.573		-40.99516	
29.92708	2785.329		-40.97425	
29.98103	2783.086		-40.95221	
30.03498	2780.844		-40.92905	
30.08893	2778.594		-40.90472	
30.14288	2776.325		-40.87917	
30.19683	2774.031		-40.85232	
30.25078	2771.708		-40.8241	
30.30473	2769.362		-40.79444	
30.35868	2767.003		-40.76331	
30.41263	2764.646		-40.73067	
30.46658	2762.303		-40.69653	
30.52052	2759.988		-40.66093	
30.57447	2757.708		-40.62393	
30.62842	2755.469		-40.58559	
30.68237	2753.268		-40.54604	
30.73632	2751.099		-40.50537	
30.79027	2748.952		-40.46368	
30.84422	2746.821		-40.42102	
30.89817	2744.701		-40.37738	
30.95212	2742.59		-40.33273	
31.00607	2740.482		-40.28698	
31.06002	2738.373		-40.24004	
31.11396	2736.26		-40.19178	
31.16791	2734.135		-40.14208	
31.22186	2731.988		-40.09087	
31.27581	2729.821		-40.03811	
31.32976	2727.641		-39.98382	
31.38371	2725.461		-39.92809	
31.43766	2723.289		-39.87109	
31.49161	2721.131		-39.81298	
31.54556	2718.985		-39.75398	
31.59951	2716.844		-39.69433	
31.65346	2714.693		-39.63432	
31.70741	2712.518		-39.57426	
31.76135	2710.308		-39.51452	
31.8153	2708.062		-39.45542	
31.86925	2705.784		-39.3973	
31.9232	2703.485		-39.34046	
31.97715	2701.178		-39.28519	
32.0311	2698.883		-39.23171	
32.08505	2696.625		-39.18024	
32.139	2694.421		-39.13094	
32.19295	2692.278		-39.08396	
32.24689	2690.193		-39.03943	
32.30085	2688.161		-38.99746	
32.35479	2686.178		-38.95813	
32.40874	2684.234		-38.92152	
32.46269	2682.317		-38.88768	
32.51664	2680.406		-38.85664	
32.57059	2678.493		-38.82838	
32.62454	2676.571		-38.80286	
32.67849	2674.631		-38.78	
32.73244	2672.664		-38.75972	
32.78639	2670.665		-38.74189	
32.84034	2668.637		-38.72641	
32.89429	2666.592		-38.71312	
32.94823	2664.54		-38.70187	
33.00218	2662.492		-38.69249	
33.05613	2660.459		-38.68477	
33.11008	2658.448		-38.67851	
33.16403	2656.452		-38.67345	
33.21798	2654.458		-38.66939	
33.27193	2652.456		-38.66608	
33.32588	2650.442		-38.66335	
33.37983	2648.41		-38.66103	
33.43378	2646.36		-38.65898	
33.48772	2644.302		-38.6571	
33.54168	2642.237		-38.65526	
33.59562	2640.164		-38.65336	
33.64957	2638.086		-38.65131	
33.70352	2636.005		-38.64901	
33.75747	2633.919		-38.64642	
33.81142	2631.826		-38.64349	
33.86537	2629.723		-38.64026	
33.91932	2627.608		-38.63679	
33.97327	2625.481		-38.63316	
34.02722	2623.353		-38.62942	
34.08117	2621.234		-38.62565	
34.13511	2619.131		-38.62194	
34.18906	2617.048		-38.61835	
34.24301	2614.976		-38.61499	
34.29696	2612.904		-38.61197	
34.35091	2610.827		-38.60939	
34.40486	2608.74		-38.60738	
34.45881	2606.638		-38.60605	
34.51276	2604.513		-38.60548	
34.56671	2602.37		-38.60577	
34.62066	2600.208		-38.60698	
34.67461	2598.022		-38.60911	
34.72855	2595.808		-38.61214	
34.78251	2593.565		-38.61599	
34.83645	2591.304		-38.62054	
34.8904	2589.037		-38.6257	
34.94435	2586.775		-38.6313	
34.9983	2584.529		-38.63714	
35.05225	2582.303		-38.64301	
35.1062	2580.1		-38.64867	
35.16015	2577.918		-38.65384	
35.2141	2575.761		-38.65826	
35.26805	2573.633		-38.66162	
35.32199	2571.54		-38.66367	
35.37594	2569.477		-38.66418	
35.42989	2567.439		-38.66298	
35.48384	2565.421		-38.65993	
35.53779	2563.414		-38.65495	
35.59174	2561.417		-38.64795	
35.64569	2559.434		-38.63889	
35.69964	2557.47		-38.6277	
35.75359	2555.526		-38.61434	
35.80754	2553.598		-38.59882	
35.86148	2551.679		-38.58118	
35.91544	2549.758		-38.56147	
35.96938	2547.828		-38.53979	
36.02333	2545.884		-38.51622	
36.07728	2543.924		-38.49084	
36.13123	2541.956		-38.46376	
36.18518	2539.986		-38.43509	
36.23913	2538.017		-38.40495	
36.29308	2536.047		-38.3735	
36.34703	2534.076		-38.34094	
36.40098	2532.093		-38.30745	
36.45493	2530.088		-38.27326	
36.50888	2528.054		-38.23864	
36.56282	2525.99		-38.20386	
36.61677	2523.896		-38.1692	
36.67072	2521.768		-38.13494	
36.72467	2519.604		-38.1013	
36.77862	2517.402		-38.06847	
36.83257	2515.165		-38.03658	
36.88652	2512.903		-38.00569	
36.94047	2510.635		-37.97579	
36.99442	2508.384		-37.94678	
37.04837	2506.156		-37.91846	
37.10231	2503.959		-37.89059	
37.15627	2501.791		-37.86286	
37.21021	2499.65		-37.83491	
37.26416	2497.533		-37.80634	
37.31811	2495.439		-37.77678	
37.37206	2493.361		-37.7459	
37.42601	2491.298		-37.7134	
37.47996	2489.248		-37.67904	
37.53391	2487.214		-37.64263	
37.58786	2485.194		-37.60405	
37.64181	2483.185		-37.56323	
37.69576	2481.184		-37.52018	
37.7497	2479.191		-37.47496	
37.80365	2477.212		-37.4277	
37.8576	2475.25		-37.3786	
37.91155	2473.303		-37.32786	
37.9655	2471.366		-37.27571	
38.01945	2469.425		-37.22237	
38.0734	2467.472		-37.16806	
38.12735	2465.499		-37.11301	
38.1813	2463.507		-37.05742	
38.23524	2461.497		-37.00152	
38.2892	2459.48		-36.9455	
38.34314	2457.463		-36.88959	
38.39709	2455.449		-36.834	
38.45104	2453.439		-36.779	
38.50499	2451.43		-36.72486	
38.55894	2449.422		-36.6719	
38.61289	2447.414		-36.62046	
38.66684	2445.403		-36.57088	
38.72079	2443.388		-36.52349	
38.77474	2441.37		-36.47858	
38.82869	2439.345		-36.43641	
38.88264	2437.313		-36.39718	
38.93658	2435.281		-36.36101	
38.99053	2433.257		-36.32795	
39.04448	2431.248		-36.298	
39.09843	2429.266		-36.27109	
39.15238	2427.323		-36.2471	
39.20633	2425.428		-36.22585	
39.26028	2423.582		-36.20709	
39.31423	2421.781		-36.19055	
39.36818	2420.016		-36.1759	
39.42213	2418.275		-36.1628	
39.47607	2416.551		-36.1509	
39.53003	2414.836		-36.13988	
39.58397	2413.12		-36.12941	
39.63792	2411.388		-36.1192	
39.69187	2409.628		-36.109	
39.74582	2407.833		-36.09863	
39.79977	2405.998		-36.08794	
39.85372	2404.127		-36.07682	
39.90767	2402.224		-36.06523	
39.96162	2400.297		-36.05314	
40.01557	2398.347		-36.04055	
40.06952	2396.38		-36.02746	
40.12347	2394.398		-36.01386	
40.17741	2392.402		-35.99973	
40.23136	2390.396		-35.98506	
40.28531	2388.379		-35.9698	
40.33926	2386.354		-35.95391	
40.39321	2384.32		-35.93732	
40.44716	2382.276		-35.91997	
40.50111	2380.222		-35.90178	
40.55506	2378.167		-35.8827	
40.609	2376.114		-35.86272	
40.66296	2374.068		-35.84185	
40.7169	2372.028		-35.82017	
40.77085	2369.992		-35.79776	
40.8248	2367.959		-35.77473	
40.87875	2365.931		-35.7512	
40.9327	2363.91		-35.72728	
40.98665	2361.896		-35.70304	
41.0406	2359.889		-35.67857	
41.09455	2357.892		-35.65391	
41.1485	2355.909		-35.62907	
41.20245	2353.945		-35.60408	
41.2564	2352.001		-35.57887	
41.31034	2350.08		-35.5534	
41.3643	2348.173		-35.52754	
41.41824	2346.277		-35.50119	
41.47219	2344.386		-35.47423	
41.52614	2342.493		-35.44655	
41.58009	2340.593		-35.41807	
41.63404	2338.676		-35.38871	
41.68799	2336.74		-35.35845	
41.74194	2334.78		-35.3273	
41.79589	2332.801		-35.29528	
41.84983	2330.81		-35.26243	
41.90379	2328.82		-35.22881	
41.95773	2326.843		-35.1945	
42.01168	2324.887		-35.1596	
42.06563	2322.957		-35.12424	
42.11958	2321.056		-35.08848	
42.17353	2319.187		-35.0524	
42.22748	2317.35		-35.01603	
42.28143	2315.542		-34.97937	
42.33538	2313.761		-34.94241	
42.38933	2312.004		-34.90509	
42.44328	2310.262		-34.86732	
42.49723	2308.524		-34.82903	
42.55117	2306.781		-34.79012	
42.60512	2305.034		-34.75053	
42.65907	2303.286		-34.71025	
42.71302	2301.537		-34.66936	
42.76697	2299.784		-34.62797	
42.82092	2298.031		-34.58628	
42.87487	2296.281		-34.54449	
42.92882	2294.534		-34.50287	
42.98277	2292.787		-34.4617	
43.03672	2291.035		-34.42125	
43.09066	2289.27		-34.38183	
43.14462	2287.484		-34.34372	
43.19856	2285.67		-34.30721	
43.25251	2283.82		-34.27251	
43.30646	2281.931		-34.23983	
43.36041	2280.006		-34.20932	
43.41436	2278.051		-34.1811	
43.46831	2276.076		-34.15523	
43.52226	2274.094		-34.13175	
43.57621	2272.118		-34.11066	
43.63016	2270.158		-34.09197	
43.6841	2268.216		-34.07568	
43.73806	2266.287		-34.06177	
43.792	2264.367		-34.05021	
43.84595	2262.453		-34.04092	
43.8999	2260.546		-34.0338	
43.95385	2258.648		-34.02869	
44.0078	2256.756		-34.0254	
44.06175	2254.868		-34.02369	
44.1157	2252.983		-34.02329	
44.16965	2251.103		-34.02385	
44.22359	2249.221		-34.025	
44.27755	2247.332		-34.02632	
44.33149	2245.441		-34.02736	
44.38544	2243.557		-34.02766	
44.43939	2241.692		-34.02677	
44.49334	2239.85		-34.0242	
44.54729	2238.031		-34.01952	
44.60124	2236.24		-34.01231	
44.65519	2234.478		-34.00222	
44.70914	2232.739		-33.98898	
44.76309	2231.016		-33.97239	
44.81704	2229.306		-33.95235	
44.87099	2227.601		-33.92883	
44.92493	2225.898		-33.90193	
44.97889	2224.19		-33.87178	
45.03283	2222.473		-33.83864	
45.08678	2220.75		-33.80284	
45.14073	2219.018		-33.76476	
45.19468	2217.274		-33.72487	
45.24863	2215.513		-33.68359	
45.30258	2213.733		-33.64141	
45.35653	2211.937		-33.59877	
45.41048	2210.124		-33.55617	
45.46442	2208.297		-33.51406	
45.51838	2206.459		-33.47289	
45.57232	2204.614		-33.43308	
45.62627	2202.763		-33.395	
45.68022	2200.902		-33.35899	
45.73417	2199.023		-33.32536	
45.78812	2197.125		-33.29439	
45.84207	2195.207		-33.26628	
45.89602	2193.27		-33.24123	
45.94997	2191.32		-33.21937	
46.00392	2189.364		-33.20082	
46.05787	2187.412		-33.18568	
46.11182	2185.473		-33.17397	
46.16576	2183.554		-33.16571	
46.21971	2181.662		-33.16081	
46.27366	2179.793		-33.15915	
46.32761	2177.948		-33.16052	
46.38156	2176.134		-33.16465	
46.43551	2174.359		-33.1712	
46.48946	2172.625		-33.17974	
46.54341	2170.928		-33.18979	
46.59736	2169.26		-33.20083	
46.65131	2167.615		-33.21228	
46.70525	2165.986		-33.22356	
46.7592	2164.366		-33.23407	
46.81315	2162.746		-33.24329	
46.8671	2161.12		-33.25072	
46.92105	2159.481		-33.25596	
46.975	2157.83		-33.25869	
47.02895	2156.168		-33.25863	
47.0829	2154.499		-33.25563	
47.13685	2152.82		-33.24954	
47.1908	2151.131		-33.24031	
47.24475	2149.428		-33.22791	
47.29869	2147.709		-33.21232	
47.35265	2145.968		-33.19362	
47.40659	2144.198		-33.17191	
47.46054	2142.4		-33.14733	
47.51449	2140.58		-33.12004	
47.56844	2138.744		-33.09026	
47.62239	2136.893		-33.05816	
47.67634	2135.033		-33.02396	
47.73029	2133.172		-32.98785	
47.78424	2131.319		-32.95003	
47.83818	2129.479		-32.91074	
47.89214	2127.648		-32.8702	
47.94608	2125.821		-32.82872	
48.00003	2123.991		-32.78657	
48.05398	2122.155		-32.74411	
48.10793	2120.311		-32.70168	
48.16188	2118.467		-32.65964	
48.21583	2116.626		-32.61835	
48.26978	2114.783		-32.57812	
48.32373	2112.934		-32.53924	
48.37768	2111.078		-32.50193	
48.43163	2109.217		-32.46636	
48.48558	2107.349		-32.4326	
48.53952	2105.473		-32.40068	
48.59348	2103.589		-32.37053	
48.64742	2101.699		-32.342	
48.70137	2099.804		-32.31488	
48.75532	2097.904		-32.28895	
48.80927	2096.005		-32.26394	
48.86322	2094.114		-32.2396	
48.91717	2092.242		-32.21567	
48.97112	2090.403		-32.19194	
49.02507	2088.606		-32.16819	
49.07901	2086.851		-32.14421	
49.13297	2085.137		-32.11983	
49.18691	2083.461		-32.0949	
49.24086	2081.822		-32.06929	
49.29481	2080.211		-32.04289	
49.34876	2078.615		-32.01563	
49.40271	2077.03		-31.98749	
49.45666	2075.45		-31.95843	
49.51061	2073.874		-31.92847	
49.56456	2072.295		-31.89768	
49.61851	2070.712		-31.86612	
49.67245	2069.126		-31.83392	
49.72641	2067.549		-31.80121	
49.78035	2065.992		-31.76819	
49.8343	2064.463		-31.73505	
49.88825	2062.965		-31.70203	
49.9422	2061.493		-31.66937	
49.99615	2060.036		-31.63735	
50.0501	2058.577		-31.60623	
50.10405	2057.094		-31.57626	
50.158	2055.57		-31.54769	
50.21195	2053.99		-31.52077	
50.2659	2052.347		-31.49572	
50.31984	2050.637		-31.47281	
50.37379	2048.868		-31.45222	
50.42774	2047.054		-31.43416	
50.48169	2045.215		-31.41874	
50.53564	2043.368		-31.40605	
50.58959	2041.527		-31.39613	
50.64354	2039.699		-31.38895	
50.69749	2037.888		-31.38447	
50.75144	2036.094		-31.38256	
50.80539	2034.317		-31.38304	
50.85934	2032.55		-31.38568	
50.91328	2030.79		-31.39018	
50.96724	2029.038		-31.39618	
51.02118	2027.29		-31.40327	
51.07513	2025.54		-31.41101	
51.12908	2023.786		-31.41889	
51.18303	2022.031		-31.42646	
51.23698	2020.272		-31.43323	
51.29093	2018.51		-31.43874	
51.34488	2016.747		-31.44258	
51.39883	2014.99		-31.44439	
51.45277	2013.242		-31.44385	
51.50673	2011.51		-31.44071	
51.56067	2009.798		-31.43476	
51.61462	2008.103		-31.42584	
51.66857	2006.423		-31.41385	
51.72252	2004.755		-31.39874	
51.77647	2003.093		-31.3805	
51.83042	2001.436		-31.35918	
51.88437	1999.781		-31.33488	
51.93832	1998.125		-31.30773	
51.99227	1996.465		-31.27792	
52.04622	1994.802		-31.2457	
52.10017	1993.132		-31.21133	
52.15411	1991.451		-31.17517	
52.20807	1989.753		-31.13758	
52.26201	1988.035		-31.099	
52.31596	1986.294		-31.05984	
52.36991	1984.53		-31.02057	
52.42386	1982.753		-30.98158	
52.47781	1980.971		-30.94328	
52.53176	1979.197		-30.90604	
52.58571	1977.441		-30.87019	
52.63966	1975.711		-30.83603	
52.6936	1974.017		-30.80382	
52.74755	1972.358		-30.77375	
52.8015	1970.729		-30.74597	
52.85545	1969.115		-30.72049	
52.9094	1967.499		-30.6973	
52.96335	1965.875		-30.67626	
53.0173	1964.236		-30.65718	
53.07125	1962.585		-30.63981	
53.1252	1960.929		-30.62381	
53.17915	1959.28		-30.60883	
53.2331	1957.648		-30.59448	
53.28704	1956.037		-30.58039	
53.341	1954.448		-30.56619	
53.39494	1952.88		-30.55157	
53.44889	1951.338		-30.53625	
53.50284	1949.824		-30.52004	
53.55679	1948.334		-30.50275	
53.61074	1946.864		-30.48428	
53.66469	1945.405		-30.46453	
53.71864	1943.944		-30.44347	
53.77259	1942.468		-30.42107	
53.82654	1940.969		-30.39734	
53.88049	1939.443		-30.37233	
53.93443	1937.886		-30.34611	
53.98838	1936.296		-30.31883	
54.04233	1934.677		-30.29067	
54.09628	1933.036		-30.26184	
54.15023	1931.38		-30.2326	
54.20418	1929.714		-30.20321	
54.25813	1928.044		-30.17399	
54.31208	1926.372		-30.1452	
54.36603	1924.7		-30.11713	
54.41998	1923.021		-30.09004	
54.47393	1921.329		-30.06413	
54.52787	1919.618		-30.03963	
54.58183	1917.88		-30.01668	
54.63577	1916.113		-29.99539	
54.68972	1914.32		-29.97581	
54.74367	1912.51		-29.95793	
54.79762	1910.695		-29.9417	
54.85157	1908.885		-29.92699	
54.90552	1907.091		-29.91361	
54.95947	1905.324		-29.90133	
55.01342	1903.588		-29.88988	
55.06737	1901.883		-29.87892	
55.12132	1900.205		-29.8681	
55.17526	1898.55		-29.85702	
55.22921	1896.911		-29.84525	
55.28316	1895.285		-29.83233	
55.33711	1893.67		-29.81785	
55.39106	1892.07		-29.80135	
55.44501	1890.491		-29.78244	
55.49896	1888.932		-29.76075	
55.55291	1887.387		-29.73598	
55.60686	1885.859		-29.70783	
55.6608	1884.344		-29.67611	
55.71476	1882.844		-29.64066	
55.7687	1881.356		-29.60144	
55.82265	1879.885		-29.55844	
55.8766	1878.43		-29.51179	
55.93055	1876.985		-29.46168	
55.9845	1875.538		-29.40837	
56.03845	1874.084		-29.35224	
56.0924	1872.614		-29.29368	
56.14635	1871.123		-29.23315	
56.2003	1869.605		-29.17112	
56.25425	1868.058		-29.1081	
56.30819	1866.484		-29.04463	
56.36214	1864.885		-28.98127	
56.41609	1863.264		-28.91859	
56.47004	1861.63		-28.85716	
56.52399	1859.992		-28.79752	
56.57794	1858.354		-28.74018	
56.63189	1856.723		-28.68561	
56.68584	1855.102		-28.63419	
56.73979	1853.491		-28.58628	
56.79374	1851.886		-28.54214	
56.84769	1850.284		-28.50196	
56.90163	1848.685		-28.46587	
56.95559	1847.088		-28.43391	
57.00953	1845.494		-28.40604	
57.06348	1843.902		-28.38214	
57.11743	1842.315		-28.36204	
57.17138	1840.733		-28.34548	
57.22533	1839.159		-28.33218	
57.27928	1837.589		-28.32183	
57.33323	1836.024		-28.31407	
57.38718	1834.473		-28.30856	
57.44113	1832.941		-28.30493	
57.49508	1831.437		-28.30282	
57.54902	1829.967		-28.30182	
57.60297	1828.531		-28.30157	
57.65692	1827.123		-28.30164	
57.71087	1825.735		-28.30168	
57.76482	1824.363		-28.30133	
57.81877	1822.997		-28.30031	
57.87272	1821.626		-28.29839	
57.92667	1820.236		-28.29539	
57.98062	1818.824		-28.2912	
58.03456	1817.391		-28.28572	
58.08852	1815.942		-28.27892	
58.14246	1814.485		-28.2708	
58.19641	1813.029		-28.2614	
58.25036	1811.574		-28.2508	
58.30431	1810.12		-28.2391	
58.35826	1808.665		-28.22642	
58.41221	1807.205		-28.21286	
58.46616	1805.737		-28.19853	
58.52011	1804.26		-28.18349	
58.57406	1802.768		-28.16778	
58.62801	1801.256		-28.15145	
58.68196	1799.722		-28.13448	
58.7359	1798.163		-28.11685	
58.78985	1796.576		-28.09849	
58.8438	1794.961		-28.07931	
58.89775	1793.32		-28.05916	
58.9517	1791.659		-28.03785	
59.00565	1789.985		-28.01514	
59.0596	1788.305		-27.99077	
59.11355	1786.627		-27.96446	
59.1675	1784.961		-27.93593	
59.22145	1783.313		-27.90493	
59.27539	1781.688		-27.87127	
59.32935	1780.087		-27.83475	
59.38329	1778.509		-27.79523	
59.43724	1776.95		-27.75257	
59.49119	1775.408		-27.70665	
59.54514	1773.883		-27.65738	
59.59909	1772.376		-27.60466	
59.65304	1770.886		-27.54842	
59.70699	1769.411		-27.48861	
59.76094	1767.953		-27.42524	
59.81489	1766.505		-27.35833	
59.86884	1765.06		-27.288	
59.92278	1763.611		-27.2144	
59.97673	1762.149		-27.13774	
60.03068	1760.667		-27.05832	
60.08463	1759.166		-26.97644	
60.13858	1757.651		-26.89249	
60.19253	1756.128		-26.80684	
60.24648	1754.608		-26.7199	
60.30043	1753.098		-26.63206	
60.35438	1751.6		-26.54371	
60.40833	1750.108		-26.45517	
60.46228	1748.62		-26.36674	
60.51622	1747.132		-26.27868	
60.57018	1745.64		-26.19119	
60.62412	1744.139		-26.10445	
60.67807	1742.63		-26.01855	
60.73202	1741.121		-25.93354	
60.78597	1739.619		-25.8494	
60.83992	1738.135		-25.76605	
60.89387	1736.675		-25.68336	
60.94782	1735.25		-25.60115	
61.00177	1733.869		-25.51923	
61.05572	1732.535		-25.43737	
61.10966	1731.247		-25.35534	
61.16361	1730.002		-25.27292	
61.21756	1728.795		-25.18988	
61.27151	1727.62		-25.106	
61.32546	1726.468		-25.02104	
61.37941	1725.331		-24.93476	
61.43336	1724.2		-24.84691	
61.48731	1723.071		-24.75722	
61.54126	1721.941		-24.66544	
61.59521	1720.806		-24.57129	
61.64915	1719.664		-24.47457	
61.70311	1718.506		-24.37506	
61.75705	1717.327		-24.27262	
61.811	1716.121		-24.16708	
61.86495	1714.891		-24.05838	
61.9189	1713.639		-23.94645	
61.97285	1712.367		-23.8313	
62.0268	1711.083		-23.71294	
62.08075	1709.787		-23.59144	
62.1347	1708.477		-23.46686	
62.18865	1707.151		-23.33924	
62.2426	1705.814		-23.20859	
62.29655	1704.465		-23.07486	
62.35049	1703.104		-22.93798	
62.40444	1701.728		-22.79785	
62.45839	1700.339		-22.6543	
62.51234	1698.937		-22.50717	
62.56629	1697.525		-22.3562	
62.62024	1696.103		-22.20115	
62.67419	1694.674		-22.04166	
62.72814	1693.243		-21.87741	
62.78209	1691.819		-21.70797	
62.83604	1690.41		-21.53288	
62.88998	1689.025		-21.35166	
62.94394	1687.667		-21.16376	
62.99788	1686.342		-20.96864	
63.05183	1685.052		-20.76572	
63.10578	1683.805		-20.55445	
63.15973	1682.605		-20.33419	
63.21368	1681.454		-20.10432	
63.26763	1680.346		-19.86421	
63.32158	1679.267		-19.61318	
63.37553	1678.2		-19.3506	
63.42948	1677.135		-19.07575	
63.48343	1676.066		-18.78802	
63.53738	1674.991		-18.48669	
63.59132	1673.915		-18.17116	
63.64527	1672.848		-17.84077	
63.69922	1671.802		-17.49492	
63.75317	1670.781		-17.1331	
63.80712	1669.791		-16.75475	
63.86107	1668.831		-16.35948	
63.91502	1667.897		-15.94682	
63.96897	1666.99		-15.51646	
64.02292	1666.107		-15.06801	
64.07687	1665.244		-14.60123	
64.13081	1664.399		-14.11577	
64.18476	1663.566		-13.61131	
64.23872	1662.738		-13.08741	
64.29266	1661.91		-12.54382	
64.34661	1661.078		-11.98003	
64.40056	1660.245		-11.39562	
64.45451	1659.416		-10.79014	
64.50846	1658.6		-10.16302	
64.56241	1657.811		-9.513917	
64.61636	1657.055		-8.842192	
64.6703	1656.339		-8.147265	
64.72426	1655.67		-7.428467	
64.77821	1655.062		-6.685388	
64.83215	1654.518		-5.917255	
64.8861	1654.039		-5.123378	
64.94005	1653.616		-4.303069	
64.994	1653.24		-3.455462	
65.04795	1652.899		-2.58007	
65.1019	1652.588		-1.675993	
65.15585	1652.301		-0.7424661	
65.20979	1652.034		0.2212403	
65.26375	1651.785		1.216011	
65.3177	1651.553		2.24233	
65.37164	1651.343		3.301067	
65.42559	1651.168		4.392931	
65.47955	1651.039		5.518857	
65.53349	1650.962		6.679286	
65.58744	1650.938		7.875212	
65.64139	1650.969		9.107446	
65.69534	1651.058		10.37677	
65.74929	1651.211		11.6842	
65.80324	1651.432		13.03017	
65.85719	1651.724		14.41572	
65.91113	1652.086		15.84167	
65.96508	1652.517		17.30881	
66.01904	1653.021		18.81818	
66.07298	1653.602		20.37025	
66.12693	1654.263		21.96611	
66.18088	1655.008		23.60658	
66.23483	1655.844		25.29284	
66.28878	1656.775		27.02529	
66.34273	1657.805		28.80518	
66.39668	1658.936		30.63351	
66.45062	1660.173		32.51123	
66.50458	1661.521		34.43966	
66.55853	1662.98		36.41937	
66.61247	1664.549		38.45165	
66.66642	1666.228		40.53771	
66.72038	1668.018		42.67883	
66.77432	1669.921		44.87559	
66.82827	1671.943		47.1294	
66.88222	1674.088		49.44156	
66.93616	1676.356		51.81304	
66.99012	1678.742		54.24534	
67.04407	1681.245		56.73882	
67.09801	1683.869		59.29471	
67.15196	1686.62		61.9141	
67.20591	1689.505		64.59761	
67.25986	1692.522		67.34637	
67.31381	1695.672		70.16012	
67.36776	1698.96		73.03996	
67.42171	1702.392		75.98612	
67.47566	1705.972		78.99947	
67.52961	1709.699		82.07942	
67.58356	1713.571		85.22655	
67.6375	1717.59		88.44121	
67.69145	1721.76		91.72325	
67.74541	1726.091		95.07321	
67.79935	1730.582		98.49007	
67.8533	1735.237		101.9741	
67.90725	1740.06		105.5252	
67.9612	1745.06		109.1433	
68.01515	1750.243		112.8272	
68.0691	1755.623		116.5767	
68.12305	1761.209		120.3914	
68.17699	1767.011		124.2707	
68.23095	1773.03		128.2143	
68.2849	1779.265		132.2204	
68.33884	1785.709		136.2886	
68.39279	1792.357		140.4185	
68.44674	1799.208		144.6088	
68.50069	1806.268		148.8596	
68.55464	1813.546		153.1689	
68.60859	1821.063		157.5364	
68.66254	1828.828		161.9614	
68.71649	1836.853		166.4437	
68.77044	1845.143		170.9815	
68.82439	1853.711		175.5744	
68.87833	1862.571		180.2219	
68.93228	1871.736		184.9229	
68.98624	1881.218		189.6771	
69.04018	1891.02		194.4821	
69.09413	1901.142		199.337	
69.14808	1911.579		204.2404	
69.20203	1922.32		209.1902	
69.25598	1933.355		214.185	
69.30993	1944.676		219.2206	
69.36388	1956.287		224.2949	
69.41782	1968.196		229.4044	
69.47178	1980.414		234.5462	
69.52573	1992.942		239.7145	
69.57967	2005.786		244.9054	
69.63362	2018.951		250.1137	
69.68757	2032.444		255.3337	
69.74152	2046.266		260.5599	
69.79547	2060.413		265.784	
69.84942	2074.88		270.9994	
69.90337	2089.662		276.1983	
69.95732	2104.754		281.3729	
70.01127	2120.145		286.5128	
70.06522	2135.832		291.6092	
70.11916	2151.81		296.6523	
70.17311	2168.08		301.6316	
70.22707	2184.649		306.537	
70.28101	2201.514		311.3561	
70.33496	2218.679		316.0781	
70.38891	2236.142		320.6911	
70.44286	2253.894		325.1835	
70.49681	2271.932		329.544	
70.55076	2290.251		333.7596	
70.60471	2308.857		337.8187	
70.65865	2327.756		341.7102	
70.71261	2346.963		345.423	
70.76656	2366.48		348.9453	
70.8205	2386.314		352.2673	
70.87445	2406.467		355.3783	
70.9284	2426.941		358.2697	
70.98235	2447.746		360.9327	
71.0363	2468.89		363.3586	
71.09025	2490.386		365.5406	
71.1442	2512.239		367.4711	
71.19815	2534.444		369.145	
71.2521	2556.987		370.5564	
71.30605	2579.858		371.7014	
71.35999	2603.041		372.5752	
71.41394	2626.521		373.1758	
71.4679	2650.283		373.5005	
71.52184	2674.299		373.548	
71.57579	2698.545		373.3178	
71.62974	2722.991		372.8089	
71.68369	2747.602		372.0229	
71.73764	2772.343		370.9607	
71.79159	2797.164		369.6246	
71.84554	2822.033		368.0174	
71.89948	2846.916		366.1414	
71.95344	2871.779		364.0011	
72.00739	2896.578		361.601	
72.06133	2921.266		358.9461	
72.11528	2945.786		356.0406	
72.16923	2970.08		352.8914	
72.22318	2994.093		349.5036	
72.27713	3017.758		345.8848	
72.33108	3041.023		342.0416	
72.38503	3063.838		337.9802	
72.43897	3086.153		333.7091	
72.49293	3107.93		329.2349	
72.54688	3129.126		324.5673	
72.60082	3149.715		319.7133	
72.65477	3169.68		314.6822	
72.70872	3189.015		309.4821	
72.76267	3207.709		304.1238	
72.81662	3225.763		298.6164	
72.87057	3243.168		292.9695	
72.92451	3259.913		287.194	
72.97847	3275.994		281.2997	
73.03242	3291.417		275.2995	
73.08636	3306.189		269.2041	
73.14031	3320.313		263.0249	
73.19427	3333.788		256.7734	
73.24821	3346.613		250.4633	
73.30216	3358.795		244.1062	
73.35611	3370.352		237.7145	
73.41006	3381.311		231.3006	
73.46401	3391.708		224.8762	
73.51796	3401.578		218.4554	
73.57191	3410.964		212.0496	
73.62585	3419.898		205.6709	
73.6798	3428.407		199.3312	
73.73376	3436.515		193.0413	
73.7877	3444.237		186.8142	
73.84165	3451.585		180.6605	
73.8956	3458.57		174.5905	
73.94955	3465.213		168.6136	
74.0035	3471.53		162.7412	
74.05745	3477.536		156.9812	
74.1114	3483.245		151.3427	
74.16534	3488.675		145.8328	
74.2193	3493.855		140.4581	
74.27325	3498.812		135.2264	
74.32719	3503.576		130.1422	
74.38114	3508.174		125.2108	
74.43509	3512.625		120.4352	
74.48904	3516.941		115.818	
74.54299	3521.131		111.3622	
74.59694	3525.202		107.0689	
74.65089	3529.156		102.9379	
74.70484	3532.993		98.96833	
74.75879	3536.715		95.16018	
74.81274	3540.326		91.51093	
74.86668	3543.822		88.0187	
74.92063	3547.192		84.6801	
74.97459	3550.44		81.49148	
75.02853	3553.583		78.44992	
75.08248	3556.644		75.55064	
75.13643	3559.641		72.7895	
75.19038	3562.584		70.1609	
75.24433	3565.479		67.66061	
75.29828	3568.328		65.28284	
75.35223	3571.131		63.02247	
75.40617	3573.881		60.87362	
75.46013	3576.575		58.83047	
75.51408	3579.207		56.88796	
75.56802	3581.772		55.04007	
75.62197	3584.267		53.28146	
75.67592	3586.686		51.60647	
75.72987	3589.029		50.00969	
75.78382	3591.29		48.48642	
75.83777	3593.461		47.03172	
75.89172	3595.549		45.64077	
75.94567	3597.569		44.30905	
75.99962	3599.534		43.03281	
76.05357	3601.453		41.80796	
76.10751	3603.331		40.63104	
76.16146	3605.178		39.49869	
76.21542	3607.005		38.40782	
76.26936	3608.82		37.35605	
76.32331	3610.627		36.34077	
76.37726	3612.426		35.35986	
76.43121	3614.208		34.41106	
76.48516	3615.966		33.49282	
76.53911	3617.688		32.60324	
76.59306	3619.361		31.74075	
76.647	3620.978		30.90376	
76.70096	3622.536		30.09076	
76.75491	3624.046		29.30066	
76.80885	3625.522		28.53216	
76.8628	3626.971		27.78422	
76.91675	3628.395		27.05581	
76.9707	3629.79		26.34598	
77.02465	3631.153		25.65416	
77.0786	3632.479		24.97958	
77.13255	3633.762		24.32165	
77.1865	3634.993		23.67978	
77.24045	3636.165		23.05375	
77.2944	3637.283		22.4431	
77.34834	3638.358		21.84757	
77.40229	3639.398		21.26688	
77.45625	3640.406		20.70075	
77.51019	3641.382		20.14913	
77.56414	3642.321		19.61174	
77.61809	3643.22		19.08845	
77.67204	3644.079		18.57904	
77.72599	3644.899		18.08332	
77.77994	3645.678		17.60124	
77.83389	3646.415		17.13264	
77.88783	3647.109		16.67735	
77.94179	3647.767		16.23519	
77.99574	3648.396		15.80621	
78.04968	3648.996		15.39026	
78.10363	3649.572		14.98734	
78.15758	3650.131		14.59743	
78.21153	3650.678		14.22052	
78.26548	3651.217		13.85679	
78.31943	3651.751		13.50628	
78.37337	3652.289		13.16917	
78.42733	3652.844		12.84553	
78.48128	3653.422		12.53565	
78.53522	3654.025		12.23959	
78.58917	3654.646		11.95751	
78.64312	3655.266		11.68939	
78.69707	3655.86		11.43518	
78.75102	3656.415		11.19485	
78.80497	3656.926		10.96819	
78.85892	3657.397		10.75508	
78.91286	3657.839		10.55525	
78.96682	3658.263		10.36847	
79.02077	3658.685		10.19449	
79.07471	3659.119		10.0331	
79.12866	3659.557		9.884004	
79.18262	3659.986		9.746974	
79.23656	3660.395		9.621842	
79.29051	3660.785		9.508382	
79.34446	3661.164		9.406435	
79.39841	3661.533		9.315811	
79.45236	3661.893		9.236384	
79.50631	3662.242		9.168094	
79.56026	3662.578		9.110847	
79.6142	3662.905		9.064624	
79.66816	3663.233		9.02934	
79.72211	3663.567		9.004955	
79.77605	3663.914		8.99134	
79.83	3664.273		8.988352	
79.88395	3664.646		8.995736	
79.9379	3665.026		9.013256	
79.99185	3665.407		9.040632	
80.0458	3665.789		9.077576	
80.09975	3666.185		9.123823	
80.15369	3666.608		9.179061	
80.20765	3667.062		9.243024	
80.2616	3667.546		9.315425	
80.31554	3668.057		9.396005	
80.36949	3668.587		9.484533	
80.42345	3669.131		9.580724	
80.47739	3669.683		9.684252	
80.53134	3670.244		9.794759	
80.58529	3670.81		9.911816	
80.63924	3671.378		10.03484	
80.69319	3671.946		10.16318	
80.74714	3672.507		10.29603	
80.80109	3673.05		10.43252	
80.85503	3673.566		10.57173	
80.90898	3674.051		10.71262	
80.96294	3674.513		10.85413	
81.01688	3674.971		10.99509	
81.07083	3675.438		11.13433	
81.12478	3675.91		11.27069	
81.17873	3676.38		11.40301	
81.23268	3676.842		11.53007	
81.28663	3677.301		11.65072	
81.34058	3677.769		11.76377	
81.39452	3678.264		11.86811	
81.44848	3678.801		11.96266	
81.50243	3679.383		12.04642	
81.55637	3680.008		12.11856	
81.61032	3680.67		12.17828	
81.66428	3681.366		12.22499	
81.71822	3682.091		12.25811	
81.77217	3682.843		12.27717	
81.82612	3683.62		12.28165	
81.88007	3684.418		12.27113	
81.93402	3685.235		12.24523	
81.98797	3686.068		12.20362	
82.04192	3686.92		12.14605	
82.09586	3687.796		12.0722	
82.14981	3688.693		11.9819	
82.20377	3689.613		11.87493	
82.25771	3690.556		11.75118	
82.31166	3691.52		11.61047	
82.36561	3692.496		11.45279	
82.41956	3693.478		11.278	
82.47351	3694.461		11.08612	
82.52746	3695.443		10.8771	
82.58141	3696.42		10.65083	
82.63535	3697.388		10.40732	
82.68931	3698.344		10.14649	
82.74326	3699.286		9.868356	
82.7972	3700.213		9.572873	
82.85115	3701.124		9.259889	
82.9051	3702.016		8.929358	
82.95905	3702.888		8.581027	
83.013	3703.739		8.214779	
83.06695	3704.571		7.830196	
83.1209	3705.378		7.42701	
83.17485	3706.152		7.004772	
83.2288	3706.875		6.563232	
83.28275	3707.532		6.101987	
83.33669	3708.115		5.62062	
83.39064	3708.622		5.11887	
83.4446	3709.055		4.596361	
83.49854	3709.415		4.053019	
83.55249	3709.701		3.48864	
83.60644	3709.921		2.90313	
83.66039	3710.081		2.296543	
83.71434	3710.197		1.669216	
83.76829	3710.272		1.021328	
83.82224	3710.307		0.3531461	
83.87618	3710.294		-0.3348844	
83.93014	3710.223		-1.042385	
83.98409	3710.087		-1.768549	
84.03803	3709.886		-2.512739	
84.09198	3709.625		-3.274171	
84.14593	3709.313		-4.051908	
84.19988	3708.963		-4.845114	
84.25383	3708.597		-5.652525	
84.30778	3708.223		-6.473194	
84.36172	3707.845		-7.305934	
84.41568	3707.466		-8.149681	
84.46963	3707.087		-9.002973	
84.52357	3706.714		-9.864697	
84.57752	3706.341		-10.73363	
84.63147	3705.952		-11.6085	
84.68542	3705.532		-12.48809	
84.73937	3705.064		-13.37082	
84.79332	3704.534		-14.25539	
84.84727	3703.934		-15.14044	
84.90122	3703.259		-16.02466	
84.95517	3702.503		-16.90648	
85.00912	3701.667		-17.78472	
85.06306	3700.757		-18.65819	
85.11701	3699.785		-19.52578	
85.17097	3698.764		-20.3866	
85.22491	3697.708		-21.2395	
85.27886	3696.628		-22.08383	
85.33281	3695.524		-22.91895	
85.38676	3694.393		-23.74434	
85.44071	3693.229		-24.55968	
85.49466	3692.016		-25.36439	
85.54861	3690.729		-26.15826	
85.60255	3689.349		-26.94099	
85.65651	3687.861		-27.71243	
85.71046	3686.264		-28.4721	
85.7644	3684.562		-29.21997	
85.81835	3682.769		-29.95587	
85.8723	3680.899		-30.67982	
85.92625	3678.963		-31.39192	
85.9802	3676.98		-32.09205	
86.03415	3674.97		-32.78041	
86.0881	3672.934		-33.45707	
86.14204	3670.871		-34.12219	
86.196	3668.777		-34.77599	
86.24995	3666.643		-35.41841	
86.30389	3664.45		-36.04959	
86.35784	3662.178		-36.66964	
86.4118	3659.816		-37.27864	
86.46574	3657.369		-37.87641	
86.51969	3654.842		-38.46301	
86.57364	3652.25		-39.03838	
86.62759	3649.61		-39.60258	
86.68154	3646.941		-40.15567	
86.73549	3644.257		-40.69753	
86.78944	3641.573		-41.22829	
86.84338	3638.909		-41.748	
86.89734	3636.284		-42.25684	
86.95129	3633.71		-42.75475	
87.00523	3631.187		-43.24192	
87.05918	3628.698		-43.71836	
87.11313	3626.228		-44.18417	
87.16708	3623.754		-44.63943	
87.22103	3621.271		-45.08408	
87.27498	3618.776		-45.51829	
87.32893	3616.269		-45.94221	
87.38287	3613.758		-46.35609	
87.43683	3611.25		-46.76025	
87.49078	3608.75		-47.1549	
87.54472	3606.264		-47.54039	
87.59867	3603.793		-47.91714	
87.65263	3601.338		-48.28559	
87.70657	3598.896		-48.64611	
87.76052	3596.465		-48.99926	
87.81447	3594.031		-49.34558	
87.86842	3591.573		-49.68562	
87.92237	3589.066		-50.02004	
87.97632	3586.5		-50.34933	
88.03027	3583.874		-50.67418	
88.08421	3581.199		-50.99524	
88.13816	3578.498		-51.31317	
88.19212	3575.799		-51.62866	
88.24606	3573.115		-51.94228	
88.30001	3570.446		-52.25472	
88.35396	3567.783		-52.56655	
88.40791	3565.115		-52.87833	
88.46186	3562.426		-53.19042	
88.51581	3559.7		-53.50323	
88.56976	3556.93		-53.81709	
88.6237	3554.111		-54.13219	
88.67766	3551.238		-54.4488	
88.73161	3548.309		-54.76691	
88.78555	3545.326		-55.08669	
88.8395	3542.296		-55.40815	
88.89346	3539.229		-55.73136	
88.9474	3536.141		-56.05619	
89.00135	3533.053		-56.38265	
89.0553	3529.975		-56.71061	
89.10925	3526.908		-57.0399	
89.1632	3523.841		-57.37032	
89.21715	3520.762		-57.70147	
89.2711	3517.655		-58.03304	
89.32504	3514.5		-58.36459	
89.37899	3511.284		-58.69562	
89.43295	3507.997		-59.0256	
89.48689	3504.638		-59.35381	
89.54084	3501.21		-59.67961	
89.59479	3497.731		-60.00232	
89.64874	3494.228		-60.3213	
89.70269	3490.719		-60.63587	
89.75664	3487.224		-60.94548	
89.81059	3483.755		-61.24959	
89.86453	3480.32		-61.54766	
89.91849	3476.916		-61.83921	
89.97243	3473.533		-62.12368	
90.02638	3470.163		-62.40066	
90.08033	3466.793		-62.66977	
90.13428	3463.409		-62.93076	
90.18823	3459.999		-63.18335	
90.24218	3456.555		-63.42744	
90.29613	3453.077		-63.6629	
90.35007	3449.567		-63.88969	
90.40403	3446.041		-64.10784	
90.45798	3442.506		-64.31732	
90.51192	3438.97		-64.51831	
90.56587	3435.427		-64.71096	
90.61982	3431.879		-64.89556	
90.67377	3428.316		-65.0724	
90.72772	3424.744		-65.24172	
90.78167	3421.163		-65.40383	
90.83562	3417.573		-65.55898	
90.88957	3413.964		-65.70747	
90.94352	3410.334		-65.84949	
90.99747	3406.679		-65.98541	
91.05141	3403		-66.11552	
91.10536	3399.297		-66.24017	
91.15932	3395.584		-66.35975	
91.21326	3391.875		-66.4746	
91.26721	3388.178		-66.58514	
91.32116	3384.497		-66.69176	
91.37511	3380.83		-66.79488	
91.42906	3377.169		-66.89489	
91.48301	3373.5		-66.99213	
91.53696	3369.817		-67.08693	
91.5909	3366.126		-67.17951	
91.64486	3362.433		-67.27009	
91.69881	3358.75		-67.35873	
91.75275	3355.08		-67.44553	
91.8067	3351.423		-67.53048	
91.86065	3347.775		-67.61356	
91.9146	3344.13		-67.69475	
91.96855	3340.493		-67.77393	
92.0225	3336.867		-67.85106	
92.07645	3333.253		-67.92609	
92.1304	3329.647		-67.99899	
92.18435	3326.043		-68.06973	
92.2383	3322.427		-68.13825	
92.29224	3318.786		-68.20453	
92.34619	3315.124		-68.26851	
92.40015	3311.453		-68.33017	
92.45409	3307.786		-68.38739	
92.50804	3304.132		-68.44212	
92.56199	3300.492		-68.49474	
92.61594	3296.863		-68.54572	
92.66989	3293.231		-68.59547	
92.72384	3289.586		-68.64432	
92.77779	3285.927		-68.69253	
92.83173	3282.255		-68.74029	
92.88569	3278.576		-68.78776	
92.93964	3274.898		-68.83503	
92.99358	3271.224		-68.8822	
93.04753	3267.552		-68.92934	
93.10148	3263.874		-68.97649	
93.15543	3260.185		-69.02371	
93.20938	3256.478		-69.07102	
93.26333	3252.749		-69.11845	
93.31728	3249.003		-69.16603	
93.37123	3245.242		-69.21378	
93.42518	3241.467		-69.2617	
93.47913	3237.673		-69.3098	
93.53307	3233.854		-69.35809	
93.58702	3230.01		-69.40659	
93.64098	3226.146		-69.45528	
93.69492	3222.273		-69.50414	
93.74887	3218.394		-69.55318	
93.80282	3214.513		-69.60239	
93.85677	3210.637		-69.65175	
93.91072	3206.77		-69.70125	
93.96467	3202.914		-69.75085	
94.01862	3199.074		-69.80056	
94.07256	3195.32		-69.85033	
94.12652	3191.613		-69.90017	
94.18047	3187.936		-69.95003	
94.23441	3184.274		-69.99991	
94.28836	3180.622		-70.04977	
94.34231	3176.975		-70.09962	
94.39626	3173.33		-70.14943	
94.45021	3169.688		-70.19918	
94.50416	3166.049		-70.24885	
94.55811	3162.41		-70.29843	
94.61205	3158.774		-70.34792	
94.66601	3155.139		-70.39729	
94.71996	3151.507		-70.44654	
94.7739	3147.878		-70.49566	
94.82785	3144.253		-70.54464	
94.88181	3140.631		-70.59348	
94.93575	3137.014		-70.64216	
94.9897	3133.404		-70.69069	
