T[Â°C]	350nm [counts / mm]	S.D.
20.00046	2802.076	10.1904
20.05441	2805.296	11.23678
20.10836	2801.406	9.841096
20.16231	2799.607	14.87645
20.21625	2796.612	14.35668
20.2702	2792.615	16.29347
20.32415	2797.021	11.05153
20.3781	2789.777	11.76922
20.43205	2788.137	11.52771
20.486	2787.529	7.731941
20.53995	2786.197	10.53537
20.5939	2783.817	12.62362
20.64785	2780.207	12.48721
20.7018	2778.526	12.92489
20.75574	2779.863	17.28736
20.80969	2774.57	14.43731
20.86364	2770.075	14.5025
20.91759	2768.16	12.22053
20.97154	2764.859	8.350286
21.02549	2762.816	11.00119
21.07944	2757.538	5.86966
21.13339	2757.29	4.470171
21.18734	2759.564	7.4967
21.24129	2754.216	9.155258
21.29524	2752.754	10.66013
21.34919	2750.635	6.69664
21.40314	2753.541	9.13034
21.45708	2747.485	13.9728
21.51103	2745.612	10.54369
21.56498	2741.85	13.33209
21.61893	2741.862	7.561293
21.67288	2736.358	9.433481
21.72683	2737.629	10.08041
21.78078	2735.964	8.176753
21.83473	2735.667	10.57138
21.88868	2730.164	8.007912
21.94263	2728.825	13.52457
21.99657	2728.972	15.82815
22.05052	2724.042	14.48787
22.10447	2723.507	10.54317
22.15842	2715.247	14.44786
22.21237	2718.578	9.689751
22.26632	2717.272	11.27804
22.32027	2712.221	12.88598
22.37422	2710.016	11.30161
22.42817	2709.133	12.18324
22.48212	2708.523	13.77806
22.53607	2704.952	13.04512
22.59002	2698.547	11.42534
22.64396	2699.706	8.779501
22.69791	2702.861	10.57096
22.75186	2697.635	11.40459
22.80581	2694.77	8.236901
22.85976	2690.651	9.453344
22.91371	2691.44	9.342072
22.96766	2689.769	10.16103
23.02161	2688.61	11.85623
23.07556	2687.144	10.08011
23.12951	2684.972	12.62487
23.18345	2682.928	12.34216
23.2374	2679.016	6.935083
23.29135	2676.153	8.782523
23.3453	2673.086	7.387038
23.39925	2670.205	5.813302
23.4532	2669.81	9.776532
23.50715	2667.662	10.39496
23.5611	2660.879	10.41111
23.61505	2657.475	10.3921
23.669	2659.349	10.38129
23.72295	2660.576	15.6063
23.7769	2658.226	12.95858
23.83084	2655.794	12.66644
23.88479	2652.413	9.117065
23.93874	2649.696	10.01545
23.99269	2648.445	13.15556
24.04664	2645.989	10.46073
24.10059	2646.114	12.56002
24.15454	2642.134	9.493749
24.20849	2639.677	10.85807
24.26244	2636.155	12.52674
24.31639	2632.452	14.75494
24.37033	2632.064	12.41829
24.42428	2629.258	12.97522
24.47823	2628.08	10.90051
24.53218	2623.591	7.772327
24.58613	2623.719	9.40324
24.64008	2624.196	5.161056
24.69403	2618.112	8.773293
24.74798	2618.214	5.59025
24.80193	2618.111	7.689954
24.85588	2618.41	5.575509
24.90983	2614.86	6.581019
24.96378	2610.709	13.28231
25.01772	2608.375	14.20098
25.07167	2605.799	10.30258
25.12562	2602.805	11.27398
25.17957	2598.089	13.32261
25.23352	2599.865	13.8054
25.28747	2595.821	9.693
25.34142	2593.81	9.305685
25.39537	2593.375	10.14388
25.44932	2591.389	5.983966
25.50327	2586.758	6.743295
25.55721	2585.43	9.239658
25.61116	2584.231	12.04006
25.66511	2583.579	8.817436
25.71906	2581.396	9.002346
25.77301	2581.976	8.089089
25.82696	2578.425	14.00985
25.88091	2571.412	9.378687
25.93486	2568.69	10.87551
25.98881	2570.656	10.9262
26.04276	2564.864	12.67718
26.09671	2567.331	16.11261
26.15066	2563.481	10.36288
26.20461	2565.802	11.80199
26.25855	2562.905	10.53629
26.3125	2559.308	9.40894
26.36645	2556.198	12.40872
26.4204	2554.524	14.62042
26.47435	2550.393	13.46289
26.5283	2547.782	12.77153
26.58225	2545.462	12.31777
26.6362	2541.204	13.18077
26.69015	2542.767	10.63806
26.74409	2543.101	10.11523
26.79804	2537.783	12.12423
26.85199	2538.484	11.95523
26.90594	2539.175	12.60613
26.95989	2536.099	12.33503
27.01384	2531.845	10.81884
27.06779	2529.956	9.851283
27.12174	2528.789	8.321886
27.17569	2524.816	7.836281
27.22964	2521.783	10.34127
27.28359	2518.23	11.9527
27.33754	2515.696	15.7557
27.39149	2515.543	17.14176
27.44543	2512.761	14.11595
27.49938	2513.086	13.15322
27.55333	2508.915	10.26065
27.60728	2502.995	10.22403
27.66123	2502.962	11.34077
27.71518	2505.136	9.472407
27.76913	2502.825	8.839855
27.82308	2502.818	8.975686
27.87703	2494.878	10.37437
27.93098	2494.146	11.74757
27.98492	2493.467	10.27826
28.03887	2491.569	6.143676
28.09282	2490.565	10.77616
28.14677	2490.696	11.92177
28.20072	2484.601	8.658424
28.25467	2480.964	13.77882
28.30862	2482.828	6.247632
28.36257	2481.554	6.693911
28.41652	2475.661	8.472511
28.47047	2475.98	6.307928
28.52442	2474.125	9.309055
28.57837	2472.356	7.172817
28.63231	2467.316	10.88855
28.68626	2465.874	13.66569
28.74021	2464.583	9.473591
28.79416	2462.871	11.69302
28.84811	2462.542	7.735699
28.90206	2459.233	8.025601
28.95601	2455.896	12.53701
29.00996	2454.946	11.90337
29.06391	2450.545	5.581516
29.11786	2450.609	7.257487
29.1718	2445.507	9.893385
29.22575	2443.528	9.71014
29.2797	2449.004	9.162591
29.33365	2446.762	8.771345
29.3876	2442.926	5.942587
29.44155	2437.492	8.168807
29.4955	2429.828	5.634881
29.54945	2431.767	5.772778
29.6034	2431.568	10.70028
29.65735	2430.031	12.18085
29.7113	2429.382	11.98299
29.76525	2424.274	7.727875
29.81919	2423.008	14.17014
29.87314	2421.994	12.05003
29.92709	2424.085	11.15776
29.98104	2422	11.77774
30.03499	2417.212	11.05458
30.08894	2413.598	11.62438
30.14289	2410.525	11.81218
30.19684	2407.061	12.16915
30.25079	2408.452	10.72857
30.30474	2409.068	9.875943
30.35869	2402.738	10.64423
30.41263	2398.14	9.940927
30.46658	2395.25	11.69227
30.52053	2397.764	10.60418
30.57448	2398.044	9.438248
30.62843	2396.176	7.667345
30.68238	2393.863	7.320479
30.73633	2388.851	7.9427
30.79028	2386.673	9.880543
30.84423	2385.257	13.40903
30.89818	2385.604	10.58755
30.95213	2386.804	9.734437
31.00607	2382.87	13.3036
31.06002	2378.293	15.55855
31.11397	2373.607	11.7039
31.16792	2372.345	10.26996
31.22187	2372.574	6.895331
31.27582	2371.729	8.363802
31.32977	2367.29	8.439425
31.38372	2366	9.696062
31.43767	2366.647	10.79542
31.49162	2361.888	10.25862
31.54557	2360.508	9.05701
31.59951	2357.549	8.973847
31.65346	2353.729	13.33595
31.70741	2353.987	10.94842
31.76136	2350.926	11.82305
31.81531	2350.339	9.799982
31.86926	2346.301	10.70196
31.92321	2347.633	9.876709
31.97716	2343.564	7.237171
32.03111	2343.645	5.970664
32.08506	2338.283	5.442918
32.13901	2336.22	9.785542
32.19296	2334	10.69732
32.2469	2331.767	7.466439
32.30085	2328.811	10.52313
32.3548	2331.664	9.419174
32.40875	2329.102	13.36266
32.4627	2326.186	8.953971
32.51665	2325.878	8.046581
32.5706	2320.951	12.82272
32.62455	2320.377	12.99224
32.6785	2317.219	14.80096
32.73244	2315.008	15.26358
32.7864	2315.156	7.182649
32.84034	2313.427	10.53573
32.89429	2309.313	11.85932
32.94824	2309.466	8.960177
33.00219	2305.694	11.90047
33.05614	2305.833	5.688564
33.11009	2301.22	13.12542
33.16404	2299.114	10.47515
33.21799	2296.292	10.20178
33.27194	2295.067	10.94779
33.32589	2299.456	8.65981
33.37984	2294.909	7.810613
33.43378	2293.434	9.099985
33.48773	2288.897	8.365655
33.54168	2283.75	8.475397
33.59563	2283.565	7.887773
33.64958	2282.922	8.933779
33.70353	2280.44	10.10157
33.75748	2277.005	7.62406
33.81143	2273.846	7.714594
33.86538	2272.102	8.959739
33.91933	2273.908	8.116343
33.97327	2273.085	8.793723
34.02723	2270.056	9.035568
34.08117	2270.606	11.27868
34.13512	2268.479	10.80658
34.18907	2263.489	7.94705
34.24302	2261.588	7.292912
34.29697	2261.943	10.66407
34.35092	2258.331	13.0864
34.40487	2253.579	14.48333
34.45882	2252.948	12.62386
34.51277	2250.904	8.869262
34.56672	2248.841	11.83802
34.62067	2247.396	13.48396
34.67461	2245.631	9.246527
34.72856	2244.766	7.816148
34.78251	2241.932	11.2422
34.83646	2240.234	13.92157
34.89041	2240.575	10.76098
34.94436	2238.881	7.263922
34.99831	2234.423	7.862184
35.05226	2233.422	9.320126
35.1062	2230.49	11.80018
35.16016	2227.763	10.41962
35.2141	2224.741	7.52526
35.26805	2223.538	7.865344
35.322	2220.201	7.746953
35.37595	2219.025	6.762388
35.4299	2216.55	7.914307
35.48385	2217.712	9.067257
35.5378	2212.842	8.462522
35.59175	2211.629	6.284905
35.6457	2210.263	7.433053
35.69965	2207.194	9.252388
35.7536	2205.364	9.919552
35.80754	2204.242	9.561311
35.8615	2204.825	9.254189
35.91544	2202.532	5.146547
35.96939	2197.252	15.66456
36.02334	2199.227	11.63597
36.07729	2195.738	8.30152
36.13124	2192.709	12.20337
36.18519	2191.719	6.921453
36.23914	2187.384	10.05005
36.29309	2184.932	11.10062
36.34703	2186.098	10.6296
36.40099	2182.112	5.635372
36.45493	2181.893	11.81969
36.50888	2181.07	8.866841
36.56283	2180.712	9.412553
36.61678	2175.036	6.907357
36.67073	2171.034	10.63889
36.72468	2174.58	5.161619
36.77863	2174.553	7.309791
36.83258	2166.538	6.750078
36.88653	2164.063	8.911021
36.94048	2163.447	10.19056
36.99443	2165.644	9.784554
37.04837	2158.296	9.314342
37.10232	2159.081	9.974402
37.15627	2158.168	11.83045
37.21022	2154.59	11.08844
37.26417	2153.575	9.420043
37.31812	2151.523	8.174507
37.37207	2146.244	5.744266
37.42602	2147.315	10.41477
37.47997	2144.659	14.07722
37.53392	2140.91	10.71167
37.58786	2141.188	8.299114
37.64182	2140.228	8.640425
37.69576	2139.541	7.572347
37.74971	2136.136	6.008471
37.80366	2132.385	11.20637
37.85761	2129.474	11.97152
37.91156	2130.369	13.93674
37.96551	2128.821	12.09819
38.01946	2126.627	8.940641
38.07341	2126.757	8.862316
38.12736	2122.918	9.055913
38.1813	2121.013	9.594652
38.23526	2120.504	10.58656
38.2892	2118.135	9.98365
38.34315	2113.61	9.662067
38.3971	2111.018	9.508298
38.45105	2111.088	8.351419
38.505	2107.946	9.039955
38.55895	2105.378	10.86429
38.6129	2106.453	11.64217
38.66685	2105.207	9.260638
38.72079	2102.458	7.424737
38.77475	2100.878	8.727106
38.82869	2098.884	8.96167
38.88264	2098.389	9.954086
38.93659	2094.799	5.502075
38.99054	2094.605	5.06427
39.04449	2094.178	6.445807
39.09844	2090.834	6.335085
39.15239	2087.224	8.158497
39.20634	2087.072	8.605197
39.26029	2083.773	10.48514
39.31424	2082.677	9.33522
39.36819	2081.826	8.95178
39.42213	2080.42	10.2888
39.47609	2078.428	8.31112
39.53003	2076.191	11.3654
39.58398	2071.436	13.46485
39.63793	2071.647	8.189713
39.69188	2067.99	8.234377
39.74583	2064.607	11.42989
39.79978	2063.15	5.405705
39.85373	2062.949	11.1022
39.90768	2060.523	7.27511
39.96162	2063.381	11.64392
40.01558	2056.063	6.453684
40.06952	2056.874	9.299623
40.12347	2052.029	12.2554
40.17742	2054.281	6.43376
40.23137	2048.888	10.17019
40.28532	2048.127	7.897498
40.33927	2046.687	10.88541
40.39322	2045.84	10.44285
40.44717	2039.181	10.42038
40.50112	2042.375	11.48462
40.55507	2038.606	8.573475
40.60902	2038.4	7.814137
40.66296	2034.895	13.05144
40.71692	2034.117	13.11917
40.77086	2030.933	11.17795
40.82481	2031.193	11.27966
40.87876	2025.482	9.324448
40.93271	2027.112	8.034703
40.98666	2025.12	8.602676
41.04061	2024.428	13.65009
41.09456	2022.003	10.11425
41.14851	2022.613	7.957089
41.20245	2016.452	11.83552
41.2564	2013.779	8.501122
41.31035	2011.763	8.205659
41.3643	2011.354	9.773933
41.41825	2010.38	10.52241
41.4722	2009.983	11.06647
41.52615	2007.892	7.41928
41.5801	2006.54	6.712031
41.63405	2003.823	7.153068
41.688	1999.926	5.360623
41.74195	1997.817	9.193189
41.79589	1997.188	10.86932
41.84985	1995.878	8.297235
41.90379	1994.425	10.3702
41.95774	1992.571	12.0752
42.01169	1991.213	9.782475
42.06564	1991.517	8.842725
42.11959	1986.944	9.365662
42.17354	1983.578	9.969779
42.22749	1980.122	10.91559
42.28144	1979.25	8.918384
42.33539	1980.518	4.429135
42.38934	1981.443	4.82269
42.44328	1974.64	5.348688
42.49723	1972.942	2.784349
42.55118	1971.041	4.084173
42.60513	1966.766	7.655514
42.65908	1967.882	9.874579
42.71303	1968.199	9.671659
42.76698	1964.708	9.047011
42.82093	1966.072	8.563582
42.87488	1962.173	9.410845
42.92883	1959.721	12.81757
42.98278	1955.883	8.573525
43.03672	1955.516	9.835832
43.09068	1954.405	7.483554
43.14462	1952.391	6.678036
43.19857	1948.831	9.606841
43.25252	1948.323	11.19733
43.30647	1944.713	8.145678
43.36042	1944.939	8.037819
43.41437	1942.228	8.048349
43.46832	1941.967	9.460766
43.52227	1942.322	10.13312
43.57622	1938.595	9.782289
43.63017	1936.845	6.859524
43.68411	1935.116	7.059477
43.73806	1934.828	8.593475
43.79201	1929.296	9.118704
43.84596	1929.819	11.13368
43.89991	1927.091	8.121895
43.95386	1925.125	8.098825
44.00781	1923.796	12.09219
44.06176	1921.818	5.396558
44.11571	1922.561	4.942405
44.16965	1921.017	8.492336
44.22361	1917.503	7.808083
44.27755	1914.382	10.37709
44.3315	1915.134	10.24487
44.38545	1913.37	9.035228
44.4394	1910.609	12.98438
44.49335	1905.071	9.709224
44.5473	1907.122	8.178532
44.60125	1906.149	10.11891
44.6552	1903.351	6.078527
44.70915	1901.065	9.100393
44.7631	1899.246	10.10382
44.81704	1897.848	6.451255
44.87099	1897.788	10.44519
44.92494	1892.058	10.93956
44.97889	1892.657	10.23221
45.03284	1889.325	8.30043
45.08679	1888.559	7.551709
45.14074	1887.753	7.628146
45.19469	1885.511	8.04663
45.24864	1884.65	10.31948
45.30259	1883.954	11.01131
45.35654	1879.702	11.64184
45.41048	1878.547	10.85856
45.46444	1877.798	9.552763
45.51838	1876.48	9.078061
45.57233	1875.739	7.907379
45.62628	1871.774	7.734048
45.68023	1871.056	7.04353
45.73418	1869.22	6.513403
45.78813	1868.687	8.357513
45.84208	1864.224	6.531907
45.89603	1865.986	5.135568
45.94998	1862.586	5.312155
46.00393	1860.011	5.231407
46.05787	1855.217	5.731328
46.11182	1854.093	7.762623
46.16577	1855.369	7.2246
46.21972	1853.682	6.640161
46.27367	1851.15	9.001904
46.32762	1848.205	8.515273
46.38157	1850.646	8.552951
46.43552	1851.36	9.222859
46.48947	1840.72	8.319897
46.54342	1845.094	8.398806
46.59737	1842.76	7.052517
46.65131	1842.628	11.34353
46.70527	1837.75	4.92899
46.75921	1838.475	7.746241
46.81316	1837.202	5.497544
46.86711	1837.728	7.16519
46.92106	1828.264	3.953852
46.97501	1830.552	5.090991
47.02896	1828.655	6.647996
47.08291	1829.352	5.127696
47.13686	1821.682	11.05506
47.19081	1821.224	10.36662
47.24475	1822.948	10.51639
47.2987	1819.904	7.542685
47.35265	1816.438	6.774895
47.4066	1814.882	6.492001
47.46055	1811.288	15.10349
47.5145	1812.368	12.42645
47.56845	1810.753	7.221139
47.6224	1811.849	8.337605
47.67635	1806.532	9.454701
47.7303	1805.129	10.65863
47.78424	1803.655	9.116226
47.8382	1804.791	10.69116
47.89214	1799.459	9.109859
47.94609	1799	8.275652
48.00004	1793.706	8.114677
48.05399	1795.647	8.971747
48.10794	1794.278	8.945776
48.16189	1793.379	9.939015
48.21584	1792.914	9.498798
48.26979	1790.276	5.837
48.32374	1784.926	9.903282
48.37769	1785.813	9.994932
48.43164	1782.866	11.6312
48.48558	1782.971	10.15263
48.53953	1780.974	10.39127
48.59348	1776.866	11.08153
48.64743	1775.032	8.607903
48.70138	1773.745	7.949028
48.75533	1771.81	10.64797
48.80928	1772.42	9.352941
48.86323	1769.46	6.981094
48.91718	1766.677	6.161092
48.97113	1766.063	7.588192
49.02507	1764.388	7.478188
49.07903	1764.879	6.099456
49.13297	1762.746	6.279383
49.18692	1759.41	7.107911
49.24087	1757.589	10.19889
49.29482	1756.937	9.460925
49.34877	1753.356	8.852031
49.40272	1752.764	10.71878
49.45667	1751.894	8.086286
49.51062	1753.414	5.959733
49.56457	1747.989	8.087758
49.61852	1745.713	9.409184
49.67247	1743.274	8.656254
49.72641	1745.53	8.385006
49.78036	1742.392	8.116523
49.83431	1741.877	13.04747
49.88826	1736.881	6.593468
49.94221	1737.411	5.246932
49.99616	1736.206	4.08381
50.05011	1734.298	7.875954
50.10406	1730.852	9.769341
50.158	1731.301	6.029748
50.21196	1731.282	11.29075
50.2659	1730.967	10.33711
50.31985	1722.544	7.120778
50.3738	1726.203	8.84375
50.42775	1721.099	8.313447
50.4817	1718.958	6.712436
50.53565	1717.206	8.81069
50.5896	1718.539	7.811864
50.64355	1717.432	6.772214
50.6975	1717.476	8.725943
50.75145	1713.444	6.046477
50.8054	1709.68	6.809511
50.85934	1708.467	8.360389
50.9133	1706.864	6.182075
50.96724	1706.988	8.418854
51.02119	1702.665	9.014827
51.07514	1700.38	8.13902
51.12909	1702.055	9.221385
51.18304	1695.309	8.363864
51.23699	1698.343	8.613129
51.29094	1695.209	6.243772
51.34489	1694.383	5.973352
51.39883	1692.434	8.640749
51.45279	1692.952	8.0273
51.50673	1687.101	9.663042
51.56068	1688.269	10.06966
51.61463	1684.609	4.884675
51.66858	1685.845	7.817208
51.72253	1679.675	9.308034
51.77648	1681.677	6.421454
51.83043	1681.621	9.436262
51.88438	1680.503	8.62473
51.93833	1678.261	9.281914
51.99228	1675.332	11.12944
52.04623	1672.627	8.681767
52.10017	1672.916	7.302392
52.15412	1669.103	6.110603
52.20807	1668.166	8.076555
52.26202	1663.464	6.443716
52.31597	1663.436	5.954742
52.36992	1663.057	6.158416
52.42387	1663.377	5.719357
52.47782	1659.408	9.716239
52.53177	1657.859	11.65731
52.58572	1657.69	9.512682
52.63966	1655.886	9.359833
52.69361	1654.667	9.360515
52.74756	1652.61	8.094239
52.80151	1650.668	8.104953
52.85546	1648.73	6.67352
52.90941	1648.455	4.971176
52.96336	1646.346	4.705263
53.01731	1643.785	5.725
53.07126	1640.879	5.290449
53.12521	1643.602	4.956789
53.17916	1638.931	4.950324
53.2331	1637.095	7.203089
53.28706	1637.549	7.984554
53.341	1635.787	7.883782
53.39495	1636.96	8.516025
53.4489	1635.681	8.913697
53.50285	1629.38	8.586726
53.5568	1632.447	8.326726
53.61075	1629.544	6.717269
53.6647	1627.66	7.885695
53.71865	1625.795	7.900519
53.77259	1627.4	6.57565
53.82655	1621.378	6.707709
53.88049	1623.235	9.228087
53.93444	1618.687	3.797811
53.98839	1618.074	6.091015
54.04234	1612.578	5.556536
54.09629	1615.409	6.087331
54.15024	1609.708	8.66328
54.20419	1611.287	7.147605
54.25814	1606.694	7.152917
54.31209	1607.674	7.360581
54.36604	1605.552	7.242617
54.41999	1603.163	8.639931
54.47393	1599.705	11.40174
54.52789	1600.193	8.442489
54.58183	1597.982	6.700521
54.63578	1599.885	7.355734
54.68973	1594.61	8.163908
54.74368	1595.818	8.151946
54.79763	1591.509	7.058947
54.85158	1591.375	6.503911
54.90553	1588.868	4.280574
54.95948	1589.246	7.433898
55.01342	1587.532	9.295751
55.06738	1589.381	7.118968
55.12132	1580.97	10.86192
55.17527	1580.502	8.330036
55.22922	1580.087	6.677132
55.28317	1579.296	9.649213
55.33712	1578.213	9.721014
55.39107	1576.974	7.339439
55.44502	1573.734	8.054408
55.49897	1570.455	10.07027
55.55292	1571.117	8.652924
55.60686	1570.599	7.474638
55.66082	1570.183	6.1713
55.71476	1567.987	8.642475
55.76871	1567.063	8.866365
55.82266	1562.265	6.283898
55.87661	1561.627	3.073754
55.93056	1560.996	7.445891
55.98451	1558.621	6.850043
56.03846	1559.264	5.456698
56.09241	1560.309	6.526398
56.14636	1552.184	6.771232
56.20031	1554.708	7.682784
56.25425	1550.194	10.05589
56.3082	1553.7	8.000482
56.36215	1546.955	6.665657
56.4161	1547.872	7.37634
56.47005	1544.556	7.698772
56.524	1543.679	8.933908
56.57795	1542.504	8.544271
56.6319	1543.908	5.24608
56.68585	1537.462	5.48776
56.7398	1538.041	6.203265
56.79375	1533.281	8.420247
56.84769	1538.426	7.68577
56.90165	1533.789	9.36016
56.95559	1535.893	6.647211
57.00954	1530.034	6.551373
57.06349	1529.685	7.948129
57.11744	1526.44	6.142007
57.17139	1527.947	11.54332
57.22534	1522.724	6.058279
57.27929	1523.125	10.99884
57.33324	1519.736	8.7686
57.38719	1520.121	7.407248
57.44114	1516.945	8.067318
57.49508	1518.263	7.54175
57.54903	1515.337	4.346
57.60298	1513.183	5.699988
57.65693	1511.915	6.675201
57.71088	1511.701	6.427295
57.76483	1508.008	7.038058
57.81878	1508.917	6.16379
57.87273	1507.409	6.308904
57.92668	1504.265	5.736987
57.98063	1502.892	5.304244
58.03458	1502.116	7.923253
58.08852	1499.711	7.975512
58.14248	1498.278	7.694781
58.19642	1499.156	8.54223
58.25037	1495.267	7.289136
58.30432	1494.063	7.331602
58.35827	1493.839	7.961082
58.41222	1492.968	10.30328
58.46617	1490.726	7.906007
58.52012	1490.352	8.042675
58.57407	1488.278	8.084294
58.62802	1488.17	7.420063
58.68196	1482.57	7.776359
58.73591	1483.599	7.88598
58.78986	1482.252	4.757045
58.84381	1483.231	7.926186
58.89776	1477.185	7.443153
58.95171	1478.604	8.177933
59.00566	1476.424	6.249552
59.05961	1477.87	13.48447
59.11356	1474.256	5.742656
59.16751	1475.319	8.060453
59.22145	1471.865	8.300609
59.27541	1470.369	7.985216
59.32935	1466.261	9.102007
59.3833	1467.486	4.867526
59.43725	1463.19	10.63607
59.4912	1463.889	8.93629
59.54515	1459.302	9.837958
59.5991	1462.097	11.25345
59.65305	1454.8	7.909756
59.707	1457.806	9.249684
59.76095	1457.093	6.262993
59.8149	1454.514	7.63405
59.86884	1452.773	9.26718
59.92279	1453.421	9.195096
59.97674	1446.925	7.413848
60.03069	1451.77	9.94004
60.08464	1446.299	4.442705
60.13859	1447.142	8.953057
60.19254	1439.894	7.117625
60.24649	1442.943	8.201044
60.30044	1438.587	6.180508
60.35439	1439.22	6.020967
60.40834	1437.469	7.609646
60.46228	1439.842	7.166931
60.51624	1436.538	7.282338
60.57018	1436.274	6.208158
60.62413	1433.515	3.751627
60.67808	1431.899	5.575755
60.73203	1428.029	8.550648
60.78598	1428.534	7.447114
60.83993	1429.227	5.814449
60.89388	1429.37	5.400902
60.94783	1428.127	6.840916
61.00178	1425.986	9.374744
61.05573	1424.406	7.848965
61.10967	1421.852	6.36447
61.16362	1421.194	6.663916
61.21757	1419.58	6.493266
61.27152	1420.14	8.862652
61.32547	1416.605	6.28527
61.37942	1415.779	6.40989
61.43337	1412.932	4.907243
61.48732	1411.829	6.849402
61.54127	1411.199	8.395555
61.59521	1411.64	6.893272
61.64917	1407.547	6.996264
61.70311	1409.004	7.508206
61.75706	1402	6.756063
61.81101	1405.17	6.587268
61.86496	1400.627	7.792905
61.91891	1400.5	9.397351
61.97286	1398.245	7.357867
62.02681	1401.517	5.860507
62.08076	1399.611	8.997954
62.13471	1396.536	6.147552
62.18866	1396.007	6.976147
62.24261	1395.217	6.450183
62.29655	1393.643	8.030925
62.3505	1394.867	9.18784
62.40445	1388.589	5.218906
62.4584	1392.797	7.655973
62.51235	1385.608	7.698047
62.5663	1385.535	5.486702
62.62025	1382.573	5.573842
62.6742	1386.733	5.660473
62.72815	1381.212	8.361438
62.7821	1384.413	9.293427
62.83604	1381.058	5.16308
62.89	1380.582	6.401768
62.94394	1376.995	8.950797
62.99789	1380.954	9.672535
63.05184	1374.226	8.582307
63.10579	1379.199	6.919179
63.15974	1371.695	7.688657
63.21369	1372.368	10.16399
63.26764	1370.759	10.92412
63.32159	1371.817	8.753196
63.37554	1367.965	7.051661
63.42949	1368.824	7.835869
63.48344	1367.022	7.982145
63.53738	1365.544	7.74521
63.59133	1365.234	8.597838
63.64528	1364.162	9.353539
63.69923	1363.749	8.556149
63.75318	1364.097	9.018669
63.80713	1361.148	7.804698
63.86108	1359.426	5.9427
63.91503	1357.43	8.665017
63.96898	1356.63	9.231602
64.02293	1355.059	7.091584
64.07687	1354.359	7.711925
64.13082	1354.739	7.530649
64.18478	1356.086	6.806938
64.23872	1356.772	6.53535
64.29267	1354.596	5.723286
64.34662	1352.665	5.043953
64.40057	1350.149	4.938803
64.45452	1349.767	6.852052
64.50847	1347.7	5.655495
64.56242	1349.629	4.654225
64.61636	1347.204	4.402822
64.67032	1348.659	3.874577
64.72427	1345.243	6.37096
64.77821	1346.851	6.119576
64.83216	1344.089	5.401614
64.88611	1343.644	5.209209
64.94006	1345.162	8.071974
64.99401	1346.062	6.905238
65.04796	1344.458	4.617036
65.10191	1346.322	6.250951
65.15586	1341	3.941117
65.20981	1343.014	7.133151
65.26376	1340.539	7.584251
65.3177	1342.176	6.99238
65.37165	1336.762	8.719074
65.42561	1339.864	9.186192
65.47955	1335.669	4.160878
65.5335	1341.194	7.827961
65.58745	1337.815	5.907592
65.6414	1342.731	8.639031
65.69535	1337.624	6.411128
65.7493	1343.81	7.075418
65.80325	1337.539	5.400427
65.85719	1342.142	7.886099
65.91115	1336.708	7.485423
65.9651	1339.452	7.829786
66.01904	1336.444	5.70922
66.07299	1340.378	8.506311
66.12694	1338.469	7.215053
66.18089	1342.181	8.197618
66.23484	1341.466	7.441582
66.28879	1344.685	8.630075
66.34274	1342.773	7.256209
66.39668	1345.663	8.765859
66.45064	1344.826	10.44835
66.50459	1347.245	7.794883
66.55853	1346.92	6.91397
66.61248	1349.81	8.569814
66.66644	1347.951	9.238453
66.72038	1350.217	6.872954
66.77433	1353.189	6.87943
66.82828	1357.021	7.517109
66.88223	1354.493	6.289483
66.93618	1359.22	8.357145
66.99013	1360.879	8.12383
67.04408	1362.539	6.743331
67.09802	1364.136	5.978553
67.15198	1367.557	7.390349
67.20592	1366.458	10.01957
67.25987	1369.829	8.830354
67.31382	1371.574	8.649336
67.36777	1373.269	10.40006
67.42172	1375.023	10.99136
67.47567	1379.406	10.68042
67.52962	1382.438	8.616653
67.58356	1384.59	6.407684
67.63751	1389.014	5.913397
67.69147	1392.564	7.523275
67.74541	1396.212	9.717197
67.79936	1400.321	9.37993
67.85331	1402.679	7.229496
67.90726	1405.508	7.611117
67.96121	1411.517	9.494954
68.01516	1414.505	8.354533
68.06911	1420.301	9.328399
68.12305	1422.184	9.663256
68.17701	1429.98	9.194973
68.23096	1431.775	9.475288
68.2849	1439.555	9.527721
68.33885	1443.362	8.692958
68.39281	1453.488	9.412486
68.44675	1452.738	9.703833
68.5007	1463.355	11.07656
68.55465	1466.801	5.84138
68.6086	1475.518	6.887417
68.66255	1477.305	9.055251
68.7165	1485.81	7.030762
68.77045	1491.516	9.580093
68.82439	1502.123	9.461722
68.87834	1504.994	9.043607
68.9323	1516.055	9.721349
68.98624	1518.791	9.204691
69.04019	1529.372	10.06246
69.09414	1533.285	11.05185
69.14809	1546.634	11.20411
69.20204	1550.279	14.13568
69.25599	1566.535	9.297944
69.30994	1573.092	5.168729
69.36388	1583.797	9.068841
69.41784	1589.188	10.35187
69.47179	1600.307	12.78614
69.52573	1608.307	11.51381
69.57968	1620.551	11.96791
69.63363	1630.864	10.55891
69.68758	1645.368	10.77055
69.74153	1654.822	12.99471
69.79548	1665.423	13.88432
69.84943	1676.372	15.20831
69.90338	1687.274	16.29081
69.95733	1701.282	13.88678
70.01128	1712.009	13.53276
70.06522	1727.164	15.90422
70.11917	1737.441	14.54697
70.17313	1752.028	13.7943
70.22707	1766.501	13.03095
70.28102	1778.372	15.43322
70.33497	1792.286	19.12671
70.38892	1808.438	16.36267
70.44287	1820.637	14.69441
70.49682	1837.082	14.9166
70.55077	1849.521	15.73816
70.60471	1866.218	16.57217
70.65867	1882.056	14.39493
70.71262	1899.373	16.07568
70.76656	1914.119	19.3747
70.82051	1930.409	17.83765
70.87446	1945.664	16.0496
70.92841	1968.935	16.47246
70.98236	1975.684	17.43002
71.03631	1998.101	18.04621
71.09026	2007.81	18.87947
71.14421	2033.321	18.58824
71.19816	2045.604	17.21016
71.25211	2066.971	17.03296
71.30605	2075.999	16.57129
71.36	2100.095	18.97086
71.41396	2114.48	16.47202
71.4679	2140.979	14.32045
71.52185	2155.204	17.60919
71.5758	2179.374	20.29288
71.62975	2193.406	20.91918
71.6837	2217.866	20.31295
71.73765	2233.354	22.99228
71.7916	2256.068	19.43952
71.84554	2276.005	18.96809
71.8995	2301.376	19.29264
71.95345	2315.484	17.64464
72.00739	2338.188	17.53067
72.06134	2356.7	19.64017
72.11529	2378.84	22.22661
72.16924	2394.361	21.45877
72.22319	2419.537	22.66007
72.27714	2437.74	18.64919
72.33109	2456.337	15.32815
72.38504	2469.104	13.48026
72.43899	2490.577	18.365
72.49294	2508.425	20.18355
72.54688	2524.145	19.0601
72.60083	2540.686	20.18387
72.65479	2556.167	18.21334
72.70873	2571.357	15.85229
72.76268	2587.58	15.13214
72.81663	2603.954	17.69233
72.87058	2615.095	19.24655
72.92453	2628.296	15.56301
72.97848	2639.237	16.16222
73.03242	2654.852	17.92507
73.08637	2661.565	15.03752
73.14033	2676.602	13.66204
73.19427	2682.838	10.28707
73.24822	2698.167	10.91116
73.30217	2704.277	10.56254
73.35612	2718.959	10.59068
73.41007	2717.229	13.01192
73.46402	2731.029	16.85675
73.51797	2737.422	12.46082
73.57191	2750.452	15.32014
73.62587	2740.368	13.67095
73.67982	2757.964	15.61909
73.73376	2755.084	15.40292
73.78771	2771.868	15.09946
73.84166	2768.686	11.27069
73.89561	2785.924	19.04994
73.94956	2777.286	16.57262
74.00351	2789.298	16.72045
74.05746	2786.162	12.45473
74.1114	2797.8	13.36963
74.16536	2796.474	16.44919
74.21931	2806.215	16.67049
74.27325	2808.904	11.83885
74.3272	2818.53	13.96
74.38116	2812.379	18.77094
74.4351	2824.187	17.35903
74.48905	2817.732	15.62509
74.543	2828.988	16.96564
74.59695	2828.505	13.87133
74.6509	2838.571	12.63785
74.70485	2832.843	10.23719
74.7588	2840.923	15.42681
74.81274	2842.567	13.17339
74.8667	2852.379	11.31
74.92065	2850.663	14.8734
74.97459	2854.527	14.26118
75.02854	2854.19	13.47115
75.08249	2859.212	13.98536
75.13644	2862.014	13.67026
75.19039	2865.827	13.4919
75.24434	2869.908	13.89736
75.29829	2871.052	13.66614
75.35223	2875.307	12.62152
75.40619	2869.734	12.03541
75.46014	2877.253	13.74062
75.51408	2873.455	16.136
75.56803	2882.054	12.84206
75.62199	2879.906	11.02067
75.67593	2889.234	14.511
75.72988	2881.25	15.9301
75.78383	2889.748	18.93531
75.83778	2888.061	8.918805
75.89173	2897.181	14.22002
75.94568	2892.258	13.52176
75.99963	2903.671	11.73245
76.05357	2897.772	17.3359
76.10753	2904.186	11.85429
76.16148	2896.517	17.29348
76.21542	2908.975	15.84533
76.26937	2898.443	11.08109
76.32332	2914.254	11.84615
76.37727	2907.256	19.31234
76.43122	2914.434	17.09768
76.48517	2909.723	13.54552
76.53912	2916.256	16.42028
76.59306	2916.345	16.21425
76.64702	2923.366	14.3821
76.70097	2919.349	12.16738
76.75491	2922.754	11.34496
76.80886	2923.465	11.83073
76.86282	2924.951	10.05435
76.91676	2926.969	9.752938
76.97071	2930.581	11.09081
77.02466	2935.77	9.597241
77.07861	2928.836	8.318917
77.13256	2936.527	11.96215
77.18651	2932.914	13.10648
77.24046	2936.11	10.53314
77.2944	2931.927	13.96376
77.34836	2940.942	18.27934
77.40231	2935.781	9.711636
77.45625	2946.871	12.88469
77.5102	2936.65	14.27843
77.56415	2944.858	13.48755
77.6181	2938.862	13.47547
77.67205	2950.315	16.92036
77.726	2941.157	14.84582
77.77995	2945.222	18.44122
77.83389	2938.999	9.70431
77.88785	2949.095	10.1656
77.9418	2943.926	13.04531
77.99574	2952.227	10.95689
78.04969	2937.971	19.62256
78.10365	2952.764	17.90677
78.15759	2939.97	15.10966
78.21154	2955.914	15.05841
78.26549	2944.054	15.59037
78.31944	2957.365	15.4038
78.37339	2949.77	17.27327
78.42734	2957.253	14.51363
78.48129	2950.653	14.53267
78.53523	2959.117	18.04591
78.58918	2953.43	13.62642
78.64314	2960.199	13.127
78.69708	2957.541	14.65088
78.75103	2961.866	11.52805
78.80498	2956.939	12.39095
78.85893	2961.289	10.92021
78.91288	2957.511	12.4574
78.96683	2964.518	15.11498
79.02077	2963.74	14.12298
79.07472	2961.886	12.77546
79.12868	2965.876	12.79484
79.18262	2967.896	10.39941
79.23657	2968.992	9.826712
79.29052	2970.586	14.05004
79.34447	2976.11	16.80077
79.39842	2973.294	13.87299
79.45237	2979.815	11.17145
79.50632	2976.914	13.58345
79.56026	2983.122	19.66611
79.61422	2974.766	13.89038
79.66817	2986.561	16.38873
79.72211	2975.291	13.89507
79.77606	2983.039	17.41631
79.83001	2976.49	14.00694
79.88396	2984.105	15.98637
79.93791	2976.541	13.66901
79.99186	2987.956	10.04555
80.04581	2977.962	11.83994
80.09976	2987.691	7.444989
80.15371	2977.781	12.06112
80.20766	2989.867	17.75323
80.2616	2983.723	12.45726
80.31555	2991.39	13.06299
80.36951	2980.51	14.16324
80.42345	2994.865	17.22365
80.4774	2988.853	15.96616
80.53135	2996.136	13.24256
80.5853	2987.479	11.66416
80.63925	2996.329	12.90084
80.6932	2986.747	12.68841
80.74715	2998.065	11.6693
80.80109	2993.396	12.02121
80.85505	3000.332	14.17951
80.909	2998.76	11.20871
80.96294	3005.541	11.22196
81.01689	2999.482	10.79618
81.07084	3007.266	13.52304
81.12479	3004.014	13.87603
81.17874	3009.063	12.73608
81.23269	3004.792	9.743613
81.28664	3006.573	11.48084
81.34059	3003.149	10.72421
81.39454	3009.869	11.40907
81.44849	3011.547	12.07352
81.50243	3014.141	10.19234
81.55638	3016.672	13.48819
81.61034	3016.275	13.9532
81.66428	3015.317	12.99376
81.71823	3015.483	13.48989
81.77218	3019.01	11.56499
81.82613	3018.82	12.55429
81.88008	3023.563	14.17675
81.93403	3022.673	14.48587
81.98798	3026.362	13.76874
82.04192	3025.529	12.14933
82.09588	3031.237	13.62224
82.14983	3028.244	14.35822
82.20377	3036.508	11.80012
82.25772	3032.05	13.53802
82.31167	3039.283	13.47939
82.36562	3033.857	12.12501
82.41957	3040.977	14.34463
82.47352	3031.726	16.38364
82.52747	3039.973	11.83188
82.58142	3036.065	11.77552
82.63537	3050.032	16.63256
82.68932	3037.243	14.64752
82.74326	3051.59	19.68614
82.79721	3047.949	13.09046
82.85117	3056.142	13.68131
82.90511	3045.558	12.39979
82.95906	3059.169	13.53236
83.01301	3050.563	15.42806
83.06696	3060.248	16.06868
83.12091	3050.633	13.17811
83.17486	3058.274	13.10858
83.22881	3050.511	14.18687
83.28275	3062.256	10.08088
83.33671	3055.387	11.80595
83.39066	3063.15	15.05705
83.4446	3056.123	16.46086
83.49855	3066.488	15.00198
83.5525	3059.143	18.1392
83.60645	3072.51	14.81132
83.6604	3064.157	16.38236
83.71435	3072.383	18.28821
83.7683	3059.979	20.67736
83.82225	3071.066	12.76009
83.8762	3064.867	14.14868
83.93015	3076.502	15.89544
83.98409	3068.338	11.52939
84.03804	3073.551	13.00117
84.092	3066.443	12.7044
84.14594	3076.531	15.12264
84.19989	3069.613	15.86366
84.25384	3080.17	20.65843
84.30779	3072.898	20.94742
84.36174	3081.908	21.60548
84.41569	3074.245	16.34933
84.46964	3078.519	14.02616
84.52358	3076.828	16.79725
84.57754	3083.158	16.6274
84.63148	3080.704	15.14205
84.68543	3084.205	16.67638
84.73938	3080.25	18.84481
84.79333	3079.587	18.79058
84.84728	3077.548	15.42626
84.90123	3077.874	15.46453
84.95518	3081.726	18.41689
85.00912	3082.152	16.76444
85.06308	3079.544	17.04126
85.11703	3075.154	18.81675
85.17097	3075.471	19.45434
85.22492	3073.652	18.60423
85.27887	3077.942	17.20009
85.33282	3072.863	19.59826
85.38677	3076.297	20.00654
85.44072	3071.119	17.57493
85.49467	3074.124	19.72339
85.54861	3068.853	20.31124
85.60257	3077.404	21.00377
85.65652	3069.467	17.48733
85.71046	3071.799	18.90541
85.76441	3061.969	17.21996
85.81837	3063.9	21.75478
85.87231	3058.558	17.1181
85.92626	3066.927	16.34633
85.98021	3056.238	15.81378
86.03416	3064.959	16.59696
86.08811	3056.989	14.05866
86.14206	3066.648	24.33289
86.19601	3052.372	18.17809
86.24995	3065.021	16.75023
86.30391	3050.206	16.17107
86.35786	3058.298	19.29697
86.4118	3043.53	15.40741
86.46575	3052.415	12.75481
86.5197	3036.749	13.04463
86.57365	3049.884	17.40367
86.6276	3033.297	17.37314
86.68155	3050.041	21.24235
86.7355	3031.812	17.04146
86.78944	3044.304	8.917916
86.8434	3025.384	17.84792
86.89735	3040.309	18.16768
86.95129	3022.105	11.65821
87.00524	3032.006	15.33525
87.0592	3018.788	12.63666
87.11314	3028.307	12.8178
87.16709	3016.865	14.79667
87.22104	3026.061	16.42886
87.27499	3013.981	15.06649
87.32894	3024.442	13.80899
87.38289	3011.982	14.77516
87.43684	3020.784	17.17624
87.49078	3002.53	12.90169
87.54473	3005.788	13.4192
87.59869	3003.345	13.34609
87.65263	3010.616	14.9889
87.70658	2995.735	14.94302
87.76053	3001.545	14.28312
87.81448	2998.268	14.13834
87.86843	2998.001	15.73157
87.92238	2986.101	12.88522
87.97633	2990.208	13.74891
88.03027	2982.843	15.47495
88.08423	2986.774	17.16662
88.13818	2982.058	15.27548
88.19212	2983.643	14.788
88.24607	2975.36	13.92231
88.30003	2977.258	14.40462
88.35397	2975.911	12.78261
88.40792	2975.794	11.73775
88.46187	2973.203	12.41081
88.51582	2969.291	15.92435
88.56977	2968.926	16.37924
88.62372	2962.136	14.86666
88.67767	2964.412	14.8558
88.73161	2956.599	11.34072
88.78556	2957.08	15.28183
88.83952	2953.935	15.9325
88.89346	2958.47	15.29116
88.94741	2951.898	13.2042
89.00136	2954.721	16.12927
89.05531	2938.496	20.63967
89.10926	2943.875	17.9952
89.16321	2939.541	16.44422
89.21716	2941.621	14.21118
89.2711	2929.264	9.025637
89.32506	2934.319	14.03731
89.37901	2924.545	13.90322
89.43295	2932.507	14.25391
89.4869	2920.375	11.45486
89.54086	2927.48	16.16255
89.5948	2913.735	16.34288
89.64875	2929.838	11.72145
89.7027	2910.864	11.9175
89.75665	2914.975	13.60249
89.8106	2903.406	9.930181
89.86455	2911.192	10.17437
89.9185	2897.999	14.24945
89.97244	2911.556	14.55324
90.02639	2890.818	9.530521
90.08035	2899.273	13.2929
90.13429	2880.635	11.91747
90.18824	2894.438	11.45583
90.24219	2883.582	11.89578
90.29614	2893.188	12.44911
90.35009	2873.216	15.97483
90.40404	2884.672	13.31358
90.45798	2874.053	11.64972
90.51193	2875.564	13.23094
90.56589	2862.27	13.52342
90.61983	2873.713	11.02433
90.67378	2851.579	6.85945
90.72773	2867.476	8.611263
90.78168	2854.443	16.03377
90.83563	2860.726	15.51689
90.88958	2849.002	14.29796
90.94353	2853.301	12.75329
90.99747	2840.143	10.05026
91.05143	2845.655	17.12123
91.10538	2838.681	12.96946
91.15932	2842.347	12.0994
91.21327	2832.725	9.553847
91.26722	2835.058	10.22225
91.32117	2823.578	10.11652
91.37512	2826.422	12.39558
91.42907	2821.033	11.75447
91.48302	2826.49	12.57205
91.53697	2811.643	9.858115
91.59092	2816.306	11.62694
91.64487	2813.266	12.20301
91.69881	2814.919	12.06373
91.75276	2807.407	13.95244
91.80672	2803.488	11.86426
91.86066	2799.205	14.09144
91.91461	2795.495	13.63661
91.96856	2794.093	10.23046
92.02251	2792.231	11.08642
92.07646	2792.501	9.669315
92.13041	2787.511	8.309296
92.18436	2783.394	8.964131
92.2383	2775.517	7.315779
92.29226	2777.052	8.704341
92.34621	2770.749	11.02568
92.40015	2774.323	11.18911
92.4541	2766.115	8.968677
92.50805	2768.823	10.47927
92.562	2759.999	7.274043
92.61595	2765.333	9.448367
92.6699	2755.057	11.81178
92.72385	2760.211	9.948329
92.7778	2747.252	9.032434
92.83175	2755.376	9.484075
92.8857	2742.89	10.52065
92.93964	2753.867	13.28098
92.99359	2731.895	8.395937
93.04755	2738.369	7.162945
93.10149	2729.043	7.078585
93.15544	2738.724	4.368409
93.20939	2720.354	8.576483
93.26334	2729.172	11.33392
93.31729	2718.728	9.838306
93.37124	2727.885	7.480459
93.42519	2706.487	9.990245
93.47913	2716.545	8.435781
93.53309	2703.206	9.923487
93.58704	2711.41	5.12421
93.64098	2693.552	15.67596
93.69493	2702.704	11.14971
93.74888	2693.504	9.242958
93.80283	2699.864	12.31668
93.85678	2684.09	13.40307
93.91073	2697.73	15.44211
93.96468	2677.215	9.460939
94.01863	2688.321	13.57908
94.07258	2667.669	10.82823
94.12653	2679.572	11.68004
94.18047	2664.917	10.73134
94.23442	2673.309	11.98357
94.28838	2661.119	9.873507
94.34232	2663.496	9.567392
94.39627	2657.147	9.828874
94.45022	2654.47	14.1394
94.50417	2656.079	10.60415
94.55812	2647.764	14.17758
94.61207	2644.911	13.52375
94.66602	2648.378	8.944337
94.71996	2639.52	13.97075
94.77392	2631.189	13.96557
94.82787	2631.744	13.86455
94.88181	2628.494	8.104673
94.93576	2633.299	8.365762
94.98971	2636.798	11.70965
