T[Â°C]	350nm [counts / mm]	S.D.	First derivative	S.D. of first derivative
19.99983	6907.207		-93.79132	
20.05382	6901.66		-93.89973	
20.10781	6896.14		-94.00712	
20.16179	6890.646		-94.11343	
20.21578	6885.174		-94.21864	
20.26977	6879.718		-94.32267	
20.32375	6874.275		-94.42548	
20.37774	6868.84		-94.52704	
20.43173	6863.412		-94.62728	
20.48571	6857.987		-94.72617	
20.5397	6852.564		-94.82365	
20.59369	6847.144		-94.91969	
20.64768	6841.728		-95.01424	
20.70166	6836.322		-95.10725	
20.75565	6830.935		-95.1987	
20.80964	6825.583		-95.28854	
20.86362	6820.3		-95.37676	
20.91761	6815.154		-95.46333	
20.9716	6810.268		-95.5482	
21.02559	6805.686		-95.63139	
21.07957	6801.131		-95.71288	
21.13356	6796.543		-95.79266	
21.18755	6791.877		-95.87074	
21.24153	6787.104		-95.94716	
21.29552	6782.205		-96.02193	
21.34951	6777.18		-96.09512	
21.4035	6772.047		-96.1668	
21.45748	6766.829		-96.23705	
21.51147	6761.55		-96.30596	
21.56546	6756.229		-96.37366	
21.61944	6750.881		-96.44029	
21.67343	6745.51		-96.506	
21.72742	6740.104		-96.57095	
21.7814	6734.65		-96.63531	
21.83539	6729.137		-96.69933	
21.88938	6723.557		-96.76318	
21.94337	6717.918		-96.82712	
21.99735	6712.224		-96.89141	
22.05134	6706.476		-96.95635	
22.10533	6700.684		-97.02226	
22.15932	6694.859		-97.08948	
22.2133	6689.03		-97.15833	
22.26729	6683.225		-97.22917	
22.32128	6677.464		-97.30223	
22.37526	6671.766		-97.3776	
22.42925	6666.137		-97.45506	
22.48324	6660.583		-97.53386	
22.53723	6655.117		-97.61259	
22.59121	6649.745		-97.68922	
22.6452	6644.463		-97.6982	
22.69919	6639.263		-97.70047	
22.75317	6634.127		-97.6955	
22.80716	6629.039		-97.68291	
22.86115	6623.985		-97.66241	
22.91513	6618.957		-97.63383	
22.96912	6613.951		-97.59717	
23.02311	6608.963		-97.55252	
23.0771	6603.99		-97.50014	
23.13108	6599.017		-97.44038	
23.18507	6594.03		-97.37373	
23.23906	6589.002		-97.30075	
23.29305	6583.906		-97.22206	
23.34703	6578.736		-97.13834	
23.40102	6573.495		-97.05032	
23.45501	6568.192		-96.95877	
23.50899	6562.852		-96.86452	
23.56298	6557.501		-96.76841	
23.61697	6552.165		-96.6714	
23.67095	6546.859		-96.57452	
23.72494	6541.585		-96.47883	
23.77893	6536.329		-96.38541	
23.83292	6531.072		-96.29526	
23.8869	6525.811		-96.20933	
23.94089	6520.547		-96.1285	
23.99488	6515.284		-96.05359	
24.04886	6510.025		-95.98531	
24.10285	6504.784		-95.92426	
24.15684	6499.564		-95.87093	
24.21083	6494.367		-95.82567	
24.26481	6489.196		-95.7887	
24.3188	6484.056		-95.76015	
24.37279	6478.949		-95.74005	
24.42677	6473.88		-95.72828	
24.48076	6468.848		-95.72462	
24.53475	6463.847		-95.72862	
24.58874	6458.868		-95.7397	
24.64272	6453.9		-95.75709	
24.69671	6448.931		-95.77989	
24.7507	6443.952		-95.80714	
24.80468	6438.952		-95.83775	
24.85867	6433.926		-95.87064	
24.91266	6428.87		-95.90472	
24.96665	6423.79		-95.93906	
25.02063	6418.702		-95.9728	
25.07462	6413.62		-96.00531	
25.12861	6408.559		-96.03612	
25.18259	6403.528		-96.0649	
25.23658	6398.523		-96.09142	
25.29057	6393.533		-96.11561	
25.34455	6388.538		-96.13745	
25.39854	6383.513		-96.15701	
25.45253	6378.435		-96.17435	
25.50652	6373.288		-96.18946	
25.5605	6368.066		-96.20223	
25.61449	6362.779		-96.21246	
25.66848	6357.442		-96.21977	
25.72247	6352.075		-96.22375	
25.77645	6346.698		-96.22389	
25.83044	6341.33		-96.2197	
25.88443	6335.982		-96.2107	
25.93841	6330.655		-96.19658	
25.9924	6325.347		-96.17707	
26.04639	6320.061		-96.15205	
26.10038	6314.796		-96.12148	
26.15436	6309.545		-96.08539	
26.20835	6304.286		-96.04384	
26.26234	6299		-95.99697	
26.31632	6293.671		-95.94496	
26.37031	6288.301		-95.88811	
26.4243	6282.898		-95.82677	
26.47828	6277.466		-95.76134	
26.53227	6272.016		-95.69225	
26.58626	6266.562		-95.61979	
26.64025	6261.121		-95.54423	
26.69423	6255.712		-95.46574	
26.74822	6250.355		-95.38443	
26.80221	6245.059		-95.30031	
26.8562	6239.818		-95.21336	
26.91018	6234.611		-95.12357	
26.96417	6229.425		-95.03088	
27.01816	6224.249		-94.9353	
27.07214	6219.08		-94.83688	
27.12613	6213.919		-94.73578	
27.18012	6208.765		-94.63226	
27.2341	6203.618		-94.52664	
27.28809	6198.469		-94.41937	
27.34208	6193.32		-94.31097	
27.39607	6188.181		-94.20206	
27.45005	6183.057		-94.09325	
27.50404	6177.951		-93.98518	
27.55803	6172.861		-93.87835	
27.61201	6167.784		-93.77318	
27.666	6162.712		-93.66988	
27.71999	6157.648		-93.5685	
27.77398	6152.595		-93.46897	
27.82796	6147.559		-93.37109	
27.88195	6142.545		-93.27463	
27.93594	6137.559		-93.17933	
27.98993	6132.606		-93.08499	
28.04391	6127.707		-92.99146	
28.0979	6122.882		-92.89867	
28.15189	6118.144		-92.80667	
28.20587	6113.49		-92.7156	
28.25986	6108.904		-92.62571	
28.31385	6104.367		-92.53738	
28.36783	6099.851		-92.45112	
28.42182	6095.329		-92.36753	
28.47581	6090.77		-92.28729	
28.5298	6086.147		-92.21112	
28.58378	6081.441		-92.13972	
28.63777	6076.646		-92.07372	
28.69176	6071.774		-92.01369	
28.74574	6066.85		-91.96008	
28.79973	6061.893		-91.91321	
28.85372	6056.92		-91.87333	
28.90771	6051.939		-91.84055	
28.96169	6046.95		-91.81482	
29.01568	6041.947		-91.79598	
29.06967	6036.932		-91.78372	
29.12365	6031.904		-91.77766	
29.17764	6026.865		-91.77733	
29.23163	6021.811		-91.78223	
29.28562	6016.729		-91.79179	
29.3396	6011.612		-91.80537	
29.39359	6006.458		-91.8223	
29.44758	6001.269		-91.84188	
29.50156	5996.055		-91.86342	
29.55555	5990.826		-91.8863	
29.60954	5985.598		-91.90994	
29.66352	5980.382		-91.93378	
29.71751	5975.194		-91.95724	
29.7715	5970.054		-91.97971	
29.82549	5964.985		-92.00052	
29.87947	5960		-92.019	
29.93346	5955.095		-92.03445	
29.98745	5950.252		-92.04613	
30.04144	5945.452		-92.05332	
30.09542	5940.675		-92.05534	
30.14941	5935.91		-92.0516	
30.2034	5931.149		-92.04159	
30.25738	5926.392		-92.02502	
30.31137	5921.635		-92.00176	
30.36536	5916.871		-91.97192	
30.41935	5912.083		-91.93576	
30.47333	5907.254		-91.89378	
30.52732	5902.361		-91.84664	
30.58131	5897.386		-91.79514	
30.63529	5892.32		-91.74022	
30.68928	5887.172		-91.68286	
30.74327	5881.963		-91.62411	
30.79725	5876.719		-91.56496	
30.85124	5871.467		-91.5064	
30.90523	5866.231		-91.44929	
30.95922	5861.026		-91.39436	
31.0132	5855.858		-91.34222	
31.06719	5850.731		-91.29333	
31.12118	5845.647		-91.24804	
31.17517	5840.608		-91.20655	
31.22915	5835.607		-91.16899	
31.28314	5830.629		-91.13536	
31.33713	5825.663		-91.10552	
31.39111	5820.695		-91.07922	
31.4451	5815.712		-91.05616	
31.49909	5810.717		-91.03599	
31.55307	5805.724		-91.01842	
31.60706	5800.744		-91.00321	
31.66105	5795.788		-90.99014	
31.71504	5790.861		-90.97903	
31.76902	5785.977		-90.9697	
31.82301	5781.153		-90.96195	
31.877	5776.404		-90.95561	
31.93098	5771.744		-90.95049	
31.98497	5767.182		-90.94638	
32.03896	5762.705		-90.94302	
32.09295	5758.279		-90.94011	
32.14693	5753.858		-90.93731	
32.20092	5749.406		-90.93429	
32.25491	5744.896		-90.93074	
32.3089	5740.31		-90.92645	
32.36288	5735.644		-90.92128	
32.41687	5730.905		-90.91524	
32.47086	5726.114		-90.90841	
32.52484	5721.282		-90.90105	
32.57883	5716.419		-90.89352	
32.63282	5711.534		-90.88631	
32.68681	5706.637		-90.88004	
32.74079	5701.736		-90.87535	
32.79478	5696.831		-90.8729	
32.84877	5691.908		-90.8732	
32.90275	5686.958		-90.87663	
32.95674	5681.963		-90.88338	
33.01073	5676.91		-90.8935	
33.06471	5671.794		-90.90681	
33.1187	5666.628		-90.923	
33.17269	5661.429		-90.9416	
33.22668	5656.206		-90.96207	
33.28066	5650.973		-90.98373	
33.33465	5645.746		-91.00586	
33.38864	5640.535		-91.02769	
33.44262	5635.363		-91.04842	
33.49661	5630.25		-91.06725	
33.5506	5625.21		-91.08343	
33.60458	5620.249		-91.09627	
33.65857	5615.361		-91.10516	
33.71256	5610.533		-91.10952	
33.76655	5605.74		-91.1089	
33.82053	5600.956		-91.10291	
33.87452	5596.159		-91.09121	
33.92851	5591.339		-91.07358	
33.98249	5586.493		-91.04979	
34.03648	5581.621		-91.01968	
34.09047	5576.724		-90.98309	
34.14445	5571.807		-90.93987	
34.19844	5566.877		-90.88995	
34.25243	5561.948		-90.83324	
34.30642	5557.026		-90.76981	
34.3604	5552.113		-90.69981	
34.41439	5547.199		-90.62346	
34.46838	5542.271		-90.54105	
34.52237	5537.316		-90.45291	
34.57635	5532.333		-90.35942	
34.63034	5527.326		-90.26102	
34.68433	5522.302		-90.15819	
34.73832	5517.267		-90.05147	
34.7923	5512.223		-89.94142	
34.84629	5507.173		-89.8286	
34.90028	5502.12		-89.71352	
34.95426	5497.068		-89.5967	
35.00825	5492.021		-89.47858	
35.06224	5486.985		-89.3596	
35.11623	5481.972		-89.24008	
35.17021	5476.995		-89.12038	
35.2242	5472.057		-89.00079	
35.27819	5467.161		-88.88159	
35.33217	5462.31		-88.76302	
35.38616	5457.516		-88.64518	
35.44015	5452.795		-88.52816	
35.49413	5448.147		-88.41197	
35.54812	5443.562		-88.2966	
35.60211	5439.027		-88.18204	
35.6561	5434.524		-88.06831	
35.71008	5430.04		-87.95553	
35.76407	5425.551		-87.84385	
35.81806	5421.048		-87.73347	
35.87204	5416.533		-87.62469	
35.92603	5412.006		-87.51778	
35.98002	5407.468		-87.41312	
36.034	5402.919		-87.31099	
36.08799	5398.351		-87.21172	
36.14198	5393.754		-87.11558	
36.19597	5389.132		-87.0228	
36.24995	5384.49		-86.9336	
36.30394	5379.831		-86.84817	
36.35793	5375.146		-86.76661	
36.41191	5370.428		-86.68903	
36.4659	5365.68		-86.61539	
36.51989	5360.909		-86.54562	
36.57388	5356.12		-86.47956	
36.62786	5351.329		-86.41695	
36.68185	5346.548		-86.35757	
36.73584	5341.788		-86.30112	
36.78983	5337.051		-86.24739	
36.84381	5332.333		-86.19615	
36.8978	5327.625		-86.14719	
36.95179	5322.929		-86.10035	
37.00578	5318.255		-86.05549	
37.05976	5313.628		-86.01254	
37.11375	5309.062		-85.97142	
37.16774	5304.557		-85.93214	
37.22172	5300.098		-85.89466	
37.27571	5295.669		-85.859	
37.3297	5291.259		-85.8251	
37.38369	5286.864		-85.79291	
37.43767	5282.472		-85.76231	
37.49166	5278.07		-85.7332	
37.54565	5273.645		-85.70541	
37.59963	5269.19		-85.67883	
37.65362	5264.701		-85.65334	
37.70761	5260.172		-85.62885	
37.76159	5255.587		-85.60529	
37.81558	5250.937		-85.58263	
37.86957	5246.215		-85.56091	
37.92356	5241.429		-85.54025	
37.97754	5236.6		-85.52082	
38.03153	5231.747		-85.50283	
38.08552	5226.888		-85.48653	
38.1395	5222.042		-85.47215	
38.19349	5217.223		-85.45991	
38.24748	5212.433		-85.44994	
38.30146	5207.655		-85.44231	
38.35545	5202.877		-85.43696	
38.40944	5198.092		-85.43368	
38.46343	5193.303		-85.43211	
38.51741	5188.509		-85.43178	
38.5714	5183.719		-85.43205	
38.62539	5178.947		-85.43221	
38.67937	5174.208		-85.43147	
38.73336	5169.522		-85.42905	
38.78735	5164.908		-85.42418	
38.84134	5160.37		-85.4161	
38.89532	5155.91		-85.40415	
38.94931	5151.524		-85.38776	
39.0033	5147.205		-85.36649	
39.05729	5142.934		-85.34002	
39.11127	5138.685		-85.30817	
39.16526	5134.428		-85.27093	
39.21925	5130.14		-85.22836	
39.27324	5125.799		-85.18064	
39.32722	5121.389		-85.12802	
39.38121	5116.901		-85.07079	
39.4352	5112.338		-85.00929	
39.48918	5107.708		-84.94396	
39.54317	5103.026		-84.87525	
39.59716	5098.325		-84.80371	
39.65114	5093.635		-84.72987	
39.70513	5088.982		-84.65427	
39.75912	5084.373		-84.57744	
39.81311	5079.798		-84.49992	
39.86709	5075.239		-84.42229	
39.92108	5070.669		-84.34511	
39.97507	5066.064		-84.26896	
40.02905	5061.409		-84.1944	
40.08304	5056.7		-84.12198	
40.13703	5051.939		-84.05219	
40.19101	5047.132		-83.98546	
40.245	5042.293		-83.92209	
40.29899	5037.447		-83.86231	
40.35298	5032.614		-83.80624	
40.40696	5027.811		-83.75389	
40.46095	5023.047		-83.70523	
40.51494	5018.332		-83.66007	
40.56892	5013.674		-83.61816	
40.62291	5009.065		-83.57905	
40.6769	5004.507		-83.54222	
40.73088	4999.998		-83.50703	
40.78487	4995.535		-83.47273	
40.83886	4991.104		-83.43853	
40.89285	4986.695		-83.40365	
40.94683	4982.305		-83.36742	
41.00082	4977.936		-83.32928	
41.05481	4973.593		-83.28884	
41.1088	4969.285		-83.2459	
41.16278	4965.02		-83.20046	
41.21677	4960.803		-83.15271	
41.27076	4956.627		-83.10297	
41.32475	4952.482		-83.05173	
41.37873	4948.35		-82.99955	
41.43272	4944.209		-82.94704	
41.48671	4940.034		-82.89488	
41.54069	4935.807		-82.84378	
41.59468	4931.518		-82.7944	
41.64867	4927.166		-82.74733	
41.70266	4922.746		-82.70314	
41.75664	4918.258		-82.66229	
41.81063	4913.708		-82.62518	
41.86462	4909.114		-82.59209	
41.9186	4904.5		-82.56322	
41.97259	4899.893		-82.53873	
42.02658	4895.309		-82.51858	
42.08056	4890.755		-82.50272	
42.13455	4886.221		-82.49098	
42.18854	4881.696		-82.48313	
42.24253	4877.168		-82.47884	
42.29651	4872.628		-82.47768	
42.3505	4868.07		-82.47918	
42.40449	4863.493		-82.4828	
42.45847	4858.904		-82.48793	
42.51246	4854.316		-82.49398	
42.56645	4849.734		-82.50027	
42.62043	4845.163		-82.50616	
42.67442	4840.612		-82.51098	
42.72841	4836.102		-82.51403	
42.7824	4831.651		-82.51464	
42.83638	4827.277		-82.51217	
42.89037	4822.98		-82.50599	
42.94436	4818.749		-82.49554	
42.99834	4814.564		-82.48028	
43.05233	4810.403		-82.4598	
43.10632	4806.249		-82.43378	
43.16031	4802.082		-82.40202	
43.21429	4797.878		-82.36444	
43.26828	4793.621		-82.32114	
43.32227	4789.303		-82.27238	
43.37626	4784.921		-82.21857	
43.43024	4780.472		-82.16019	
43.48423	4775.956		-82.09787	
43.53822	4771.379		-82.03233	
43.59221	4766.753		-81.96429	
43.64619	4762.088		-81.89452	
43.70018	4757.393		-81.82368	
43.75417	4752.674		-81.75243	
43.80815	4747.936		-81.6813	
43.86214	4743.186		-81.6107	
43.91613	4738.429		-81.54092	
43.97011	4733.681		-81.47208	
44.0241	4728.949		-81.40417	
44.07809	4724.236		-81.33701	
44.13208	4719.546		-81.27027	
44.18606	4714.89		-81.20359	
44.24005	4710.275		-81.13647	
44.29404	4705.703		-81.06843	
44.34802	4701.174		-80.99897	
44.40201	4696.691		-80.9276	
44.456	4692.257		-80.85388	
44.50998	4687.881		-80.77738	
44.56397	4683.572		-80.69775	
44.61796	4679.344		-80.61471	
44.67195	4675.198		-80.52805	
44.72593	4671.123		-80.43772	
44.77992	4667.104		-80.3437	
44.83391	4663.126		-80.24612	
44.88789	4659.176		-80.14517	
44.94188	4655.245		-80.0411	
44.99587	4651.32		-79.93423	
45.04985	4647.396		-79.82491	
45.10384	4643.465		-79.71355	
45.15783	4639.506		-79.60064	
45.21182	4635.487		-79.48669	
45.2658	4631.388		-79.37233	
45.31979	4627.196		-79.25826	
45.37378	4622.91		-79.14525	
45.42776	4618.538		-79.03411	
45.48175	4614.103		-78.92567	
45.53574	4609.629		-78.82084	
45.58973	4605.135		-78.72054	
45.64371	4600.639		-78.62569	
45.6977	4596.16		-78.53721	
45.75169	4591.708		-78.45596	
45.80568	4587.292		-78.38271	
45.85966	4582.904		-78.31815	
45.91365	4578.538		-78.26281	
45.96764	4574.193		-78.21701	
46.02163	4569.869		-78.18085	
46.07561	4565.559		-78.15417	
46.1296	4561.26		-78.13658	
46.18359	4556.977		-78.12747	
46.23757	4552.714		-78.12605	
46.29156	4548.476		-78.13142	
46.34555	4544.271		-78.14256	
46.39953	4540.099		-78.15842	
46.45352	4535.956		-78.17796	
46.50751	4531.844		-78.20016	
46.5615	4527.771		-78.22405	
46.61548	4523.75		-78.24875	
46.66947	4519.792		-78.27347	
46.72346	4515.896		-78.29753	
46.77744	4512.046		-78.32031	
46.83143	4508.212		-78.34124	
46.88542	4504.363		-78.35979	
46.9394	4500.467		-78.37549	
46.99339	4496.507		-78.38794	
47.04738	4492.478		-78.39685	
47.10137	4488.381		-78.40202	
47.15535	4484.224		-78.40334	
47.20934	4480.018		-78.40079	
47.26333	4475.779		-78.39445	
47.31731	4471.521		-78.38446	
47.3713	4467.248		-78.37103	
47.42529	4462.967		-78.35441	
47.47927	4458.679		-78.33491	
47.53326	4454.381		-78.31284	
47.58725	4450.069		-78.28854	
47.64124	4445.734		-78.26233	
47.69522	4441.371		-78.23449	
47.74921	4436.979		-78.20526	
47.8032	4432.555		-78.17487	
47.85719	4428.094		-78.14347	
47.91117	4423.599		-78.11118	
47.96516	4419.081		-78.07803	
48.01915	4414.556		-78.04395	
48.07314	4410.035		-78.00877	
48.12712	4405.535		-77.97231	
48.18111	4401.066		-77.93429	
48.2351	4396.644		-77.89445	
48.28908	4392.275		-77.85249	
48.34307	4387.958		-77.80807	
48.39706	4383.683		-77.76085	
48.45105	4379.44		-77.71041	
48.50503	4375.219		-77.65641	
48.55902	4371.014		-77.59844	
48.61301	4366.826		-77.53619	
48.66699	4362.659		-77.46941	
48.72098	4358.511		-77.39793	
48.77497	4354.382		-77.32169	
48.82895	4350.266		-77.24063	
48.88294	4346.159		-77.15482	
48.93693	4342.057		-77.06441	
48.99092	4337.958		-76.96962	
49.0449	4333.85		-76.87085	
49.09889	4329.726		-76.76857	
49.15288	4325.575		-76.66336	
49.20686	4321.387		-76.55589	
49.26085	4317.154		-76.44678	
49.31484	4312.889		-76.33674	
49.36882	4308.613		-76.22637	
49.42281	4304.36		-76.1163	
49.4768	4300.157		-76.00716	
49.53079	4296.018		-75.89952	
49.58477	4291.949		-75.79395	
49.63876	4287.948		-75.69096	
49.69275	4284.003		-75.59095	
49.74673	4280.098		-75.49427	
49.80072	4276.206		-75.40113	
49.85471	4272.308		-75.31164	
49.9087	4268.39		-75.22578	
49.96268	4264.442		-75.14339	
50.01667	4260.462		-75.06429	
50.07066	4256.45		-74.98821	
50.12465	4252.413		-74.91487	
50.17863	4248.37		-74.84402	
50.23262	4244.34		-74.77541	
50.28661	4240.343		-74.70888	
50.3406	4236.388		-74.64424	
50.39458	4232.48		-74.58136	
50.44857	4228.62		-74.52011	
50.50256	4224.801		-74.46036	
50.55654	4221.02		-74.40202	
50.61053	4217.266		-74.34496	
50.66452	4213.52		-74.28909	
50.7185	4209.753		-74.2343	
50.77249	4205.932		-74.18043	
50.82648	4202.038		-74.12736	
50.88047	4198.062		-74.07494	
50.93445	4194.011		-74.02309	
50.98844	4189.907		-73.97173	
51.04243	4185.784		-73.92087	
51.09641	4181.682		-73.87061	
51.1504	4177.627		-73.82111	
51.20439	4173.62		-73.77261	
51.25837	4169.644		-73.72533	
51.31236	4165.681		-73.67948	
51.36635	4161.72		-73.63531	
51.42034	4157.745		-73.59302	
51.47432	4153.742		-73.5528	
51.52831	4149.698		-73.51482	
51.5823	4145.608		-73.4792	
51.63628	4141.47		-73.44608	
51.69027	4137.287		-73.4155	
51.74426	4133.066		-73.38742	
51.79824	4128.824		-73.36179	
51.85223	4124.579		-73.33852	
51.90622	4120.35		-73.31748	
51.96021	4116.156		-73.29852	
52.01419	4112.011		-73.28143	
52.06818	4107.924		-73.26592	
52.12217	4103.896		-73.25168	
52.17616	4099.923		-73.23831	
52.23014	4095.993		-73.2254	
52.28413	4092.098		-73.21249	
52.33812	4088.224		-73.19913	
52.39211	4084.362		-73.1849	
52.44609	4080.505		-73.16941	
52.50008	4076.656		-73.15237	
52.55407	4072.822		-73.13354	
52.60805	4069.013		-73.11275	
52.66204	4065.231		-73.08994	
52.71603	4061.479		-73.065	
52.77002	4057.746		-73.03794	
52.824	4054.024		-73.00877	
52.87799	4050.295		-72.97756	
52.93198	4046.546		-72.9444	
52.98596	4042.761		-72.90942	
53.03995	4038.936		-72.87284	
53.09394	4035.072		-72.83485	
53.14792	4031.168		-72.79572	
53.20191	4027.224		-72.75567	
53.2559	4023.252		-72.71493	
53.30989	4019.274		-72.67368	
53.36387	4015.303		-72.63213	
53.41786	4011.345		-72.59048	
53.47185	4007.407		-72.54897	
53.52583	4003.495		-72.50782	
53.57982	3999.613		-72.46731	
53.63381	3995.755		-72.42768	
53.6878	3991.903		-72.38914	
53.74178	3988.041		-72.35179	
53.79577	3984.159		-72.31571	
53.84976	3980.245		-72.28096	
53.90374	3976.294		-72.24758	
53.95773	3972.308		-72.21561	
54.01172	3968.301		-72.18508	
54.0657	3964.288		-72.15594	
54.11969	3960.281		-72.1281	
54.17368	3956.285		-72.1014	
54.22767	3952.31		-72.07563	
54.28165	3948.361		-72.05053	
54.33564	3944.44		-72.02578	
54.38963	3940.538		-72.00107	
54.44361	3936.643		-71.97604	
54.4976	3932.746		-71.95038	
54.55159	3928.838		-71.92375	
54.60558	3924.916		-71.89584	
54.65956	3920.979		-71.86634	
54.71355	3917.03		-71.83497	
54.76754	3913.068		-71.80148	
54.82153	3909.096		-71.76572	
54.87551	3905.119		-71.72753	
54.9295	3901.144		-71.68688	
54.98349	3897.181		-71.64377	
55.03748	3893.241		-71.59824	
55.09146	3889.328		-71.55035	
55.14545	3885.444		-71.50014	
55.19944	3881.593		-71.44763	
55.25342	3877.782		-71.39281	
55.30741	3874.009		-71.33557	
55.3614	3870.263		-71.27586	
55.41538	3866.53		-71.21358	
55.46937	3862.798		-71.14866	
55.52336	3859.058		-71.08106	
55.57735	3855.301		-71.01078	
55.63133	3851.52		-70.93785	
55.68532	3847.713		-70.8623	
55.73931	3843.877		-70.78419	
55.79329	3840.017		-70.70361	
55.84728	3836.143		-70.62063	
55.90127	3832.268		-70.53533	
55.95525	3828.409		-70.44778	
56.00924	3824.572		-70.35802	
56.06323	3820.756		-70.26613	
56.11722	3816.95		-70.17212	
56.1712	3813.136		-70.07597	
56.22519	3809.315		-69.97758	
56.27918	3805.494		-69.87682	
56.33316	3801.69		-69.77354	
56.38715	3797.909		-69.66759	
56.44114	3794.157		-69.55882	
56.49512	3790.429		-69.44702	
56.54911	3786.714		-69.33204	
56.6031	3783.004		-69.21374	
56.65709	3779.293		-69.09199	
56.71107	3775.575		-68.96674	
56.76506	3771.853		-68.83801	
56.81905	3768.127		-68.7059	
56.87304	3764.405		-68.57063	
56.92702	3760.689		-68.43243	
56.98101	3756.981		-68.29169	
57.035	3753.272		-68.14886	
57.08899	3749.558		-68.00442	
57.14297	3745.833		-67.85892	
57.19696	3742.092		-67.71288	
57.25095	3738.336		-67.56687	
57.30493	3734.567		-67.42141	
57.35892	3730.792		-67.27699	
57.41291	3727.019		-67.13409	
57.4669	3723.259		-66.99308	
57.52088	3719.525		-66.85434	
57.57487	3715.822		-66.71812	
57.62886	3712.15		-66.58463	
57.68284	3708.506		-66.45409	
57.73683	3704.883		-66.32664	
57.79082	3701.272		-66.20246	
57.8448	3697.668		-66.08169	
57.89879	3694.072		-65.96444	
57.95278	3690.488		-65.85082	
58.00677	3686.92		-65.74092	
58.06075	3683.375		-65.63483	
58.11474	3679.854		-65.5326	
58.16873	3676.357		-65.43422	
58.22271	3672.885		-65.33966	
58.2767	3669.428		-65.2488	
58.33069	3665.983		-65.16148	
58.38467	3662.547		-65.07751	
58.43866	3659.125		-64.99663	
58.49265	3655.721		-64.91859	
58.54664	3652.337		-64.84306	
58.60062	3648.969		-64.76971	
58.65461	3645.615		-64.69817	
58.7086	3642.275		-64.62806	
58.76258	3638.95		-64.55909	
58.81657	3635.641		-64.49096	
58.87056	3632.348		-64.42342	
58.92455	3629.068		-64.35631	
58.97853	3625.795		-64.28948	
59.03252	3622.531		-64.22289	
59.08651	3619.284		-64.15653	
59.1405	3616.054		-64.09044	
59.19448	3612.832		-64.02473	
59.24847	3609.613		-63.95957	
59.30246	3606.392		-63.89511	
59.35645	3603.157		-63.83153	
59.41043	3599.899		-63.76898	
59.46442	3596.606		-63.70757	
59.51841	3593.265		-63.64735	
59.57239	3589.865		-63.58833	
59.62638	3586.4		-63.53043	
59.68037	3582.871		-63.47352	
59.73435	3579.284		-63.4174	
59.78834	3575.65		-63.36181	
59.84233	3571.979		-63.30642	
59.89632	3568.284		-63.25084	
59.9503	3564.576		-63.19467	
60.00429	3560.864		-63.1374	
60.05828	3557.158		-63.07847	
60.11226	3553.468		-63.01728	
60.16625	3549.801		-62.9531	
60.22024	3546.163		-62.88519	
60.27422	3542.559		-62.81268	
60.32821	3538.986		-62.73468	
60.3822	3535.442		-62.65024	
60.43619	3531.928		-62.5584	
60.49017	3528.447		-62.45819	
60.54416	3524.998		-62.34866	
60.59815	3521.577		-62.22887	
60.65213	3518.177		-62.09795	
60.70612	3514.792		-61.95506	
60.76011	3511.426		-61.79947	
60.81409	3508.089		-61.63053	
60.86808	3504.791		-61.44769	
60.92207	3501.528		-61.25055	
60.97606	3498.292		-61.03878	
61.03004	3495.068		-60.81228	
61.08403	3491.843		-60.57092	
61.13802	3488.603		-60.31474	
61.19201	3485.33		-60.04391	
61.24599	3482.016		-59.75866	
61.29998	3478.665		-59.45945	
61.35397	3475.288		-59.14669	
61.40796	3471.898		-58.82095	
61.46194	3468.505		-58.4829	
61.51593	3465.109		-58.13317	
61.56992	3461.718		-57.7726	
61.6239	3458.342		-57.40195	
61.67789	3454.995		-57.02201	
61.73188	3451.685		-56.63363	
61.78587	3448.414		-56.23751	
61.83985	3445.18		-55.83445	
61.89384	3441.983		-55.42512	
61.94783	3438.825		-55.0101	
62.00181	3435.709		-54.58998	
62.0558	3432.629		-54.16515	
62.10979	3429.582		-53.73601	
62.16377	3426.562		-53.30273	
62.21776	3423.57		-52.86536	
62.27175	3420.609		-52.42392	
62.32574	3417.678		-51.97819	
62.37972	3414.773		-51.52794	
62.43371	3411.891		-51.0728	
62.4877	3409.032		-50.61229	
62.54168	3406.204		-50.14599	
62.59567	3403.413		-49.67332	
62.64966	3400.664		-49.19379	
62.70364	3397.962		-48.70674	
62.75763	3395.319		-48.21152	
62.81162	3392.746		-47.70752	
62.86561	3390.252		-47.19399	
62.91959	3387.839		-46.6703	
62.97358	3385.504		-46.13574	
63.02757	3383.237		-45.58958	
63.08155	3381.028		-45.03121	
63.13554	3378.861		-44.45985	
63.18953	3376.72		-43.87485	
63.24352	3374.591		-43.27546	
63.2975	3372.459		-42.66096	
63.35149	3370.319		-42.03075	
63.40548	3368.173		-41.38406	
63.45947	3366.018		-40.7203	
63.51345	3363.858		-40.03875	
63.56744	3361.695		-39.33863	
63.62143	3359.539		-38.61933	
63.67542	3357.398		-37.88002	
63.7294	3355.281		-37.12005	
63.78339	3353.186		-36.33858	
63.83738	3351.104		-35.53474	
63.89136	3349.036		-34.70774	
63.94535	3346.979		-33.85647	
63.99934	3344.926		-32.97997	
64.05332	3342.871		-32.07694	
64.10731	3340.805		-31.14606	
64.1613	3338.72		-30.18578	
64.21529	3336.619		-29.19486	
64.26927	3334.516		-28.17157	
64.32326	3332.439		-27.11428	
64.37724	3330.413		-26.02131	
64.43124	3328.462		-24.89079	
64.48522	3326.599		-23.72138	
64.53921	3324.837		-22.51124	
64.59319	3323.177		-21.25871	
64.64718	3321.611		-19.96215	
64.70117	3320.127		-18.61973	
64.75516	3318.721		-17.23022	
64.80914	3317.389		-15.79185	
64.86313	3316.128		-14.30303	
64.91711	3314.933		-12.76219	
64.97111	3313.797		-11.16755	
65.02509	3312.715		-9.518061	
65.07908	3311.68		-7.812043	
65.13306	3310.688		-6.048118	
65.18705	3309.747		-4.224979	
65.24104	3308.87		-2.341138	
65.29503	3308.074		-0.396031	
65.34901	3307.373		1.611618	
65.403	3306.782		3.682742	
65.45699	3306.311		5.81825	
65.51098	3305.966		8.019356	
65.56496	3305.745		10.28637	
65.61895	3305.645		12.62058	
65.67294	3305.664		15.023	
65.72692	3305.809		17.49466	
65.78091	3306.084		20.03701	
65.8349	3306.485		22.65042	
65.88889	3307.013		25.33639	
65.94287	3307.669		28.09614	
65.99686	3308.461		30.93096	
66.05085	3309.405		33.84263	
66.10484	3310.517		36.83178	
66.15882	3311.811		39.90031	
66.21281	3313.295		43.04981	
66.26679	3314.975		46.28193	
66.32079	3316.854		49.59887	
66.37477	3318.932		53.00155	
66.42876	3321.205		56.49233	
66.48274	3323.677		60.07318	
66.53673	3326.352		63.74617	
66.59072	3329.239		67.51395	
66.64471	3332.341		71.37768	
66.69869	3335.656		75.3401	
66.75268	3339.175		79.40352	
66.80666	3342.896		83.57026	
66.86066	3346.815		87.84331	
66.91464	3350.932		92.22392	
66.96863	3355.249		96.71519	
67.02261	3359.772		101.3197	
67.0766	3364.503		106.04	
67.13059	3369.442		110.8794	
67.18458	3374.585		115.839	
67.23856	3379.942		120.9222	
67.29255	3385.519		126.1313	
67.34653	3391.333		131.4688	
67.40053	3397.398		136.9379	
67.45451	3403.732		142.5394	
67.5085	3410.351		148.2763	
67.56248	3417.263		154.151	
67.61647	3424.463		160.1658	
67.67046	3431.951		166.3239	
67.72445	3439.727		172.6259	
67.77843	3447.791		179.0747	
67.83242	3456.141		185.6726	
67.88641	3464.778		192.4213	
67.9404	3473.708		199.3238	
67.99438	3482.93		206.3794	
68.04837	3492.463		213.5905	
68.10236	3502.327		220.958	
68.15634	3512.556		228.4822	
68.21033	3523.183		236.1643	
68.26432	3534.231		244.0016	
68.31831	3545.716		251.994	
68.37229	3557.648		260.14	
68.42628	3570.031		268.4372	
68.48027	3582.865		276.884	
68.53426	3596.151		285.4745	
68.58824	3609.895		294.2059	
68.64223	3624.094		303.0736	
68.69621	3638.755		312.0724	
68.75021	3653.892		321.1978	
68.80419	3669.518		330.4413	
68.85818	3685.651		339.7975	
68.91216	3702.323		349.2593	
68.96615	3719.566		358.8193	
69.02014	3737.403		368.471	
69.07413	3755.839		378.2036	
69.12811	3774.895		388.01	
69.1821	3794.576		397.8813	
69.23608	3814.886		407.8084	
69.29008	3835.82		417.7835	
69.34406	3857.375		427.7939	
69.39805	3879.553		437.8311	
69.45203	3902.36		447.8848	
69.50602	3925.798		457.9446	
69.56001	3949.889		468.0008	
69.614	3974.647		478.0396	
69.66798	4000.1		488.0506	
69.72197	4026.262		498.022	
69.77596	4053.153		507.9414	
69.82995	4080.793		517.7974	
69.88393	4109.191		527.5739	
69.93792	4138.351		537.2585	
69.99191	4168.275		546.8372	
70.04589	4198.962		556.295	
70.09988	4230.418		565.618	
70.15387	4262.642		574.7881	
70.20786	4295.651		583.79	
70.26184	4329.451		592.6071	
70.31583	4364.039		601.2217	
70.36982	4399.404		609.6174	
70.42381	4435.517		617.7732	
70.47779	4472.352		625.6715	
70.53178	4509.874		633.2933	
70.58576	4548.031		640.619	
70.63976	4586.778		647.6304	
70.69374	4626.061		654.3058	
70.74773	4665.832		660.627	
70.80171	4706.024		666.575	
70.8557	4746.564		672.1315	
70.90969	4787.402		677.2792	
70.96368	4828.474		681.9995	
71.01766	4869.749		686.2772	
71.07165	4911.208		690.0969	
71.12563	4952.854		693.4449	
71.17963	4994.701		696.309	
71.23361	5036.742		698.6772	
71.2876	5078.989		700.5403	
71.34158	5121.456		701.8906	
71.39557	5164.143		702.7217	
71.44956	5207.046		703.0292	
71.50355	5250.143		702.8104	
71.55753	5293.433		702.0642	
71.61152	5336.912		700.7917	
71.6655	5380.566		698.9954	
71.7195	5424.376		696.6789	
71.77348	5468.306		693.8488	
71.82747	5512.342		690.512	
71.88145	5556.449		686.6772	
71.93544	5600.595		682.3542	
71.98943	5644.756		677.5536	
72.04342	5688.87		672.2892	
72.0974	5732.876		666.5737	
72.15139	5776.703		660.4216	
72.20538	5820.264		653.848	
72.25937	5863.463		646.8679	
72.31335	5906.197		639.4998	
72.36734	5948.368		631.7598	
72.42133	5989.873		623.6652	
72.47531	6030.606		615.2336	
72.5293	6070.477		606.4816	
72.58329	6109.371		597.4296	
72.63728	6147.214		588.0942	
72.69126	6183.934		578.4931	
72.74525	6219.487		568.644	
72.79924	6253.832		558.5629	
72.85323	6286.934		548.27	
72.90721	6318.785		537.7809	
72.9612	6349.385		527.1127	
73.01518	6378.739		516.2822	
73.06918	6406.874		505.3047	
73.12316	6433.803		494.2	
73.17715	6459.56		482.9831	
73.23113	6484.167		471.6709	
73.28512	6507.657		460.2801	
73.33911	6530.074		448.8258	
73.3931	6551.456		437.3286	
73.44708	6571.839		425.8037	
73.50107	6591.259		414.2686	
73.55505	6609.751		402.7404	
73.60905	6627.351		391.235	
73.66303	6644.093		379.773	
73.71702	6660.036		368.37	
73.771	6675.242		357.0431	
73.82499	6689.756		345.8094	
73.87898	6703.623		334.6839	
73.93297	6716.896		323.6858	
73.98695	6729.621		312.8294	
74.04094	6741.832		302.1298	
74.09492	6753.562		291.6015	
74.14892	6764.838		281.2568	
74.2029	6775.681		271.1116	
74.25689	6786.117		261.1766	
74.31087	6796.162		251.4631	
74.36486	6805.817		241.9812	
74.41885	6815.084		232.7389	
74.47284	6823.968		223.7468	
74.52682	6832.494		215.0106	
74.58081	6840.703		206.5359	
74.6348	6848.637		198.3275	
74.68879	6856.338		190.3873	
74.74277	6863.841		182.7197	
74.79676	6871.169		175.3243	
74.85075	6878.324		168.2007	
74.90473	6885.292		161.3472	
74.95872	6892.072		154.7598	
75.01271	6898.657		148.4363	
75.0667	6905.05		142.3706	
75.12068	6911.247		136.5564	
75.17467	6917.243		130.9867	
75.22866	6923.02		125.6527	
75.28265	6928.576		120.5474	
75.33663	6933.915		115.6608	
75.39062	6939.048		110.9832	
75.4446	6943.982		106.5046	
75.4986	6948.727		102.2142	
75.55258	6953.277		98.10268	
75.60657	6957.632		94.159	
75.66055	6961.796		90.37276	
75.71454	6965.774		86.73374	
75.76853	6969.549		83.23148	
75.82252	6973.101		79.85724	
75.8765	6976.426		76.6011	
75.93049	6979.522		73.45403	
75.98447	6982.391		70.40742	
76.03847	6985.03		67.45273	
76.09245	6987.45		64.58317	
76.14644	6989.672		61.79127	
76.20042	6991.729		59.07059	
76.25441	6993.653		56.41532	
76.3084	6995.473		53.81993	
76.36239	6997.213		51.28063	
76.41637	6998.881		48.79315	
76.47036	7000.479		46.35423	
76.52435	7002.005		43.96117	
76.57834	7003.46		41.61161	
76.63232	7004.84		39.30473	
76.68631	7006.151		37.03929	
76.7403	7007.418		34.81492	
76.79428	7008.66		32.63172	
76.84827	7009.889		30.48982	
76.90226	7011.114		28.39062	
76.95625	7012.341		26.33472	
77.01023	7013.582		24.32321	
77.06422	7014.849		22.35715	
77.11821	7016.145		20.4373	
77.1722	7017.471		18.56512	
77.22618	7018.828		16.74109	
77.28017	7020.216		14.96574	
77.33415	7021.626		13.23933	
77.38815	7023.037		11.56165	
77.44213	7024.413		9.932889	
77.49612	7025.715		8.352214	
77.5501	7026.9		6.818789	
77.60409	7027.938		5.331561	
77.65808	7028.812		3.88906	
77.71207	7029.509		2.490245	
77.76605	7030.016		1.133273	
77.82004	7030.326		-0.1836347	
77.87402	7030.441		-1.462413	
77.92802	7030.367		-2.705241	
77.982	7030.1		-3.913832	
78.03599	7029.628		-5.09041	
78.08997	7028.955		-6.236995	
78.14396	7028.087		-7.355491	
78.19795	7027.027		-8.447848	
78.25194	7025.778		-9.515361	
78.30592	7024.341		-10.55958	
78.35991	7022.716		-11.58161	
78.4139	7020.902		-12.58239	
78.46789	7018.895		-13.56212	
78.52187	7016.711		-14.52108	
78.57586	7014.384		-15.45905	
78.62984	7011.946		-16.37552	
78.68384	7009.442		-17.26978	
78.73782	7006.936		-18.1404	
78.79181	7004.498		-18.98606	
78.84579	7002.192		-19.80502	
78.89978	7000.058		-20.59532	
78.95377	6998.117		-21.35497	
79.00776	6996.38		-22.08158	
79.06174	6994.83		-22.77305	
79.11573	6993.433		-23.42728	
79.16972	6992.146		-24.04231	
79.22371	6990.936		-24.61646	
79.27769	6989.777		-25.14809	
79.33168	6988.649		-25.63612	
79.38567	6987.53		-26.0797	
79.43965	6986.404		-26.47828	
79.49364	6985.252		-26.83171	
79.54763	6984.057		-27.14001	
79.60162	6982.815		-27.40368	
79.6556	6981.531		-27.62349	
79.70959	6980.197		-27.80052	
79.76358	6978.805		-27.93616	
79.81757	6977.338		-28.03198	
79.87155	6975.789		-28.08977	
79.92554	6974.148		-28.11146	
79.97952	6972.41		-28.09907	
80.03352	6970.568		-28.05467	
80.0875	6968.633		-27.98041	
80.14149	6966.624		-27.87843	
80.19547	6964.566		-27.75091	
80.24946	6962.487		-27.6	
80.30345	6960.414		-27.42774	
80.35744	6958.377		-27.23612	
80.41142	6956.401		-27.02691	
80.46541	6954.51		-26.80167	
80.51939	6952.717		-26.56176	
80.57339	6951.011		-26.30822	
80.62737	6949.374		-26.04205	
80.68136	6947.791		-25.76391	
80.73534	6946.25		-25.47432	
80.78933	6944.743		-25.17357	
80.84332	6943.262		-24.86178	
80.89731	6941.812		-24.539	
80.95129	6940.414		-24.2051	
81.00528	6939.088		-23.85996	
81.05927	6937.843		-23.50351	
81.11326	6936.678		-23.13573	
81.16724	6935.577		-22.75694	
81.22123	6934.517		-22.3675	
81.27522	6933.481		-21.96813	
81.3292	6932.463		-21.55987	
81.38319	6931.457		-21.14403	
81.43718	6930.45		-20.72243	
81.49117	6929.423		-20.29708	
81.54515	6928.357		-19.87036	
81.59914	6927.248		-19.44496	
81.65313	6926.099		-19.0238	
81.70712	6924.918		-18.61018	
81.7611	6923.717		-18.20739	
81.81509	6922.515		-17.8189	
81.86907	6921.326		-17.44821	
81.92307	6920.159		-17.09876	
81.97705	6919.016		-16.77411	
82.03104	6917.902		-16.47749	
82.08502	6916.833		-16.21207	
82.13901	6915.821		-15.98078	
82.193	6914.874		-15.78635	
82.24699	6913.99		-15.63127	
82.30097	6913.156		-15.51769	
82.35496	6912.36		-15.44744	
82.40894	6911.6		-15.42206	
82.46294	6910.867		-15.44272	
82.51692	6910.156		-15.5103	
82.57091	6909.468		-15.62525	
82.62489	6908.826		-15.78772	
82.67888	6908.255		-15.9975	
82.73287	6907.771		-16.25413	
82.78686	6907.375		-16.55672	
82.84084	6907.065		-16.90425	
82.89483	6906.848		-17.29545	
82.94881	6906.732		-17.72887	
83.00281	6906.724		-18.203	
83.05679	6906.836		-18.71601	
83.11078	6907.073		-19.26616	
83.16476	6907.426		-19.85165	
83.21875	6907.858		-20.4707	
83.27274	6908.327		-21.12177	
83.32673	6908.786		-21.80317	
83.38071	6909.187		-22.51374	
83.4347	6909.489		-23.25252	
83.48869	6909.664		-24.01884	
83.54268	6909.68		-24.81251	
83.59666	6909.526		-25.63337	
83.65065	6909.2		-26.48188	
83.70464	6908.704		-27.35876	
83.75862	6908.049		-28.26497	
83.81261	6907.236		-29.20186	
83.8666	6906.263		-30.17054	
83.92059	6905.113		-31.17261	
83.97457	6903.773		-32.20958	
84.02856	6902.222		-33.28292	
84.08255	6900.443		-34.39416	
84.13654	6898.419		-35.5442	
84.19052	6896.157		-36.73425	
84.24451	6893.669		-37.96505	
84.29849	6890.98		-39.23716	
84.35249	6888.126		-40.55104	
84.40647	6885.14		-41.90635	
84.46046	6882.038		-43.30304	
84.51444	6878.83		-44.74069	
84.56843	6875.533		-46.21857	
84.62242	6872.177		-47.73596	
84.67641	6868.792		-49.29116	
84.73039	6865.393		-50.88288	
84.78438	6861.998		-52.50937	
84.83836	6858.613		-54.16861	
84.89236	6855.238		-55.85864	
84.94634	6851.868		-57.57657	
85.00033	6848.496		-59.32001	
85.05431	6845.118		-61.08615	
85.1083	6841.744		-62.87193	
85.16229	6838.383		-64.67447	
85.21628	6835.05		-66.48994	
85.27026	6831.751		-68.3152	
85.32425	6828.471		-70.14681	
85.37823	6825.188		-71.98138	
85.43223	6821.872		-73.81582	
85.48621	6818.495		-75.64645	
85.5402	6815.023		-77.47051	
85.59418	6811.441		-79.28529	
85.64817	6807.741		-81.0883	
85.70216	6803.937		-82.87762	
85.75615	6800.037		-84.65082	
85.81013	6796.058		-86.40653	
85.86412	6792.006		-88.14336	
85.91811	6787.9		-89.86015	
85.9721	6783.735		-91.55616	
86.02608	6779.514		-93.23009	
86.08007	6775.209		-94.88152	
86.13406	6770.782		-96.50991	
86.18804	6766.177		-98.11484	
86.24203	6761.351		-99.69618	
86.29602	6756.263		-101.2532	
86.35001	6750.911		-102.7859	
86.40399	6745.307		-104.2939	
86.45798	6739.481		-105.7769	
86.51197	6733.455		-107.2348	
86.56596	6727.259		-108.6667	
86.61994	6720.908		-110.0724	
86.67393	6714.417		-111.4512	
86.72791	6707.8		-112.8026	
86.78191	6701.07		-114.1261	
86.83589	6694.224		-115.4203	
86.88988	6687.26		-116.6847	
86.94386	6680.162		-117.918	
86.99785	6672.906		-119.1192	
87.05184	6665.457		-120.287	
87.10583	6657.804		-121.4198	
87.15981	6649.958		-122.5162	
87.2138	6641.956		-123.5748	
87.26778	6633.844		-124.5942	
87.32178	6625.674		-125.5731	
87.37576	6617.494		-126.51	
87.42975	6609.341		-127.4039	
87.48373	6601.236		-128.2537	
87.53772	6593.185		-129.0587	
87.59171	6585.19		-129.8186	
87.6457	6577.254		-130.5329	
87.69968	6569.371		-131.2016	
87.75367	6561.527		-131.8252	
87.80766	6553.707		-132.4039	
87.86165	6545.886		-132.9385	
87.91563	6538.045		-133.4294	
87.96962	6530.175		-133.8778	
88.02361	6522.291		-134.2846	
88.07759	6514.407		-134.6511	
88.13158	6506.541		-134.979	
88.18557	6498.708		-135.2701	
88.23956	6490.931		-135.5266	
88.29354	6483.22		-135.7507	
88.34753	6475.583		-135.9452	
88.40152	6468.022		-136.1129	
88.45551	6460.552		-136.2564	
88.50949	6453.172		-136.379	
88.56348	6445.888		-136.4835	
88.61746	6438.685		-136.573	
88.67146	6431.549		-136.6503	
88.72544	6424.456		-136.7183	
88.77943	6417.386		-136.7796	
88.83341	6410.316		-136.8368	
88.8874	6403.242		-136.8922	
88.94139	6396.158		-136.948	
88.99538	6389.082		-137.0063	
89.04936	6382.021		-137.0689	
89.10335	6374.993		-137.1372	
89.15733	6367.998		-137.2125	
89.21133	6361.05		-137.296	
89.26531	6354.15		-137.3882	
89.3193	6347.303		-137.49	
89.37328	6340.492		-137.6015	
89.42727	6333.719		-137.7231	
89.48126	6326.967		-137.8547	
89.53525	6320.232		-137.9961	
89.58923	6313.483		-138.1473	
89.64322	6306.71		-138.3079	
89.6972	6299.885		-138.4775	
89.7512	6293.002		-138.6558	
89.80518	6286.052		-138.8421	
89.85917	6279.039		-139.0359	
89.91315	6271.958		-139.2364	
89.96714	6264.825		-139.4427	
90.02113	6257.639		-139.6538	
90.07512	6250.41		-139.8688	
90.1291	6243.128		-140.0865	
90.18309	6235.789		-140.3059	
90.23708	6228.373		-140.5258	
90.29107	6220.869		-140.7452	
90.34505	6213.263		-140.9628	
90.39904	6205.556		-141.1777	
90.45303	6197.745		-141.3886	
90.50701	6189.84		-141.5949	
90.561	6181.853		-141.7956	
90.61499	6173.8		-141.9899	
90.66898	6165.69		-142.177	
90.72296	6157.536		-142.3563	
90.77695	6149.34		-142.5271	
90.83094	6141.099		-142.6887	
90.88493	6132.801		-142.8406	
90.93891	6124.429		-142.9824	
90.9929	6115.979		-143.114	
91.04688	6107.455		-143.2352	
91.10088	6098.861		-143.3458	
91.15486	6090.215		-143.4455	
91.20885	6081.55		-143.5342	
91.26283	6072.909		-143.6116	
91.31682	6064.325		-143.6774	
91.37081	6055.82		-143.7315	
91.4248	6047.412		-143.7737	
91.47878	6039.104		-143.8038	
91.53277	6030.89		-143.8218	
91.58675	6022.765		-143.8277	
91.64075	6014.721		-143.8215	
91.69473	6006.756		-143.8031	
91.74872	5998.858		-143.7729	
91.8027	5991.01		-143.731	
91.85669	5983.205		-143.6777	
91.91068	5975.438		-143.6134	
91.96467	5967.708		-143.5387	
92.01865	5960.013		-143.4542	
92.07264	5952.362		-143.3606	
92.12663	5944.764		-143.2586	
92.18062	5937.229		-143.1491	
92.2346	5929.76		-143.0329	
92.28859	5922.356		-142.911	
92.34258	5915.004		-142.7844	
92.39656	5907.693		-142.6539	
92.45055	5900.398		-142.5947	
92.50454	5893.11		-142.547	
92.55853	5885.814		-142.5063	
92.61251	5878.505		-142.4685	
92.6665	5871.169		-142.4311	
92.72049	5863.813		-142.3927	
92.77448	5856.445		-142.3527	
92.82846	5849.1		-142.311	
92.88245	5841.786		-142.2677	
92.93643	5834.521		-142.2232	
92.99043	5827.292		-142.1779	
93.04441	5820.093		-142.1322	
93.0984	5812.893		-142.0864	
93.15238	5805.688		-142.0411	
93.20637	5798.468		-141.9964	
93.26036	5791.248		-141.9527	
93.31435	5784.021		-141.9103	
93.36833	5776.801		-141.8694	
93.42232	5769.57		-141.8304	
93.4763	5762.306		-141.7934	
93.5303	5754.969		-141.7585	
93.58428	5747.546		-141.726	
93.63827	5740.047		-141.696	
93.69225	5732.48		-141.6687	
93.74624	5724.843		-141.6441	
93.80023	5717.146		-141.6224	
93.85422	5709.385		-141.6036	
93.9082	5701.549		-141.5879	
93.96219	5693.62		-141.5753	
94.01617	5685.597		-141.5658	
94.07017	5677.35		-141.5595	
94.12415	5669.237		-141.5565	
94.17814	5661.216		-141.5566	
94.23212	5653.24		-141.5601	
94.28611	5645.284		-141.5667	
94.3401	5637.333		-141.5766	
94.39409	5629.384		-141.5897	
94.44807	5621.434		-141.6059	
94.50206	5613.484		-141.6252	
94.55605	5605.536		-141.6476	
94.61004	5597.589		-141.6731	
94.66402	5589.646		-141.7015	
94.71801	5581.708		-141.7328	
94.772	5573.775		-141.7669	
94.82598	5565.848		-141.8038	
94.87997	5557.929		-141.8433	
94.93396	5550.024		-141.8854	
94.98795	5542.136		-141.9301	
