T[Â°C]	350nm [counts / mm]	S.D.	First derivative	S.D. of first derivative
20.00119	3105.169		-44.88268	
20.05513	3102.689		-44.84183	
20.10908	3100.212		-44.80149	
20.16303	3097.737		-44.76167	
20.21698	3095.263		-44.7224	
20.27092	3092.788		-44.68369	
20.32487	3090.312		-44.64556	
20.37882	3087.834		-44.60801	
20.43277	3085.355		-44.57108	
20.48672	3082.873		-44.53476	
20.54066	3080.389		-44.49907	
20.59461	3077.903		-44.46402	
20.64856	3075.414		-44.42962	
20.70251	3072.924		-44.39588	
20.75645	3070.435		-44.36279	
20.8104	3067.95		-44.33037	
20.86435	3065.478		-44.2986	
20.9183	3063.03		-44.26749	
20.97224	3060.618		-44.23703	
21.02619	3058.181		-44.20722	
21.08014	3055.751		-44.17804	
21.13409	3053.331		-44.14946	
21.18803	3050.917		-44.12149	
21.24198	3048.505		-44.09409	
21.29593	3046.097		-44.06725	
21.34988	3043.695		-44.04093	
21.40383	3041.298		-44.0151	
21.45777	3038.907		-43.98974	
21.51172	3036.529		-43.9648	
21.56567	3034.175		-43.94026	
21.61962	3031.859		-43.91607	
21.67356	3029.59		-43.89219	
21.72751	3027.366		-43.86859	
21.78146	3025.176		-43.84522	
21.83541	3023.005		-43.82205	
21.88935	3020.838		-43.79903	
21.9433	3018.662		-43.77609	
21.99725	3016.469		-43.75319	
22.0512	3014.255		-43.73026	
22.10514	3012.012		-43.70724	
22.15909	3009.735		-43.68407	
22.21304	3007.426		-43.66071	
22.26699	3005.096		-43.63713	
22.32093	3002.76		-43.61339	
22.37488	3000.424		-43.58965	
22.42883	2998.094		-43.56625	
22.48278	2995.771		-43.5438	
22.53673	2993.454		-43.52322	
22.59067	2991.14		-43.50566	
22.64462	2988.825		-43.51513	
22.69857	2986.507		-43.526	
22.75252	2984.18		-43.53812	
22.80646	2981.838		-43.55132	
22.86041	2979.478		-43.56543	
22.91436	2977.097		-43.58023	
22.96831	2974.701		-43.59549	
23.02225	2972.294		-43.61094	
23.0762	2969.886		-43.62632	
23.13015	2967.486		-43.64135	
23.1841	2965.101		-43.65575	
23.23804	2962.739		-43.66926	
23.29199	2960.401		-43.68159	
23.34594	2958.085		-43.69251	
23.39989	2955.79		-43.70177	
23.45383	2953.506		-43.70916	
23.50778	2951.224		-43.71448	
23.56173	2948.94		-43.7176	
23.61568	2946.651		-43.71841	
23.66963	2944.348		-43.71688	
23.72357	2942.021		-43.713	
23.77752	2939.664		-43.70683	
23.83147	2937.273		-43.69848	
23.88542	2934.847		-43.68811	
23.93936	2932.39		-43.67595	
23.99331	2929.909		-43.66224	
24.04726	2927.416		-43.64727	
24.10121	2924.915		-43.63134	
24.15515	2922.407		-43.61477	
24.2091	2919.896		-43.59779	
24.26305	2917.383		-43.58065	
24.317	2914.874		-43.56354	
24.37094	2912.374		-43.54662	
24.42489	2909.883		-43.53002	
24.47884	2907.4		-43.51387	
24.53279	2904.925		-43.49827	
24.58673	2902.462		-43.48328	
24.64068	2900.017		-43.46893	
24.69463	2897.594		-43.45526	
24.74858	2895.19		-43.44228	
24.80253	2892.804		-43.43003	
24.85647	2890.436		-43.41851	
24.91042	2888.087		-43.40767	
24.96437	2885.761		-43.39744	
25.01832	2883.458		-43.3877	
25.07226	2881.179		-43.37829	
25.12621	2878.929		-43.36904	
25.18016	2876.709		-43.35972	
25.23411	2874.516		-43.35007	
25.28805	2872.339		-43.33982	
25.342	2870.168		-43.32864	
25.39595	2867.995		-43.31618	
25.4499	2865.817		-43.3021	
25.50385	2863.639		-43.28608	
25.55779	2861.464		-43.26782	
25.61174	2859.29		-43.24705	
25.66569	2857.112		-43.22354	
25.71964	2854.924		-43.19712	
25.77358	2852.722		-43.16772	
25.82753	2850.501		-43.13534	
25.88148	2848.253		-43.10012	
25.93543	2845.972		-43.06227	
25.98937	2843.662		-43.02211	
26.04332	2841.329		-42.98001	
26.09727	2838.979		-42.9364	
26.15122	2836.618		-42.89173	
26.20516	2834.253		-42.84647	
26.25911	2831.895		-42.80107	
26.31306	2829.552		-42.75595	
26.36701	2827.223		-42.71152	
26.42095	2824.906		-42.66814	
26.4749	2822.594		-42.62614	
26.52885	2820.28		-42.58584	
26.5828	2817.958		-42.54748	
26.63675	2815.622		-42.51126	
26.69069	2813.271		-42.47737	
26.74464	2810.904		-42.44593	
26.79859	2808.517		-42.41705	
26.85254	2806.107		-42.39083	
26.90648	2803.671		-42.36729	
26.96043	2801.212		-42.34641	
27.01438	2798.735		-42.32813	
27.06833	2796.248		-42.31234	
27.12227	2793.763		-42.2989	
27.17622	2791.289		-42.28762	
27.23017	2788.835		-42.27828	
27.28412	2786.401		-42.27061	
27.33806	2783.981		-42.26427	
27.39201	2781.576		-42.2589	
27.44596	2779.189		-42.25409	
27.49991	2776.828		-42.24945	
27.55385	2774.494		-42.24459	
27.6078	2772.193		-42.23916	
27.66175	2769.93		-42.23289	
27.7157	2767.707		-42.22556	
27.76965	2765.525		-42.21702	
27.82359	2763.382		-42.20716	
27.87754	2761.281		-42.19598	
27.93149	2759.226		-42.18353	
27.98544	2757.213		-42.16991	
28.03938	2755.232		-42.15532	
28.09333	2753.265		-42.13994	
28.14728	2751.297		-42.12397	
28.20123	2749.316		-42.1076	
28.25517	2747.312		-42.09102	
28.30912	2745.274		-42.07438	
28.36307	2743.191		-42.05779	
28.41702	2741.056		-42.04136	
28.47096	2738.869		-42.02515	
28.52491	2736.632		-42.00924	
28.57886	2734.355		-41.99371	
28.63281	2732.05		-41.97863	
28.68676	2729.729		-41.96407	
28.7407	2727.4		-41.95007	
28.79465	2725.071		-41.93671	
28.8486	2722.744		-41.92403	
28.90255	2720.421		-41.91207	
28.95649	2718.102		-41.90083	
29.01044	2715.78		-41.89032	
29.06439	2713.446		-41.88056	
29.11834	2711.095		-41.87151	
29.17228	2708.73		-41.86314	
29.22623	2706.357		-41.85536	
29.28018	2703.977		-41.84806	
29.33413	2701.595		-41.84102	
29.38807	2699.219		-41.83404	
29.44202	2696.86		-41.82684	
29.49597	2694.528		-41.81921	
29.54992	2692.231		-41.81094	
29.60386	2689.972		-41.80188	
29.65781	2687.749		-41.79194	
29.71176	2685.555		-41.78107	
29.76571	2683.378		-41.76928	
29.81966	2681.205		-41.75659	
29.8736	2679.022		-41.74302	
29.92755	2676.819		-41.72863	
29.9815	2674.587		-41.71355	
30.03545	2672.319		-41.69789	
30.08939	2670.012		-41.68177	
30.14334	2667.663		-41.66531	
30.19729	2665.272		-41.64861	
30.25124	2662.846		-41.63169	
30.30518	2660.397		-41.61457	
30.35913	2657.947		-41.59724	
30.41308	2655.511		-41.57962	
30.46703	2653.102		-41.56165	
30.52098	2650.724		-41.54322	
30.57492	2648.38		-41.52422	
30.62887	2646.072		-41.50453	
30.68282	2643.794		-41.48405	
30.73676	2641.545		-41.46273	
30.79071	2639.315		-41.4405	
30.84466	2637.103		-41.41736	
30.89861	2634.909		-41.39332	
30.95256	2632.735		-41.36845	
31.0065	2630.582		-41.34286	
31.06045	2628.447		-41.31669	
31.1144	2626.33		-41.2901	
31.16835	2624.229		-41.26324	
31.22229	2622.15		-41.23626	
31.27624	2620.095		-41.20929	
31.33019	2618.063		-41.1824	
31.38414	2616.047		-41.15567	
31.43808	2614.04		-41.1291	
31.49203	2612.038		-41.10271	
31.54598	2610.036		-41.07647	
31.59993	2608.025		-41.05038	
31.65388	2605.996		-41.0244	
31.70782	2603.94		-40.99857	
31.76177	2601.852		-40.97289	
31.81572	2599.729		-40.94741	
31.86967	2597.573		-40.92219	
31.92361	2595.389		-40.89733	
31.97756	2593.18		-40.87298	
32.03151	2590.945		-40.84932	
32.08546	2588.688		-40.82651	
32.1394	2586.405		-40.80473	
32.19335	2584.093		-40.78412	
32.2473	2581.742		-40.7648	
32.30125	2579.348		-40.74685	
32.35519	2576.917		-40.73027	
32.40914	2574.465		-40.71506	
32.46309	2572.014		-40.70116	
32.51704	2569.578		-40.68848	
32.57098	2567.171		-40.67682	
32.62493	2564.804		-40.66591	
32.67888	2562.487		-40.65545	
32.73283	2560.223		-40.64508	
32.78677	2558.012		-40.63446	
32.84072	2555.85		-40.62323	
32.89467	2553.728		-40.61111	
32.94862	2551.639		-40.59784	
33.00257	2549.572		-40.5832	
33.05651	2547.518		-40.56703	
33.11046	2545.463		-40.54923	
33.16441	2543.392		-40.52971	
33.21836	2541.295		-40.50846	
33.2723	2539.166		-40.48551	
33.32625	2537.003		-40.46094	
33.3802	2534.806		-40.43485	
33.43415	2532.584		-40.40738	
33.48809	2530.351		-40.37866	
33.54204	2528.115		-40.34881	
33.59599	2525.885		-40.31794	
33.64994	2523.667		-40.28615	
33.70388	2521.46		-40.25355	
33.75783	2519.259		-40.22023	
33.81178	2517.057		-40.18632	
33.86573	2514.844		-40.15193	
33.91967	2512.621		-40.11723	
33.97362	2510.388		-40.08241	
34.02757	2508.149		-40.04771	
34.08152	2505.91		-40.0134	
34.13547	2503.675		-39.97977	
34.18941	2501.448		-39.94715	
34.24336	2499.23		-39.91584	
34.29731	2497.029		-39.88618	
34.35126	2494.853		-39.85847	
34.4052	2492.713		-39.83298	
34.45915	2490.616		-39.80996	
34.5131	2488.56		-39.78958	
34.56705	2486.538		-39.77193	
34.62099	2484.551		-39.75701	
34.67494	2482.592		-39.74473	
34.72889	2480.651		-39.7349	
34.78284	2478.717		-39.72728	
34.83678	2476.78		-39.7216	
34.89073	2474.831		-39.71758	
34.94468	2472.854		-39.71494	
34.99863	2470.837		-39.71343	
35.05257	2468.769		-39.71281	
35.10652	2466.652		-39.71286	
35.16047	2464.497		-39.71343	
35.21442	2462.323		-39.71437	
35.26837	2460.142		-39.71561	
35.32232	2457.963		-39.7171	
35.37626	2455.787		-39.71879	
35.43021	2453.615		-39.72066	
35.48416	2451.446		-39.72266	
35.53811	2449.276		-39.7247	
35.59205	2447.1		-39.72669	
35.646	2444.917		-39.72844	
35.69995	2442.732		-39.72976	
35.75389	2440.552		-39.7304	
35.80784	2438.376		-39.73011	
35.86179	2436.198		-39.72866	
35.91574	2434.017		-39.72579	
35.96968	2431.834		-39.72127	
36.02363	2429.655		-39.71491	
36.07758	2427.487		-39.70657	
36.13153	2425.332		-39.69613	
36.18547	2423.186		-39.68357	
36.23943	2421.047		-39.6689	
36.29337	2418.917		-39.65221	
36.34732	2416.793		-39.63359	
36.40127	2414.674		-39.6132	
36.45522	2412.551		-39.59121	
36.50916	2410.416		-39.56779	
36.56311	2408.262		-39.54313	
36.61706	2406.085		-39.51738	
36.67101	2403.881		-39.49066	
36.72495	2401.65		-39.46309	
36.7789	2399.397		-39.43473	
36.83285	2397.134		-39.40562	
36.8868	2394.874		-39.3758	
36.94074	2392.633		-39.34533	
36.99469	2390.413		-39.3142	
37.04864	2388.211		-39.28244	
37.10258	2386.018		-39.25007	
37.15653	2383.826		-39.2171	
37.21048	2381.633		-39.18358	
37.26443	2379.441		-39.14957	
37.31837	2377.252		-39.11514	
37.37233	2375.07		-39.08043	
37.42627	2372.899		-39.04557	
37.48022	2370.746		-39.01072	
37.53417	2368.608		-38.97601	
37.58812	2366.483		-38.94158	
37.64206	2364.374		-38.90752	
37.69601	2362.282		-38.87391	
37.74996	2360.209		-38.84079	
37.80391	2358.158		-38.80816	
37.85785	2356.131		-38.776	
37.9118	2354.13		-38.74422	
37.96575	2352.155		-38.71275	
38.0197	2350.207		-38.68147	
38.07364	2348.282		-38.65023	
38.12759	2346.376		-38.61889	
38.18154	2344.482		-38.58728	
38.23549	2342.596		-38.55531	
38.28943	2340.709		-38.52293	
38.34338	2338.808		-38.4901	
38.39733	2336.884		-38.45689	
38.45127	2334.93		-38.42337	
38.50523	2332.951		-38.38973	
38.55917	2330.951		-38.35617	
38.61312	2328.931		-38.32294	
38.66707	2326.896		-38.29025	
38.72102	2324.848		-38.25835	
38.77496	2322.787		-38.22746	
38.82891	2320.709		-38.19777	
38.88286	2318.618		-38.16952	
38.93681	2316.518		-38.14286	
38.99075	2314.413		-38.11796	
39.0447	2312.306		-38.09492	
39.09865	2310.195		-38.07382	
39.1526	2308.077		-38.05471	
39.20654	2305.946		-38.03759	
39.26049	2303.798		-38.02243	
39.31444	2301.637		-38.00919	
39.36839	2299.467		-37.99778	
39.42233	2297.292		-37.98812	
39.47628	2295.118		-37.98011	
39.53023	2292.954		-37.97368	
39.58418	2290.81		-37.96874	
39.63813	2288.696		-37.96519	
39.69207	2286.621		-37.96296	
39.74602	2284.586		-37.96198	
39.79997	2282.589		-37.96218	
39.85392	2280.619		-37.96348	
39.90786	2278.661		-37.96579	
39.96181	2276.696		-37.96897	
40.01576	2274.706		-37.97284	
40.06971	2272.677		-37.97719	
40.12365	2270.608		-37.98175	
40.1776	2268.506		-37.98626	
40.23155	2266.393		-37.99046	
40.2855	2264.279		-37.99409	
40.33944	2262.174		-37.99693	
40.39339	2260.081		-37.99876	
40.44734	2258.001		-37.99943	
40.50129	2255.938		-37.99883	
40.55523	2253.893		-37.99689	
40.60918	2251.866		-37.99359	
40.66313	2249.863		-37.98893	
40.71708	2247.884		-37.98294	
40.77103	2245.921		-37.97569	
40.82497	2243.959		-37.96722	
40.87892	2241.986		-37.95762	
40.93287	2239.99		-37.94696	
40.98682	2237.966		-37.93533	
41.04076	2235.915		-37.92284	
41.09471	2233.843		-37.90961	
41.14866	2231.764		-37.89576	
41.20261	2229.694		-37.8814	
41.25655	2227.652		-37.86668	
41.3105	2225.655		-37.85167	
41.36445	2223.709		-37.83645	
41.4184	2221.806		-37.82109	
41.47234	2219.927		-37.80562	
41.52629	2218.052		-37.79005	
41.58024	2216.158		-37.77436	
41.63419	2214.227		-37.75854	
41.68813	2212.238		-37.74255	
41.74208	2210.187		-37.72634	
41.79603	2208.079		-37.70988	
41.84998	2205.928		-37.69314	
41.90393	2203.754		-37.67612	
41.95787	2201.575		-37.65878	
42.01182	2199.405		-37.64112	
42.06577	2197.25		-37.62312	
42.11972	2195.106		-37.6048	
42.17366	2192.978		-37.58617	
42.22761	2190.872		-37.56726	
42.28156	2188.789		-37.54806	
42.33551	2186.727		-37.52853	
42.38945	2184.681		-37.50857	
42.4434	2182.644		-37.48806	
42.49735	2180.604		-37.46685	
42.5513	2178.553		-37.44476	
42.60524	2176.486		-37.42159	
42.65919	2174.402		-37.39718	
42.71314	2172.307		-37.37141	
42.76709	2170.211		-37.34415	
42.82103	2168.124		-37.31527	
42.87498	2166.061		-37.28465	
42.92893	2164.034		-37.2522	
42.98288	2162.05		-37.21785	
43.03683	2160.103		-37.18155	
43.09077	2158.184		-37.14334	
43.14472	2156.275		-37.10327	
43.19867	2154.365		-37.06145	
43.25262	2152.442		-37.01803	
43.30656	2150.499		-36.97313	
43.36051	2148.534		-36.92687	
43.41446	2146.547		-36.87939	
43.46841	2144.542		-36.83082	
43.52235	2142.526		-36.7813	
43.5763	2140.509		-36.73099	
43.63025	2138.493		-36.68003	
43.6842	2136.479		-36.62859	
43.73814	2134.467		-36.57687	
43.79209	2132.458		-36.52504	
43.84604	2130.453		-36.47332	
43.89999	2128.452		-36.42192	
43.95393	2126.463		-36.37105	
44.00788	2124.488		-36.32096	
44.06183	2122.53		-36.27193	
44.11578	2120.583		-36.22429	
44.16973	2118.645		-36.17838	
44.22367	2116.715		-36.13456	
44.27762	2114.791		-36.0932	
44.33157	2112.87		-36.05466	
44.38552	2110.949		-36.01923	
44.43946	2109.025		-35.98714	
44.49341	2107.103		-35.95857	
44.54736	2105.189		-35.93362	
44.60131	2103.289		-35.9123	
44.65525	2101.402		-35.8946	
44.7092	2099.522		-35.88044	
44.76315	2097.644		-35.86966	
44.8171	2095.764		-35.86207	
44.87104	2093.881		-35.85741	
44.92499	2091.994		-35.85536	
44.97894	2090.101		-35.85556	
45.03289	2088.202		-35.85765	
45.08683	2086.296		-35.86126	
45.14078	2084.388		-35.86605	
45.19473	2082.474		-35.87165	
45.24868	2080.553		-35.87775	
45.30263	2078.629		-35.88398	
45.35658	2076.707		-35.89003	
45.41052	2074.79		-35.89559	
45.46447	2072.88		-35.9004	
45.51842	2070.984		-35.90424	
45.57236	2069.105		-35.90691	
45.62631	2067.24		-35.90827	
45.68026	2065.383		-35.90823	
45.73421	2063.526		-35.9067	
45.78815	2061.663		-35.90364	
45.8421	2059.794		-35.899	
45.89605	2057.917		-35.89276	
45.95	2056.032		-35.8849	
46.00394	2054.138		-35.87546	
46.05789	2052.234		-35.86451	
46.11184	2050.317		-35.85216	
46.16579	2048.39		-35.83857	
46.21973	2046.458		-35.8239	
46.27368	2044.523		-35.80838	
46.32763	2042.587		-35.79225	
46.38158	2040.646		-35.77577	
46.43553	2038.694		-35.7592	
46.48948	2036.725		-35.7428	
46.54342	2034.734		-35.72682	
46.59737	2032.716		-35.71149	
46.65132	2030.665		-35.69701	
46.70527	2028.577		-35.68356	
46.75921	2026.456		-35.67125	
46.81316	2024.307		-35.66015	
46.86711	2022.141		-35.65025	
46.92105	2019.97		-35.64145	
46.975	2017.81		-35.63362	
47.02895	2015.68		-35.62654	
47.0829	2013.594		-35.61996	
47.13684	2011.558		-35.61354	
47.19079	2009.566		-35.60695	
47.24474	2007.611		-35.5998	
47.29869	2005.688		-35.59168	
47.35263	2003.789		-35.58224	
47.40658	2001.904		-35.57114	
47.46053	2000.027		-35.55812	
47.51448	1998.16		-35.54294	
47.56843	1996.305		-35.52544	
47.62238	1994.465		-35.50549	
47.67632	1992.638		-35.48305	
47.73027	1990.826		-35.45807	
47.78422	1989.031		-35.43055	
47.83817	1987.26		-35.40055	
47.89211	1985.518		-35.36813	
47.94606	1983.804		-35.33342	
48.00001	1982.109		-35.29659	
48.05396	1980.423		-35.25785	
48.1079	1978.733		-35.21745	
48.16185	1977.024		-35.17566	
48.2158	1975.285		-35.13276	
48.26974	1973.504		-35.08905	
48.32369	1971.682		-35.04483	
48.37764	1969.822		-35.0004	
48.43159	1967.933		-34.95608	
48.48553	1966.019		-34.91221	
48.53948	1964.084		-34.86912	
48.59343	1962.125		-34.82718	
48.64738	1960.146		-34.78677	
48.70133	1958.15		-34.74827	
48.75528	1956.142		-34.71204	
48.80922	1954.127		-34.67842	
48.86317	1952.111		-34.64769	
48.91712	1950.102		-34.62004	
48.97107	1948.108		-34.59559	
49.02501	1946.132		-34.57436	
49.07896	1944.175		-34.55627	
49.13291	1942.235		-34.54114	
49.18686	1940.307		-34.52868	
49.2408	1938.388		-34.51855	
49.29475	1936.478		-34.51036	
49.3487	1934.577		-34.5037	
49.40265	1932.689		-34.49815	
49.45659	1930.823		-34.4933	
49.51054	1928.983		-34.48879	
49.56449	1927.172		-34.48427	
49.61843	1925.388		-34.47943	
49.67239	1923.625		-34.47397	
49.72633	1921.875		-34.46763	
49.78028	1920.13		-34.46021	
49.83423	1918.384		-34.45154	
49.88818	1916.634		-34.44149	
49.94212	1914.873		-34.42997	
49.99607	1913.098		-34.41692	
50.05002	1911.303		-34.40232	
50.10397	1909.489		-34.38616	
50.15791	1907.652		-34.36844	
50.21186	1905.792		-34.34919	
50.26581	1903.91		-34.32845	
50.31976	1902.011		-34.30629	
50.3737	1900.104		-34.28281	
50.42765	1898.202		-34.25813	
50.4816	1896.315		-34.23238	
50.53555	1894.445		-34.20569	
50.58949	1892.59		-34.17822	
50.64344	1890.742		-34.15015	
50.69739	1888.897		-34.12167	
50.75134	1887.045		-34.09301	
50.80529	1885.178		-34.06439	
50.85923	1883.298		-34.03602	
50.91318	1881.41		-34.0081	
50.96713	1879.523		-33.9808	
51.02108	1877.643		-33.95422	
51.07502	1875.781		-33.92839	
51.12897	1873.941		-33.90327	
51.18292	1872.119		-33.87876	
51.23687	1870.312		-33.85473	
51.29081	1868.513		-33.83102	
51.34476	1866.719		-33.80749	
51.39871	1864.925		-33.78399	
51.45266	1863.126		-33.7604	
51.5066	1861.32		-33.73661	
51.56055	1859.507		-33.71251	
51.6145	1857.687		-33.68799	
51.66845	1855.867		-33.66296	
51.72239	1854.052		-33.63732	
51.77634	1852.242		-33.61103	
51.83029	1850.436		-33.58406	
51.88424	1848.631		-33.55641	
51.93819	1846.825		-33.5281	
51.99213	1845.016		-33.49915	
52.04608	1843.198		-33.46957	
52.10003	1841.367		-33.43938	
52.15398	1839.523		-33.4086	
52.20792	1837.669		-33.37726	
52.26187	1835.809		-33.34542	
52.31582	1833.943		-33.3132	
52.36977	1832.076		-33.28072	
52.42371	1830.216		-33.2481	
52.47766	1828.377		-33.21551	
52.53161	1826.567		-33.18306	
52.58556	1824.79		-33.15091	
52.6395	1823.043		-33.11918	
52.69345	1821.319		-33.08802	
52.7474	1819.61		-33.05756	
52.80135	1817.904		-33.028	
52.85529	1816.188		-32.99947	
52.90924	1814.448		-32.97217	
52.96319	1812.684		-32.94623	
53.01714	1810.9		-32.92175	
53.07109	1809.107		-32.8988	
53.12503	1807.31		-32.87738	
53.17898	1805.514		-32.85748	
53.23293	1803.723		-32.83909	
53.28688	1801.942		-32.82219	
53.34082	1800.175		-32.80678	
53.39477	1798.426		-32.79291	
53.44872	1796.697		-32.78064	
53.50267	1794.984		-32.77	
53.55661	1793.28		-32.76104	
53.61056	1791.575		-32.75375	
53.66451	1789.866		-32.74813	
53.71846	1788.151		-32.74416	
53.7724	1786.429		-32.74182	
53.82635	1784.697		-32.74112	
53.8803	1782.951		-32.74204	
53.93425	1781.191		-32.74461	
53.98819	1779.418		-32.74882	
54.04214	1777.632		-32.75465	
54.09609	1775.84		-32.76207	
54.15004	1774.048		-32.77101	
54.20399	1772.266		-32.7814	
54.25793	1770.501		-32.79318	
54.31188	1768.75		-32.80624	
54.36583	1767.012		-32.82047	
54.41978	1765.285		-32.8357	
54.47372	1763.571		-32.85179	
54.52767	1761.87		-32.86851	
54.58162	1760.178		-32.88565	
54.63557	1758.49		-32.903	
54.68951	1756.804		-32.92034	
54.74346	1755.114		-32.93745	
54.79741	1753.41		-32.95417	
54.85136	1751.682		-32.97033	
54.9053	1749.92		-32.98578	
54.95925	1748.124		-33.00042	
55.0132	1746.302		-33.01416	
55.06715	1744.462		-33.02687	
55.12109	1742.613		-33.03846	
55.17504	1740.768		-33.04879	
55.22899	1738.935		-33.05774	
55.28294	1737.116		-33.06521	
55.33689	1735.309		-33.07109	
55.39083	1733.511		-33.07533	
55.44478	1731.715		-33.07787	
55.49873	1729.915		-33.07867	
55.55268	1728.106		-33.07772	
55.60662	1726.286		-33.07503	
55.66057	1724.455		-33.07056	
55.71452	1722.619		-33.06432	
55.76847	1720.78		-33.05628	
55.82241	1718.938		-33.04644	
55.87636	1717.093		-33.03481	
55.93031	1715.244		-33.02138	
55.98426	1713.389		-33.00615	
56.0382	1711.529		-32.98915	
56.09215	1709.674		-32.97039	
56.1461	1707.831		-32.94991	
56.20005	1706.007		-32.92772	
56.25399	1704.201		-32.90388	
56.30794	1702.408		-32.87837	
56.36189	1700.621		-32.85116	
56.41584	1698.832		-32.82219	
56.46979	1697.035		-32.79137	
56.52374	1695.224		-32.7586	
56.57768	1693.398		-32.72377	
56.63163	1691.566		-32.68681	
56.68558	1689.735		-32.64761	
56.73952	1687.916		-32.60614	
56.79347	1686.112		-32.56236	
56.84742	1684.319		-32.51625	
56.90137	1682.535		-32.46788	
56.95531	1680.762		-32.4173	
57.00926	1679.002		-32.36467	
57.06321	1677.25		-32.31015	
57.11716	1675.507		-32.25391	
57.1711	1673.779		-32.19619	
57.22505	1672.068		-32.13717	
57.279	1670.378		-32.07709	
57.33295	1668.708		-32.01616	
57.38689	1667.058		-31.95459	
57.44084	1665.418		-31.89262	
57.49479	1663.78		-31.83049	
57.54874	1662.137		-31.76847	
57.60269	1660.485		-31.70684	
57.65664	1658.824		-31.64588	
57.71058	1657.157		-31.58584	
57.76453	1655.49		-31.52699	
57.81848	1653.827		-31.46954	
57.87243	1652.164		-31.41374	
57.92637	1650.497		-31.35979	
57.98032	1648.814		-31.30791	
58.03427	1647.112		-31.2583	
58.08821	1645.392		-31.21117	
58.14216	1643.656		-31.16674	
58.19611	1641.908		-31.12522	
58.25006	1640.153		-31.08678	
58.304	1638.404		-31.05154	
58.35795	1636.669		-31.01956	
58.4119	1634.956		-30.99082	
58.46585	1633.27		-30.96528	
58.51979	1631.611		-30.94282	
58.57374	1629.975		-30.92331	
58.62769	1628.358		-30.90656	
58.68164	1626.752		-30.89237	
58.73559	1625.153		-30.88049	
58.78954	1623.555		-30.87062	
58.84348	1621.957		-30.86244	
58.89743	1620.358		-30.85564	
58.95138	1618.76		-30.84988	
59.00533	1617.163		-30.84484	
59.05927	1615.568		-30.84021	
59.11322	1613.973		-30.83569	
59.16717	1612.379		-30.831	
59.22112	1610.788		-30.82587	
59.27506	1609.201		-30.82004	
59.32901	1607.62		-30.81322	
59.38296	1606.047		-30.80517	
59.4369	1604.475		-30.79563	
59.49085	1602.899		-30.78436	
59.5448	1601.313		-30.77114	
59.59875	1599.711		-30.75578	
59.65269	1598.084		-30.7381	
59.70664	1596.429		-30.71794	
59.76059	1594.746		-30.69515	
59.81454	1593.04		-30.66964	
59.86849	1591.315		-30.64132	
59.92244	1589.576		-30.61016	
59.97638	1587.832		-30.57615	
60.03033	1586.09		-30.53934	
60.08428	1584.359		-30.49984	
60.13823	1582.638		-30.45782	
60.19217	1580.926		-30.41349	
60.24612	1579.224		-30.36708	
60.30007	1577.532		-30.31884	
60.35402	1575.844		-30.26897	
60.40796	1574.154		-30.21769	
60.46191	1572.457		-30.16515	
60.51586	1570.752		-30.11148	
60.56981	1569.04		-30.0568	
60.62375	1567.322		-30.00119	
60.6777	1565.594		-29.94469	
60.73165	1563.854		-29.88732	
60.78559	1562.102		-29.82904	
60.83954	1560.348		-29.76982	
60.89349	1558.597		-29.70957	
60.94744	1556.858		-29.64818	
61.00139	1555.139		-29.5855	
61.05534	1553.443		-29.52137	
61.10928	1551.771		-29.45559	
61.16323	1550.126		-29.38795	
61.21718	1548.507		-29.31822	
61.27113	1546.911		-29.24617	
61.32507	1545.337		-29.17158	
61.37902	1543.778		-29.09421	
61.43297	1542.227		-29.01383	
61.48692	1540.681		-28.93024	
61.54086	1539.139		-28.84322	
61.59481	1537.601		-28.75257	
61.64876	1536.071		-28.6581	
61.70271	1534.552		-28.55962	
61.75665	1533.05		-28.45699	
61.8106	1531.571		-28.35008	
61.86455	1530.115		-28.23881	
61.9185	1528.683		-28.12311	
61.97245	1527.275		-28.00295	
62.02639	1525.893		-27.87836	
62.08034	1524.534		-27.74937	
62.13429	1523.189		-27.61604	
62.18824	1521.851		-27.47848	
62.24218	1520.511		-27.33677	
62.29613	1519.165		-27.19102	
62.35008	1517.805		-27.04135	
62.40403	1516.424		-26.88785	
62.45797	1515.018		-26.73059	
62.51192	1513.586		-26.56958	
62.56587	1512.134		-26.40483	
62.61982	1510.662		-26.23628	
62.67376	1509.171		-26.06384	
62.72771	1507.66		-25.88735	
62.78166	1506.135		-25.70663	
62.83561	1504.599		-25.52145	
62.88955	1503.059		-25.33153	
62.9435	1501.523		-25.13651	
62.99745	1499.996		-24.93598	
63.0514	1498.486		-24.72944	
63.10535	1496.993		-24.51634	
63.15929	1495.517		-24.2961	
63.21324	1494.055		-24.06805	
63.26719	1492.605		-23.83149	
63.32114	1491.165		-23.58573	
63.37508	1489.732		-23.33004	
63.42903	1488.309		-23.06368	
63.48298	1486.902		-22.78593	
63.53693	1485.518		-22.49604	
63.59087	1484.161		-22.19327	
63.64482	1482.837		-21.8769	
63.69877	1481.55		-21.54622	
63.75272	1480.302		-21.20055	
63.80666	1479.091		-20.83928	
63.86061	1477.917		-20.46181	
63.91456	1476.774		-20.06761	
63.96851	1475.656		-19.65616	
64.02245	1474.558		-19.22699	
64.0764	1473.475		-18.77965	
64.13035	1472.402		-18.31371	
64.1843	1471.337		-17.8288	
64.23824	1470.28		-17.32453	
64.29219	1469.231		-16.80056	
64.34614	1468.188		-16.2566	
64.40009	1467.146		-15.69235	
64.45403	1466.105		-15.10753	
64.50798	1465.07		-14.50193	
64.56193	1464.045		-13.87531	
64.61588	1463.032		-13.22746	
64.66982	1462.038		-12.55812	
64.72377	1461.073		-11.86708	
64.77773	1460.144		-11.15395	
64.83167	1459.254		-10.4186	
64.88562	1458.4		-9.660571	
64.93957	1457.58		-8.879412	
64.99352	1456.799		-8.074594	
65.04746	1456.065		-7.245518	
65.10141	1455.381		-6.391511	
65.15536	1454.753		-5.511832	
65.2093	1454.19		-4.605675	
65.26325	1453.698		-3.672179	
65.3172	1453.278		-2.710444	
65.37115	1452.928		-1.719535	
65.42509	1452.644		-0.6984829	
65.47904	1452.42		0.3537088	
65.53299	1452.256		1.438058	
65.58694	1452.154		2.55559	
65.64088	1452.115		3.707335	
65.69483	1452.138		4.894299	
65.74878	1452.22		6.117521	
65.80273	1452.36		7.377962	
65.85667	1452.558		8.676565	
65.91062	1452.82		10.01424	
65.96457	1453.146		11.39185	
66.01852	1453.535		12.81021	
66.07246	1453.984		14.27011	
66.12641	1454.495		15.77227	
66.18036	1455.067		17.31738	
66.23431	1455.699		18.9061	
66.28825	1456.394		20.53901	
66.3422	1457.147		22.21668	
66.39615	1457.955		23.93961	
66.4501	1458.82		25.7083	
66.50404	1459.747		27.52318	
66.55799	1460.744		29.38467	
66.61194	1461.814		31.29318	
66.66589	1462.968		33.24915	
66.71983	1464.218		35.25286	
66.77378	1465.574		37.30475	
66.82773	1467.043		39.40524	
66.88168	1468.63		41.55476	
66.93562	1470.342		43.75383	
66.98957	1472.185		46.00294	
67.04353	1474.159		48.30299	
67.09747	1476.258		50.65393	
67.15142	1478.478		53.05671	
67.20537	1480.817		55.51196	
67.25932	1483.273		58.02035	
67.31326	1485.849		60.58254	
67.36721	1488.552		63.19915	
67.42116	1491.387		65.87094	
67.47511	1494.365		68.59846	
67.52905	1497.495		71.38228	
67.583	1500.787		74.22288	
67.63695	1504.252		77.1207	
67.6909	1507.893		80.0761	
67.74484	1511.713		83.08934	
67.79879	1515.712		86.16062	
67.85274	1519.893		89.29005	
67.90668	1524.254		92.47765	
67.96063	1528.79		95.7233	
68.01458	1533.502		99.02678	
68.06853	1538.394		102.3877	
68.12247	1543.471		105.8057	
68.17642	1548.736		109.2799	
68.23037	1554.197		112.8097	
68.28432	1559.865		116.394	
68.33826	1565.741		120.0317	
68.39221	1571.825		123.7216	
68.44616	1578.118		127.4622	
68.50011	1584.62		131.252	
68.55405	1591.332		135.0893	
68.608	1598.251		138.9724	
68.66195	1605.379		142.8996	
68.7159	1612.718		146.869	
68.76984	1620.267		150.8788	
68.82379	1628.022		154.927	
68.87774	1635.982		159.0119	
68.93169	1644.151		163.1315	
68.98563	1652.528		167.2837	
69.03958	1661.123		171.4666	
69.09353	1669.946		175.6777	
69.14748	1679.013		179.9149	
69.20142	1688.334		184.1755	
69.25538	1697.919		188.4574	
69.30933	1707.772		192.7566	
69.36327	1717.898		197.0704	
69.41722	1728.3		201.3957	
69.47117	1738.977		205.7288	
69.52512	1749.937		210.0659	
69.57906	1761.183		214.4029	
69.63301	1772.721		218.7354	
69.68696	1784.548		223.0586	
69.74091	1796.666		227.3675	
69.79485	1809.077		231.6567	
69.8488	1821.782		235.9205	
69.90275	1834.777		240.1527	
69.9567	1848.059		244.3468	
70.01064	1861.624		248.496	
70.06459	1875.466		252.5931	
70.11854	1889.579		256.6305	
70.17249	1903.956		260.6002	
70.22643	1918.592		264.494	
70.28038	1933.485		268.3035	
70.33433	1948.63		272.0197	
70.38828	1964.025		275.6338	
70.44222	1979.671		279.1367	
70.49617	1995.567		282.5193	
70.55012	2011.709		285.7724	
70.60406	2028.092		288.887	
70.65801	2044.708		291.8541	
70.71196	2061.55		294.6649	
70.76591	2078.612		297.311	
70.81985	2095.886		299.7842	
70.8738	2113.366		302.0767	
70.92775	2131.048		304.1814	
70.9817	2148.931		306.0913	
71.03564	2167.021		307.8003	
71.08959	2185.323		309.3026	
71.14354	2203.84		310.5929	
71.19749	2222.58		311.667	
71.25143	2241.553		312.5208	
71.30538	2260.765		313.1512	
71.35933	2280.217		313.5557	
71.41328	2299.901		313.7325	
71.46722	2319.799		313.6805	
71.52118	2339.891		313.3992	
71.57513	2360.138		312.8892	
71.62907	2380.497		312.1512	
71.68302	2400.921		311.187	
71.73697	2421.368		309.9989	
71.79092	2441.807		308.5896	
71.84486	2462.213		306.9631	
71.89881	2482.569		305.1226	
71.95276	2502.854		303.073	
72.00671	2523.046		300.8192	
72.06065	2543.127		298.3664	
72.1146	2563.073		295.7204	
72.16855	2582.855		292.8871	
72.2225	2602.438		289.8726	
72.27644	2621.775		286.6833	
72.33039	2640.813		283.3259	
72.38434	2659.497		279.8071	
72.43829	2677.771		276.1338	
72.49223	2695.583		272.3133	
72.54618	2712.886		268.3525	
72.60013	2729.648		264.259	
72.65408	2745.85		260.0401	
72.70802	2761.479		255.7034	
72.76197	2776.536		251.2566	
72.81592	2791.031		246.7074	
72.86987	2804.978		242.0638	
72.92381	2818.4		237.3337	
72.97776	2831.322		232.5254	
73.03171	2843.763		227.6472	
73.08566	2855.733		222.7075	
73.1396	2867.23		217.7151	
73.19355	2878.246		212.6786	
73.2475	2888.769		207.6071	
73.30145	2898.789		202.5095	
73.35539	2908.299		197.3952	
73.40934	2917.3		192.2734	
73.46329	2925.813		187.1534	
73.51723	2933.873		182.0444	
73.57118	2941.513		176.9558	
73.62513	2948.765		171.8965	
73.67908	2955.661		166.8756	
73.73303	2962.232		161.9011	
73.78698	2968.513		156.983	
73.84093	2974.544		152.1289	
73.89487	2980.356		147.3468	
73.94882	2985.974		142.6444	
74.00277	2991.409		138.0289	
74.05672	2996.668		133.5074	
74.11066	3001.757		129.0859	
74.16461	3006.673		124.7707	
74.21856	3011.411		120.567	
74.27251	3015.974		116.4795	
74.32645	3020.376		112.5122	
74.3804	3024.637		108.6687	
74.43435	3028.781		104.9515	
74.4883	3032.837		101.3625	
74.54224	3036.83		97.90303	
74.59619	3040.783		94.57345	
74.65014	3044.706		91.3735	
74.70409	3048.598		88.3022	
74.75803	3052.452		85.35794	
74.81198	3056.25		82.53848	
74.86593	3059.973		79.84104	
74.91988	3063.597		77.26232	
74.97382	3067.108		74.79861	
75.02777	3070.493		72.44582	
75.08172	3073.742		70.19962	
75.13567	3076.855		68.05544	
75.18961	3079.839		66.00858	
75.24356	3082.709		64.05422	
75.29751	3085.48		62.18751	
75.35146	3088.162		60.40357	
75.4054	3090.763		58.6976	
75.45935	3093.294		57.06483	
75.5133	3095.766		55.50064	
75.56725	3098.191		54.00053	
75.62119	3100.582		52.56021	
75.67514	3102.939		51.17549	
75.72909	3105.256		49.84253	
75.78304	3107.523		48.55771	
75.83698	3109.734		47.31765	
75.89093	3111.89		46.11924	
75.94488	3113.995		44.95963	
75.99883	3116.055		43.83606	
76.05278	3118.088		42.74653	
76.10673	3120.106		41.68882	
76.16068	3122.123		40.66115	
76.21462	3124.15		39.66199	
76.26857	3126.198		38.68998	
76.32252	3128.268		37.74389	
76.37646	3130.355		36.82269	
76.43041	3132.452		35.92537	
76.48436	3134.542		35.051	
76.53831	3136.604		34.19869	
76.59225	3138.617		33.36758	
76.6462	3140.567		32.55678	
76.70015	3142.444		31.76543	
76.7541	3144.242		30.99264	
76.80804	3145.962		30.2375	
76.86199	3147.605		29.49907	
76.91594	3149.18		28.77642	
76.96989	3150.7		28.06861	
77.02383	3152.173		27.37473	
77.07778	3153.592		26.69393	
77.13173	3154.953		26.02541	
77.18568	3156.255		25.36849	
77.23962	3157.497		24.72256	
77.29357	3158.676		24.08706	
77.34752	3159.79		23.46159	
77.40147	3160.838		22.84581	
77.45541	3161.808		22.23952	
77.50936	3162.697		21.64264	
77.56331	3163.508		21.05521	
77.61726	3164.253		20.47737	
77.6712	3164.943		19.90935	
77.72515	3165.593		19.35148	
77.7791	3166.216		18.80421	
77.83305	3166.83		18.26807	
77.88699	3167.452		17.7437	
77.94094	3168.098		17.23179	
77.99489	3168.781		16.7331	
78.04884	3169.507		16.24844	
78.10278	3170.267		15.77862	
78.15673	3171.046		15.32456	
78.21069	3171.833		14.88711	
78.26463	3172.612		14.46735	
78.31858	3173.378		14.06616	
78.37253	3174.129		13.68442	
78.42648	3174.87		13.32293	
78.48042	3175.607		12.98245	
78.53437	3176.339		12.66362	
78.58832	3177.07		12.36697	
78.64227	3177.798		12.09298	
78.69621	3178.522		11.84193	
78.75016	3179.233		11.61398	
78.80411	3179.917		11.40916	
78.85806	3180.558		11.22733	
78.912	3181.143		11.06826	
78.96595	3181.664		10.93161	
79.0199	3182.105		10.81695	
79.07384	3182.459		10.7238	
79.12779	3182.724		10.65163	
79.18174	3182.905		10.59991	
79.23569	3183.01		10.56809	
79.28963	3183.055		10.55562	
79.34358	3183.059		10.56198	
79.39753	3183.046		10.5867	
79.45148	3183.037		10.62933	
79.50542	3183.055		10.6895	
79.55937	3183.119		10.76686	
79.61332	3183.24		10.86111	
79.66727	3183.429		10.97199	
79.72121	3183.69		11.0992	
79.77516	3184.017		11.24249	
79.82911	3184.396		11.40157	
79.88306	3184.809		11.57616	
79.937	3185.247		11.76591	
79.99095	3185.71		11.97046	
80.0449	3186.201		12.18934	
80.09885	3186.721		12.42204	
80.15279	3187.273		12.66792	
80.20674	3187.855		12.92634	
80.26069	3188.469		13.19655	
80.31464	3189.122		13.47773	
80.36858	3189.821		13.76897	
80.42253	3190.569		14.06927	
80.47649	3191.36		14.37757	
80.53043	3192.181		14.69264	
80.58438	3193.014		15.01328	
80.63833	3193.845		15.33818	
80.69228	3194.667		15.66596	
80.74622	3195.486		15.99513	
80.80017	3196.309		16.32412	
80.85412	3197.143		16.6513	
80.90807	3197.991		16.97495	
80.96201	3198.857		17.29335	
81.01596	3199.746		17.60475	
81.06991	3200.663		17.90742	
81.12386	3201.613		18.19962	
81.1778	3202.602		18.47967	
81.23175	3203.633		18.74592	
81.2857	3204.714		18.99685	
81.33965	3205.843		19.23099	
81.39359	3207.011		19.44706	
81.44754	3208.217		19.64394	
81.50149	3209.46		19.8207	
81.55544	3210.741		19.9766	
81.60938	3212.056		20.11116	
81.66333	3213.408		20.22405	
81.71728	3214.802		20.31514	
81.77122	3216.241		20.38437	
81.82517	3217.722		20.43181	
81.87912	3219.241		20.45756	
81.93307	3220.798		20.46173	
81.98701	3222.391		20.44445	
82.04096	3224.019		20.40586	
82.09491	3225.675		20.34608	
82.14886	3227.349		20.26521	
82.2028	3229.024		20.1633	
82.25675	3230.683		20.04032	
82.3107	3232.314		19.8962	
82.36465	3233.91		19.73077	
82.41859	3235.469		19.54387	
82.47254	3236.993		19.33524	
82.52649	3238.477		19.10456	
82.58044	3239.916		18.85154	
82.63438	3241.31		18.57584	
82.68834	3242.662		18.2771	
82.74229	3243.968		17.95505	
82.79623	3245.221		17.60924	
82.85018	3246.415		17.2392	
82.90413	3247.545		16.84446	
82.95808	3248.605		16.42451	
83.01202	3249.598		15.97886	
83.06597	3250.526		15.50704	
83.11992	3251.392		15.00858	
83.17387	3252.199		14.48308	
83.22781	3252.95		13.93022	
83.28176	3253.649		13.34971	
83.33571	3254.297		12.74138	
83.38966	3254.893		12.10521	
83.4436	3255.448		11.44133	
83.49755	3255.972		10.75004	
83.5515	3256.475		10.03188	
83.60545	3256.956		9.287543	
83.65939	3257.417		8.517958	
83.71334	3257.851		7.724236	
83.76729	3258.256		6.907642	
83.82124	3258.627		6.069562	
83.87518	3258.959		5.211479	
83.92913	3259.252		4.334947	
83.98308	3259.512		3.44156	
84.03703	3259.749		2.532931	
84.09097	3259.978		1.610674	
84.14492	3260.21		0.6763681	
84.19887	3260.458		-0.2684886	
84.25282	3260.729		-1.222505	
84.30676	3261.018		-2.184393	
84.36071	3261.306		-3.152962	
84.41466	3261.57		-4.127099	
84.46861	3261.786		-5.105761	
84.52255	3261.927		-6.087956	
84.5765	3261.98		-7.072756	
84.63045	3261.947		-8.059237	
84.68439	3261.833		-9.046556	
84.73834	3261.641		-10.03391	
84.79229	3261.372		-11.02059	
84.84624	3261.027		-12.00596	
84.90018	3260.602		-12.9895	
84.95414	3260.097		-13.97091	
85.00809	3259.514		-14.94956	
85.06203	3258.853		-15.92532	
85.11598	3258.113		-16.89797	
85.16993	3257.286		-17.86735	
85.22388	3256.367		-18.83333	
85.27782	3255.345		-19.79577	
85.33177	3254.201		-20.75453	
85.38572	3252.917		-21.70943	
85.43967	3251.483		-22.66028	
85.49361	3249.899		-23.60681	
85.54756	3248.177		-24.54874	
85.60151	3246.339		-25.48574	
85.65546	3244.411		-26.41741	
85.7094	3242.428		-27.34326	
85.76335	3240.427		-28.26274	
85.8173	3238.434		-29.17521	
85.87125	3236.462		-30.07998	
85.92519	3234.506		-30.97623	
85.97914	3232.55		-31.86308	
86.03309	3230.574		-32.73956	
86.08704	3228.56		-33.60465	
86.14098	3226.489		-34.45729	
86.19493	3224.353		-35.29641	
86.24888	3222.156		-36.12097	
86.30283	3219.902		-36.92998	
86.35677	3217.597		-37.72251	
86.41072	3215.248		-38.49771	
86.46467	3212.858		-39.25484	
86.51862	3210.436		-39.99326	
86.57256	3207.991		-40.71245	
86.62651	3205.541		-41.41203	
86.68046	3203.096		-42.09175	
86.73441	3200.655		-42.75146	
86.78835	3198.211		-43.39114	
86.8423	3195.75		-44.01079	
86.89625	3193.257		-44.61057	
86.9502	3190.725		-45.19069	
87.00414	3188.152		-45.75148	
87.05809	3185.542		-46.29337	
87.11204	3182.899		-46.81695	
87.16599	3180.231		-47.32298	
87.21994	3177.551		-47.81205	
87.27389	3174.869		-48.28506	
87.32784	3172.192		-48.74284	
87.38178	3169.521		-49.18626	
87.43573	3166.853		-49.61626	
87.48968	3164.175		-50.03376	
87.54362	3161.471		-50.4397	
87.59757	3158.724		-50.83498	
87.65152	3155.922		-51.22048	
87.70547	3153.062		-51.59701	
87.75941	3150.15		-51.96533	
87.81336	3147.199		-52.32612	
87.86731	3144.223		-52.68	
87.92126	3141.233		-53.02752	
87.9752	3138.24		-53.36913	
88.02915	3135.257		-53.70521	
88.0831	3132.287		-54.03604	
88.13705	3129.327		-54.36179	
88.19099	3126.368		-54.68252	
88.24494	3123.407		-54.99822	
88.29889	3120.436		-55.30878	
88.35284	3117.442		-55.614	
88.40678	3114.411		-55.91364	
88.46073	3111.333		-56.20736	
88.51468	3108.212		-56.4948	
88.56863	3105.063		-56.77559	
88.62257	3101.9		-57.04938	
88.67652	3098.739		-57.31584	
88.73047	3095.596		-57.5747	
88.78442	3092.483		-57.82573	
88.83836	3089.406		-58.06876	
88.89231	3086.359		-58.30361	
88.94626	3083.331		-58.53012	
89.00021	3080.305		-58.74818	
89.05415	3077.272		-58.95771	
89.1081	3074.216		-59.15872	
89.16205	3071.121		-59.35123	
89.216	3067.969		-59.53532	
89.26994	3064.755		-59.71108	
89.32389	3061.478		-59.87864	
89.37784	3058.146		-60.03817	
89.43179	3054.772		-60.18994	
89.48574	3051.37		-60.33418	
89.53969	3047.945		-60.47126	
89.59364	3044.508		-60.60155	
89.64758	3041.057		-60.72545	
89.70153	3037.594		-60.84335	
89.75548	3034.12		-60.95563	
89.80943	3030.641		-61.06268	
89.86337	3027.157		-61.16489	
89.91732	3023.662		-61.26265	
89.97127	3020.153		-61.35631	
90.02522	3016.628		-61.44624	
90.07916	3013.09		-61.53279	
90.13311	3009.542		-61.6163	
90.18706	3005.993		-61.69712	
90.241	3002.458		-61.7756	
90.29495	2998.944		-61.85214	
90.3489	2995.453		-61.9271	
90.40285	2991.974		-62.00082	
90.45679	2988.505		-62.07361	
90.51074	2985.043		-62.1457	
90.56469	2981.593		-62.21727	
90.61864	2978.162		-62.28841	
90.67258	2974.758		-62.35916	
90.72653	2971.39		-62.42952	
90.78048	2968.057		-62.49946	
90.83443	2964.75		-62.56897	
90.88837	2961.46		-62.63795	
90.94232	2958.175		-62.70633	
90.99627	2954.896		-62.77402	
91.05022	2951.626		-62.84097	
91.10416	2948.368		-62.90716	
91.15811	2945.127		-62.97259	
91.21206	2941.899		-63.03727	
91.26601	2938.676		-63.10123	
91.31995	2935.438		-63.16454	
91.3739	2932.171		-63.2272	
91.42785	2928.873		-63.28925	
91.4818	2925.559		-63.35072	
91.53574	2922.243		-63.41161	
91.58969	2918.931		-63.47196	
91.64365	2915.622		-63.53178	
91.69759	2912.315		-63.59106	
91.75154	2909.012		-63.64981	
91.80549	2905.717		-63.70802	
91.85944	2902.425		-63.76569	
91.91338	2899.131		-63.82279	
91.96733	2895.831		-63.87929	
92.02128	2892.52		-63.93513	
92.07523	2889.191		-63.99028	
92.12917	2885.837		-64.04465	
92.18312	2882.453		-64.09818	
92.23707	2879.04		-64.15086	
92.29102	2875.604		-64.20264	
92.34496	2872.153		-64.25353	
92.39891	2868.684		-64.30353	
92.45286	2865.19		-64.33329	
92.50681	2861.662		-64.35574	
92.56075	2858.095		-64.37328	
92.6147	2854.489		-64.38802	
92.66865	2850.85		-64.4015	
92.7226	2847.189		-64.4147	
92.77654	2843.516		-64.42818	
92.83049	2839.838		-64.44219	
92.88444	2836.157		-64.45688	
92.93839	2832.469		-64.47224	
92.99233	2828.768		-64.4882	
93.04628	2825.05		-64.50469	
93.10023	2821.32		-64.52162	
93.15417	2817.59		-64.53886	
93.20812	2813.876		-64.55632	
93.26207	2810.183		-64.5739	
93.31602	2806.508		-64.59148	
93.36996	2802.844		-64.60898	
93.42391	2799.195		-64.6263	
93.47786	2795.562		-64.64333	
93.53181	2791.946		-64.65999	
93.58575	2788.344		-64.6762	
93.6397	2784.75		-64.69187	
93.69365	2781.169		-64.70692	
93.7476	2777.605		-64.72127	
93.80154	2774.055		-64.73483	
93.85549	2770.521		-64.74754	
93.90945	2767.006		-64.75932	
93.96339	2763.515		-64.77011	
94.01734	2760.05		-64.77983	
94.07129	2756.632		-64.78844	
94.12524	2753.273		-64.79589	
94.17918	2749.94		-64.80212	
94.23313	2746.615		-64.80712	
94.28708	2743.293		-64.81084	
94.34103	2739.969		-64.81327	
94.39497	2736.643		-64.81438	
94.44892	2733.314		-64.81418	
94.50287	2729.982		-64.81264	
94.55682	2726.647		-64.80977	
94.61076	2723.312		-64.80556	
94.66471	2719.976		-64.80005	
94.71866	2716.641		-64.79322	
94.77261	2713.31		-64.7851	
94.82655	2709.984		-64.77571	
94.8805	2706.664		-64.76508	
94.93445	2703.35		-64.75322	
94.9884	2700.042		-64.74017	
