T[Â°C]	350nm [counts / mm]	S.D.	First derivative	S.D. of first derivative
19.99939	6927.917		-102.8107	
20.05338	6922.155		-102.6882	
20.10736	6916.391		-102.5656	
20.16135	6910.626		-102.4432	
20.21534	6904.862		-102.3208	
20.26933	6899.1		-102.1985	
20.32332	6893.34		-102.0764	
20.37731	6887.587		-101.9543	
20.4313	6881.84		-101.8325	
20.48529	6876.102		-101.7107	
20.53928	6870.375		-101.5892	
20.59327	6864.657		-101.468	
20.64726	6858.949		-101.347	
20.70125	6853.249		-101.2262	
20.75524	6847.554		-101.1058	
20.80923	6841.862		-100.9857	
20.86322	6836.163		-100.8659	
20.91721	6830.441		-100.7466	
20.9712	6824.671		-100.6276	
21.02518	6819.025		-100.5091	
21.07917	6813.421		-100.391	
21.13316	6807.878		-100.2733	
21.18715	6802.41		-100.1562	
21.24114	6797.023		-100.0395	
21.29513	6791.716		-99.92336	
21.34912	6786.49		-99.80775	
21.40311	6781.327		-99.69269	
21.4571	6776.206		-99.5782	
21.51109	6771.104		-99.46429	
21.56508	6765.997		-99.351	
21.61907	6760.868		-99.23832	
21.67306	6755.707		-99.12629	
21.72705	6750.504		-99.01492	
21.78104	6745.254		-98.90423	
21.83503	6739.953		-98.79424	
21.88902	6734.602		-98.68498	
21.943	6729.206		-98.57646	
21.99699	6723.778		-98.46869	
22.05098	6718.336		-98.36167	
22.10497	6712.894		-98.2554	
22.15896	6707.451		-98.14988	
22.21295	6701.997		-98.04505	
22.26694	6696.524		-97.9409	
22.32093	6691.031		-97.83734	
22.37492	6685.516		-97.73437	
22.42891	6679.98		-97.63199	
22.4829	6674.438		-97.53036	
22.53689	6668.915		-97.42988	
22.59088	6663.433		-97.33118	
22.64487	6658.016		-97.29552	
22.69886	6652.683		-97.26563	
22.75285	6647.453		-97.24116	
22.80684	6642.339		-97.2218	
22.86082	6637.342		-97.20721	
22.91481	6632.447		-97.19707	
22.9688	6627.63		-97.19099	
23.02279	6622.86		-97.18858	
23.07678	6618.108		-97.18939	
23.13077	6613.357		-97.19297	
23.18476	6608.59		-97.19882	
23.23875	6603.785		-97.20646	
23.29274	6598.928		-97.21539	
23.34673	6594.019		-97.22515	
23.40072	6589.067		-97.23532	
23.45471	6584.092		-97.24556	
23.5087	6579.107		-97.25561	
23.56269	6574.113		-97.26527	
23.61668	6569.104		-97.27441	
23.67067	6564.071		-97.28295	
23.72466	6559		-97.29081	
23.77865	6553.88		-97.2979	
23.83264	6548.697		-97.30413	
23.88663	6543.438		-97.30937	
23.94061	6538.093		-97.31348	
23.9946	6532.657		-97.31628	
24.04859	6527.131		-97.31761	
24.10258	6521.529		-97.3173	
24.15657	6515.875		-97.31522	
24.21056	6510.202		-97.31119	
24.26455	6504.545		-97.30502	
24.31854	6498.925		-97.29646	
24.37253	6493.352		-97.28519	
24.42652	6487.837		-97.27084	
24.48051	6482.382		-97.25303	
24.5345	6476.98		-97.23133	
24.58849	6471.623		-97.20534	
24.64248	6466.287		-97.17464	
24.69647	6460.942		-97.13885	
24.75046	6455.575		-97.0976	
24.80445	6450.191		-97.05061	
24.85843	6444.805		-96.9977	
24.91242	6439.426		-96.93879	
24.96641	6434.061		-96.87395	
25.0204	6428.713		-96.80336	
25.07439	6423.391		-96.72726	
25.12838	6418.102		-96.64597	
25.18237	6412.835		-96.55981	
25.23636	6407.578		-96.46921	
25.29035	6402.314		-96.37457	
25.34434	6397.032		-96.27637	
25.39833	6391.723		-96.17517	
25.45232	6386.386		-96.07151	
25.50631	6381.024		-95.966	
25.5603	6375.646		-95.85929	
25.61429	6370.276		-95.75211	
25.66828	6364.934		-95.64522	
25.72227	6359.635		-95.53935	
25.77625	6354.385		-95.43526	
25.83024	6349.185		-95.33361	
25.88423	6344.032		-95.23506	
25.93822	6338.923		-95.14016	
25.99221	6333.842		-95.04941	
26.0462	6328.77		-94.9632	
26.10019	6323.688		-94.88183	
26.15418	6318.588		-94.80547	
26.20817	6313.478		-94.73427	
26.26216	6308.361		-94.66827	
26.31615	6303.26		-94.60744	
26.37014	6298.203		-94.55169	
26.42413	6293.221		-94.50082	
26.47812	6288.338		-94.45457	
26.53211	6283.573		-94.41261	
26.5861	6278.929		-94.37461	
26.64009	6274.381		-94.34027	
26.69407	6269.891		-94.30924	
26.74806	6265.414		-94.28121	
26.80205	6260.912		-94.25585	
26.85604	6256.362		-94.23287	
26.91003	6251.748		-94.21201	
26.96402	6247.065		-94.19308	
27.01801	6242.313		-94.17594	
27.072	6237.498		-94.16051	
27.12599	6232.625		-94.14677	
27.17998	6227.695		-94.13467	
27.23397	6222.724		-94.12425	
27.28796	6217.722		-94.11555	
27.34195	6212.7		-94.1087	
27.39594	6207.662		-94.10381	
27.44993	6202.602		-94.10092	
27.50392	6197.499		-94.10006	
27.55791	6192.328		-94.10115	
27.61189	6187.078		-94.10406	
27.66588	6181.739		-94.10857	
27.71987	6176.32		-94.11438	
27.77386	6170.84		-94.12112	
27.82785	6165.315		-94.12843	
27.88184	6159.765		-94.13589	
27.93583	6154.213		-94.14307	
27.98982	6148.681		-94.14957	
28.04381	6143.189		-94.15494	
28.0978	6137.751		-94.15872	
28.15179	6132.373		-94.16045	
28.20578	6127.048		-94.15962	
28.25977	6121.766		-94.15575	
28.31376	6116.516		-94.14831	
28.36775	6111.289		-94.13676	
28.42174	6106.083		-94.12059	
28.47573	6100.902		-94.0993	
28.52971	6095.754		-94.0724	
28.5837	6090.638		-94.03952	
28.63769	6085.561		-94.00035	
28.69168	6080.517		-93.95475	
28.74567	6075.493		-93.90266	
28.79966	6070.469		-93.84417	
28.85365	6065.433		-93.77951	
28.90764	6060.38		-93.70904	
28.96163	6055.313		-93.6332	
29.01562	6050.242		-93.55254	
29.06961	6045.172		-93.46762	
29.1236	6040.099		-93.37904	
29.17759	6035.019		-93.28741	
29.23158	6029.93		-93.19333	
29.28557	6024.829		-93.0974	
29.33956	6019.723		-93.00022	
29.39355	6014.623		-92.90241	
29.44754	6009.538		-92.80457	
29.50153	6004.473		-92.70726	
29.55552	5999.438		-92.611	
29.6095	5994.434		-92.51627	
29.66349	5989.462		-92.42347	
29.71748	5984.53		-92.33292	
29.77147	5979.645		-92.24493	
29.82546	5974.807		-92.15978	
29.87945	5970.006		-92.07774	
29.93344	5965.232		-91.99905	
29.98743	5960.48		-91.92397	
30.04142	5955.747		-91.85278	
30.09541	5951.024		-91.78576	
30.1494	5946.309		-91.7232	
30.20339	5941.6		-91.66538	
30.25738	5936.901		-91.61255	
30.31137	5932.205		-91.56491	
30.36536	5927.499		-91.52261	
30.41935	5922.778		-91.48569	
30.47334	5918.04		-91.45419	
30.52732	5913.282		-91.42802	
30.58131	5908.51		-91.40706	
30.6353	5903.733		-91.39117	
30.68929	5898.958		-91.38017	
30.74328	5894.188		-91.37394	
30.79727	5889.416		-91.3724	
30.85126	5884.626		-91.37551	
30.90525	5879.799		-91.38328	
30.95924	5874.921		-91.3957	
31.01323	5869.985		-91.41276	
31.06722	5864.988		-91.43439	
31.12121	5859.934		-91.46042	
31.1752	5854.824		-91.49057	
31.22919	5849.667		-91.52446	
31.28318	5844.482		-91.56158	
31.33717	5839.289		-91.6013	
31.39116	5834.099		-91.64291	
31.44514	5828.921		-91.68563	
31.49913	5823.764		-91.72863	
31.55312	5818.631		-91.77103	
31.60711	5813.522		-91.8119	
31.6611	5808.435		-91.85031	
31.71509	5803.369		-91.88527	
31.76908	5798.323		-91.91584	
31.82307	5793.297		-91.94115	
31.87706	5788.297		-91.96039	
31.93105	5783.331		-91.9729	
31.98504	5778.404		-91.97815	
32.03903	5773.51		-91.97573	
32.09302	5768.633		-91.96541	
32.14701	5763.763		-91.94709	
32.201	5758.896		-91.92084	
32.25499	5754.036		-91.88685	
32.30898	5749.18		-91.84547	
32.36296	5744.332		-91.79715	
32.41695	5739.489		-91.74239	
32.47094	5734.641		-91.68172	
32.52493	5729.772		-91.61573	
32.57892	5724.864		-91.54497	
32.63291	5719.898		-91.46999	
32.6869	5714.859		-91.3914	
32.74089	5709.749		-91.30979	
32.79488	5704.583		-91.22582	
32.84887	5699.382		-91.14012	
32.90286	5694.162		-91.05331	
32.95685	5688.936		-90.966	
33.01084	5683.72		-90.87878	
33.06483	5678.528		-90.79218	
33.11882	5673.369		-90.70668	
33.17281	5668.242		-90.6227	
33.2268	5663.144		-90.54059	
33.28078	5658.065		-90.46055	
33.33477	5652.994		-90.38273	
33.38876	5647.919		-90.30714	
33.44275	5642.847		-90.23376	
33.49674	5637.793		-90.16251	
33.55073	5632.777		-90.09326	
33.60472	5627.82		-90.02585	
33.65871	5622.947		-89.96001	
33.7127	5618.173		-89.89545	
33.76669	5613.5		-89.83183	
33.82068	5608.918		-89.76886	
33.87467	5604.419		-89.70627	
33.92866	5599.995		-89.64383	
33.98265	5595.627		-89.58138	
34.03664	5591.291		-89.51881	
34.09063	5586.96		-89.4561	
34.14462	5582.606		-89.39332	
34.1986	5578.203		-89.33062	
34.25259	5573.736		-89.26826	
34.30658	5569.207		-89.20662	
34.36057	5564.612		-89.14619	
34.41456	5559.957		-89.08754	
34.46855	5555.248		-89.03123	
34.52254	5550.497		-88.97783	
34.57653	5545.722		-88.92779	
34.63052	5540.938		-88.88151	
34.68451	5536.149		-88.83929	
34.7385	5531.36		-88.80138	
34.79249	5526.566		-88.76786	
34.84648	5521.752		-88.73874	
34.90047	5516.895		-88.71387	
34.95446	5511.973		-88.69301	
35.00845	5506.979		-88.67578	
35.06244	5501.927		-88.6617	
35.11642	5496.838		-88.6502	
35.17041	5491.738		-88.64063	
35.2244	5486.656		-88.6323	
35.27839	5481.608		-88.6245	
35.33238	5476.607		-88.61652	
35.38637	5471.665		-88.6077	
35.44036	5466.794		-88.59735	
35.49435	5461.998		-88.58489	
35.54834	5457.27		-88.56976	
35.60233	5452.597		-88.55142	
35.65632	5447.965		-88.52934	
35.71031	5443.362		-88.50299	
35.7643	5438.774		-88.47186	
35.81829	5434.189		-88.43546	
35.87228	5429.604		-88.39338	
35.92627	5425.015		-88.34526	
35.98026	5420.407		-88.29088	
36.03424	5415.759		-88.23013	
36.08823	5411.049		-88.16303	
36.14222	5406.267		-88.08978	
36.19621	5401.417		-88.0107	
36.2502	5396.521		-87.92628	
36.30419	5391.597		-87.83717	
36.35818	5386.66		-87.74416	
36.41217	5381.71		-87.64817	
36.46616	5376.747		-87.55021	
36.52015	5371.771		-87.45129	
36.57414	5366.781		-87.35242	
36.62813	5361.779		-87.25456	
36.68212	5356.772		-87.15863	
36.73611	5351.77		-87.06545	
36.7901	5346.776		-86.97577	
36.84409	5341.793		-86.89018	
36.89808	5336.816		-86.80914	
36.95206	5331.843		-86.73291	
37.00605	5326.887		-86.66161	
37.06004	5321.975		-86.59518	
37.11403	5317.135		-86.53345	
37.16802	5312.39		-86.4761	
37.22201	5307.746		-86.42276	
37.276	5303.202		-86.37302	
37.32999	5298.75		-86.3265	
37.38398	5294.377		-86.28279	
37.43797	5290.065		-86.24158	
37.49196	5285.795		-86.20261	
37.54595	5281.548		-86.1657	
37.59994	5277.307		-86.13072	
37.65393	5273.057		-86.09758	
37.70792	5268.793		-86.06613	
37.76191	5264.511		-86.03624	
37.8159	5260.209		-86.00774	
37.86988	5255.887		-85.98049	
37.92387	5251.546		-85.95436	
37.97786	5247.193		-85.92928	
38.03185	5242.822		-85.90521	
38.08584	5238.424		-85.88219	
38.13983	5233.998		-85.86027	
38.19382	5229.549		-85.83954	
38.24781	5225.084		-85.82013	
38.3018	5220.607		-85.80215	
38.35579	5216.111		-85.78573	
38.40978	5211.586		-85.77094	
38.46377	5207.024		-85.75784	
38.51776	5202.418		-85.74644	
38.57175	5197.758		-85.73669	
38.62574	5193.044		-85.72846	
38.67973	5188.282		-85.72161	
38.73372	5183.477		-85.71596	
38.78771	5178.643		-85.71124	
38.8417	5173.797		-85.70713	
38.89569	5168.947		-85.70319	
38.94968	5164.093		-85.69887	
39.00367	5159.229		-85.69355	
39.05766	5154.357		-85.6866	
39.11164	5149.482		-85.67735	
39.16563	5144.609		-85.66515	
39.21962	5139.749		-85.64939	
39.27361	5134.915		-85.62946	
39.3276	5130.12		-85.6048	
39.38159	5125.369		-85.57494	
39.43558	5120.669		-85.53948	
39.48957	5116.014		-85.49821	
39.54356	5111.39		-85.45103	
39.59755	5106.78		-85.39804	
39.65154	5102.169		-85.33942	
39.70553	5097.551		-85.27544	
39.75952	5092.927		-85.20645	
39.81351	5088.291		-85.13284	
39.8675	5083.638		-85.05504	
39.92149	5078.962		-84.97354	
39.97548	5074.266		-84.88887	
40.02946	5069.54		-84.80162	
40.08345	5064.779		-84.71241	
40.13744	5059.987		-84.62188	
40.19143	5055.175		-84.53066	
40.24542	5050.36		-84.43935	
40.29941	5045.563		-84.34851	
40.3534	5040.797		-84.25858	
40.40739	5036.071		-84.16998	
40.46138	5031.386		-84.08302	
40.51537	5026.74		-83.99796	
40.56936	5022.127		-83.91496	
40.62335	5017.535		-83.83411	
40.67734	5012.956		-83.75553	
40.73133	5008.386		-83.67926	
40.78532	5003.829		-83.60535	
40.83931	4999.296		-83.53384	
40.8933	4994.805		-83.46472	
40.94728	4990.367		-83.39797	
41.00127	4985.991		-83.33358	
41.05526	4981.692		-83.27155	
41.10925	4977.481		-83.2119	
41.16324	4973.366		-83.15471	
41.21723	4969.343		-83.10006	
41.27122	4965.397		-83.04808	
41.32521	4961.507		-82.99889	
41.3792	4957.647		-82.95264	
41.43319	4953.792		-82.90952	
41.48718	4949.912		-82.86974	
41.54117	4945.989		-82.83352	
41.59516	4942.003		-82.80119	
41.64915	4937.934		-82.77312	
41.70314	4933.765		-82.74969	
41.75713	4929.493		-82.73129	
41.81112	4925.122		-82.71832	
41.8651	4920.662		-82.71107	
41.91909	4916.131		-82.70981	
41.97308	4911.543		-82.7147	
42.02707	4906.905		-82.7258	
42.08106	4902.222		-82.74308	
42.13505	4897.497		-82.76643	
42.18904	4892.735		-82.79559	
42.24303	4887.952		-82.8302	
42.29702	4883.161		-82.86974	
42.35101	4878.374		-82.91352	
42.405	4873.602		-82.96072	
42.45899	4868.856		-83.01035	
42.51298	4864.14		-83.06136	
42.56697	4859.446		-83.11256	
42.62096	4854.765		-83.16275	
42.67495	4850.093		-83.21072	
42.72894	4845.435		-83.25526	
42.78292	4840.798		-83.29526	
42.83691	4836.202		-83.32961	
42.8909	4831.662		-83.35729	
42.94489	4827.18		-83.37735	
42.99888	4822.749		-83.38893	
43.05287	4818.359		-83.39129	
43.10686	4814.008		-83.38382	
43.16085	4809.689		-83.36609	
43.21484	4805.392		-83.33787	
43.26883	4801.097		-83.29907	
43.32282	4796.789		-83.2498	
43.37681	4792.444		-83.19029	
43.4308	4788.043		-83.1209	
43.48479	4783.582		-83.04208	
43.53878	4779.058		-82.95438	
43.59277	4774.469		-82.85851	
43.64676	4769.812		-82.7553	
43.70074	4765.084		-82.64572	
43.75473	4760.292		-82.53084	
43.80872	4755.452		-82.41176	
43.86271	4750.586		-82.28967	
43.9167	4745.719		-82.1657	
43.97069	4740.873		-82.04099	
44.02468	4736.07		-81.91653	
44.07867	4731.322		-81.79327	
44.13266	4726.627		-81.67201	
44.18665	4721.971		-81.55344	
44.24064	4717.343		-81.43806	
44.29463	4712.733		-81.32633	
44.34862	4708.143		-81.2185	
44.40261	4703.585		-81.11468	
44.4566	4699.078		-81.01483	
44.51059	4694.641		-80.91879	
44.56458	4690.287		-80.82626	
44.61856	4686.022		-80.73692	
44.67255	4681.836		-80.65041	
44.72654	4677.716		-80.56631	
44.78053	4673.646		-80.4843	
44.83452	4669.619		-80.40398	
44.88851	4665.628		-80.32501	
44.9425	4661.671		-80.24703	
44.99649	4657.743		-80.16973	
45.05048	4653.833		-80.09283	
45.10447	4649.938		-80.01611	
45.15846	4646.048		-79.93942	
45.21245	4642.153		-79.86272	
45.26644	4638.245		-79.78608	
45.32043	4634.315		-79.70963	
45.37442	4630.357		-79.63365	
45.42841	4626.368		-79.55847	
45.4824	4622.348		-79.48451	
45.53638	4618.295		-79.41227	
45.59037	4614.207		-79.34232	
45.64436	4610.08		-79.27533	
45.69835	4605.903		-79.21194	
45.75234	4601.668		-79.15281	
45.80633	4597.37		-79.09851	
45.86032	4593.004		-79.04958	
45.91431	4588.575		-79.00642	
45.9683	4584.099		-78.96935	
46.02229	4579.599		-78.93851	
46.07628	4575.099		-78.91397	
46.13027	4570.614		-78.89555	
46.18426	4566.148		-78.88292	
46.23825	4561.701		-78.87559	
46.29224	4557.265		-78.87293	
46.34623	4552.834		-78.87418	
46.40022	4548.397		-78.87848	
46.4542	4543.947		-78.88489	
46.50819	4539.489		-78.89243	
46.56218	4535.039		-78.90013	
46.61617	4530.611		-78.90703	
46.67016	4526.222		-78.91217	
46.72415	4521.876		-78.91467	
46.77814	4517.579		-78.9137	
46.83213	4513.321		-78.90855	
46.88612	4509.092		-78.89857	
46.94011	4504.887		-78.88323	
46.9941	4500.703		-78.8621	
47.04809	4496.534		-78.83481	
47.10208	4492.376		-78.80111	
47.15607	4488.218		-78.7608	
47.21006	4484.05		-78.71376	
47.26405	4479.861		-78.6599	
47.31804	4475.645		-78.59921	
47.37202	4471.395		-78.53181	
47.42601	4467.111		-78.45793	
47.48	4462.8		-78.37794	
47.53399	4458.469		-78.29237	
47.58798	4454.124		-78.20187	
47.64197	4449.772		-78.1072	
47.69596	4445.419		-78.00919	
47.74995	4441.07		-77.90871	
47.80394	4436.724		-77.80666	
47.85793	4432.386		-77.70393	
47.91192	4428.058		-77.60136	
47.96591	4423.734		-77.49978	
48.0199	4419.41		-77.39989	
48.07389	4415.086		-77.30232	
48.12788	4410.765		-77.20757	
48.18187	4406.451		-77.11596	
48.23586	4402.157		-77.02774	
48.28984	4397.897		-76.94299	
48.34383	4393.686		-76.86171	
48.39782	4389.525		-76.78382	
48.45181	4385.416		-76.70919	
48.5058	4381.354		-76.63766	
48.55979	4377.337		-76.56907	
48.61378	4373.359		-76.50323	
48.66777	4369.421		-76.43996	
48.72176	4365.521		-76.3791	
48.77575	4361.655		-76.32052	
48.82974	4357.812		-76.26415	
48.88373	4353.982		-76.21002	
48.93772	4350.158		-76.15821	
48.99171	4346.334		-76.10892	
49.0457	4342.5		-76.06236	
49.09969	4338.639		-76.01884	
49.15368	4334.743		-75.97863	
49.20766	4330.811		-75.94196	
49.26165	4326.843		-75.909	
49.31564	4322.841		-75.87988	
49.36963	4318.804		-75.85468	
49.42362	4314.739		-75.8334	
49.47761	4310.659		-75.8161	
49.5316	4306.572		-75.80276	
49.58559	4302.481		-75.79337	
49.63958	4298.385		-75.78789	
49.69357	4294.275		-75.78624	
49.74756	4290.145		-75.78836	
49.80155	4286.002		-75.79417	
49.85554	4281.862		-75.80354	
49.90953	4277.736		-75.81636	
49.96352	4273.62		-75.83248	
50.01751	4269.514		-75.85171	
50.0715	4265.413		-75.87379	
50.12548	4261.303		-75.89842	
50.17947	4257.175		-75.92519	
50.23346	4253.024		-75.95361	
50.28745	4248.852		-75.98313	
50.34144	4244.665		-76.01308	
50.39543	4240.478		-76.04272	
50.44942	4236.306		-76.07124	
50.50341	4232.163		-76.09775	
50.5574	4228.048		-76.12135	
50.61139	4223.963		-76.14118	
50.66538	4219.902		-76.15639	
50.71937	4215.854		-76.16621	
50.77336	4211.802		-76.16998	
50.82735	4207.735		-76.16712	
50.88134	4203.642		-76.15721	
50.93533	4199.525		-76.13993	
50.98932	4195.391		-76.11512	
51.0433	4191.243		-76.08274	
51.09729	4187.079		-76.04289	
51.15128	4182.895		-75.99576	
51.20527	4178.693		-75.94162	
51.25927	4174.475		-75.88084	
51.31326	4170.244		-75.8138	
51.36724	4166.004		-75.74099	
51.42123	4161.761		-75.66286	
51.47522	4157.52		-75.57992	
51.52921	4153.286		-75.49263	
51.5832	4149.06		-75.40142	
51.63719	4144.841		-75.30671	
51.69118	4140.622		-75.20887	
51.74517	4136.402		-75.1083	
51.79916	4132.179		-75.00539	
51.85315	4127.962		-74.90053	
51.90714	4123.753		-74.7941	
51.96113	4119.552		-74.68654	
52.01512	4115.364		-74.57826	
52.06911	4111.194		-74.46973	
52.1231	4107.045		-74.36139	
52.17709	4102.924		-74.25363	
52.23108	4098.829		-74.14685	
52.28506	4094.761		-74.04136	
52.33905	4090.713		-73.93744	
52.39304	4086.691		-73.83526	
52.44703	4082.697		-73.73492	
52.50102	4078.733		-73.63647	
52.55501	4074.801		-73.53986	
52.609	4070.903		-73.44506	
52.66299	4067.036		-73.35203	
52.71698	4063.204		-73.26072	
52.77097	4059.41		-73.17114	
52.82496	4055.649		-73.08331	
52.87895	4051.914		-72.99728	
52.93294	4048.21		-72.9132	
52.98693	4044.536		-72.83122	
53.04092	4040.884		-72.75159	
53.09491	4037.238		-72.67457	
53.1489	4033.581		-72.60042	
53.20288	4029.896		-72.52939	
53.25687	4026.171		-72.46172	
53.31086	4022.406		-72.39761	
53.36485	4018.604		-72.33726	
53.41884	4014.776		-72.28083	
53.47283	4010.93		-72.22848	
53.52682	4007.074		-72.18029	
53.58081	4003.219		-72.13631	
53.6348	3999.372		-72.09648	
53.68879	3995.541		-72.06072	
53.74278	3991.73		-72.02889	
53.79677	3987.946		-72.00079	
53.85076	3984.186		-71.97617	
53.90475	3980.436		-71.95475	
53.95874	3976.681		-71.9362	
54.01273	3972.908		-71.92014	
54.06672	3969.105		-71.90614	
54.1207	3965.268		-71.89372	
54.17469	3961.396		-71.88237	
54.22868	3957.489		-71.87152	
54.28267	3953.542		-71.8606	
54.33666	3949.556		-71.84899	
54.39065	3945.538		-71.83611	
54.44464	3941.503		-71.82137	
54.49863	3937.469		-71.8042	
54.55262	3933.447		-71.7841	
54.60661	3929.445		-71.76059	
54.6606	3925.467		-71.73327	
54.71459	3921.515		-71.70177	
54.76858	3917.585		-71.66579	
54.82257	3913.667		-71.62509	
54.87656	3909.757		-71.57954	
54.93055	3905.86		-71.52904	
54.98454	3901.969		-71.47362	
55.03852	3898.076		-71.41333	
55.09251	3894.171		-71.3483	
55.1465	3890.242		-71.27866	
55.20049	3886.281		-71.20457	
55.25448	3882.286		-71.12627	
55.30847	3878.26		-71.04398	
55.36246	3874.215		-70.95801	
55.41645	3870.161		-70.86868	
55.47044	3866.112		-70.77641	
55.52443	3862.072		-70.68157	
55.57842	3858.042		-70.5846	
55.63241	3854.024		-70.48589	
55.6864	3850.026		-70.38579	
55.74039	3846.063		-70.28468	
55.79438	3842.148		-70.1829	
55.84837	3838.288		-70.0808	
55.90236	3834.474		-69.97876	
55.95634	3830.692		-69.87709	
56.01033	3826.926		-69.77611	
56.06432	3823.164		-69.67611	
56.11831	3819.392		-69.57735	
56.1723	3815.607		-69.48004	
56.22629	3811.813		-69.38435	
56.28028	3808.017		-69.29037	
56.33427	3804.234		-69.19816	
56.38826	3800.48		-69.10767	
56.44225	3796.772		-69.01881	
56.49624	3793.123		-68.93147	
56.55023	3789.545		-68.84554	
56.60422	3786.045		-68.76089	
56.65821	3782.617		-68.67744	
56.7122	3779.25		-68.59511	
56.76619	3775.929		-68.51385	
56.82018	3772.632		-68.43367	
56.87416	3769.344		-68.3546	
56.92815	3766.05		-68.27673	
56.98214	3762.729		-68.20019	
57.03613	3759.364		-68.12511	
57.09012	3755.938		-68.05164	
57.14411	3752.445		-67.97997	
57.1981	3748.883		-67.91031	
57.25209	3745.257		-67.8429	
57.30608	3741.579		-67.77802	
57.36007	3737.865		-67.71598	
57.41406	3734.139		-67.65705	
57.46805	3730.425		-67.60152	
57.52204	3726.74		-67.54954	
57.57603	3723.088		-67.50123	
57.63002	3719.467		-67.45657	
57.68401	3715.869		-67.41544	
57.738	3712.277		-67.37763	
57.79198	3708.675		-67.34284	
57.84597	3705.048		-67.31071	
57.89996	3701.382		-67.28083	
57.95395	3697.669		-67.2527	
58.00794	3693.912		-67.22581	
58.06193	3690.117		-67.1996	
58.11592	3686.296		-67.17355	
58.16991	3682.459		-67.14711	
58.2239	3678.622		-67.11978	
58.27789	3674.803		-67.09107	
58.33188	3671.016		-67.06048	
58.38587	3667.268		-67.02748	
58.43986	3663.557		-66.99147	
58.49385	3659.879		-66.95183	
58.54784	3656.227		-66.90788	
58.60183	3652.582		-66.85892	
58.65582	3648.929		-66.80426	
58.7098	3645.254		-66.74317	
58.76379	3641.556		-66.67497	
58.81778	3637.839		-66.59904	
58.87177	3634.114		-66.51485	
58.92576	3630.398		-66.42199	
58.97975	3626.705		-66.32024	
59.03374	3623.041		-66.20951	
59.08773	3619.407		-66.08988	
59.14172	3615.801		-65.96158	
59.19571	3612.222		-65.82497	
59.2497	3608.671		-65.68055	
59.30369	3605.143		-65.52891	
59.35768	3601.628		-65.37072	
59.41167	3598.117		-65.20666	
59.46566	3594.596		-65.03745	
59.51965	3591.058		-64.86376	
59.57364	3587.499		-64.68625	
59.62762	3583.928		-64.50551	
59.68161	3580.355		-64.32208	
59.7356	3576.787		-64.13645	
59.78959	3573.233		-63.94904	
59.84358	3569.696		-63.76019	
59.89757	3566.176		-63.57018	
59.95156	3562.673		-63.37922	
60.00555	3559.185		-63.18748	
60.05954	3555.705		-62.99511	
60.11353	3552.221		-62.80221	
60.16752	3548.726		-62.60885	
60.22151	3545.221		-62.4151	
60.2755	3541.717		-62.22098	
60.32949	3538.221		-62.02653	
60.38348	3534.745		-61.83173	
60.43747	3531.305		-61.63652	
60.49146	3527.927		-61.4408	
60.54544	3524.628		-61.24438	
60.59943	3521.413		-61.04703	
60.65342	3518.275		-60.84843	
60.70741	3515.202		-60.64821	
60.7614	3512.176		-60.44597	
60.81539	3509.175		-60.24129	
60.86938	3506.179		-60.03378	
60.92337	3503.176		-59.82308	
60.97736	3500.16		-59.60888	
61.03135	3497.133		-59.39091	
61.08534	3494.096		-59.16899	
61.13933	3491.053		-58.94298	
61.19332	3488.007		-58.71282	
61.24731	3484.961		-58.47851	
61.3013	3481.919		-58.2401	
61.35529	3478.884		-57.99767	
61.40928	3475.851		-57.75127	
61.46326	3472.806		-57.50098	
61.51725	3469.73		-57.24678	
61.57124	3466.613		-56.98857	
61.62523	3463.451		-56.72619	
61.67922	3460.251		-56.45935	
61.73321	3457.019		-56.18768	
61.7872	3453.766		-55.91071	
61.84119	3450.504		-55.62785	
61.89518	3447.246		-55.33846	
61.94917	3444.009		-55.04181	
62.00316	3440.804		-54.73716	
62.05715	3437.633		-54.42375	
62.11114	3434.499		-54.10082	
62.16513	3431.404		-53.76756	
62.21912	3428.348		-53.42316	
62.27311	3425.329		-53.06673	
62.3271	3422.34		-52.69736	
62.38108	3419.371		-52.31408	
62.43507	3416.418		-51.91591	
62.48906	3413.48		-51.5018	
62.54305	3410.555		-51.07072	
62.59704	3407.64		-50.6216	
62.65103	3404.737		-50.15342	
62.70502	3401.855		-49.66513	
62.75901	3399.013		-49.15583	
62.813	3396.22		-48.62459	
62.86699	3393.479		-48.07063	
62.92098	3390.783		-47.49318	
62.97497	3388.127		-46.89162	
63.02896	3385.5		-46.26529	
63.08295	3382.895		-45.61367	
63.13694	3380.306		-44.93621	
63.19093	3377.729		-44.23255	
63.24492	3375.158		-43.50227	
63.2989	3372.598		-42.74514	
63.35289	3370.054		-41.96091	
63.40688	3367.528		-41.14951	
63.46087	3365.015		-40.31081	
63.51486	3362.515		-39.44484	
63.56885	3360.036		-38.55151	
63.62284	3357.585		-37.63082	
63.67683	3355.167		-36.68262	
63.73082	3352.783		-35.70684	
63.78481	3350.433		-34.70317	
63.8388	3348.125		-33.67152	
63.89279	3345.873		-32.61145	
63.94678	3343.692		-31.52251	
64.00077	3341.592		-30.40418	
64.05476	3339.582		-29.25596	
64.10875	3337.663		-28.07692	
64.16273	3335.833		-26.86678	
64.21673	3334.088		-25.62441	
64.27071	3332.421		-24.34946	
64.32471	3330.832		-23.04066	
64.37869	3329.328		-21.69755	
64.43269	3327.917		-20.31871	
64.48667	3326.605		-18.90354	
64.54066	3325.39		-17.45042	
64.59465	3324.262		-15.95858	
64.64864	3323.21		-14.42626	
64.70263	3322.228		-12.85262	
64.75662	3321.32		-11.23579	
64.81061	3320.493		-9.574978	
64.8646	3319.756		-7.868288	
64.91859	3319.112		-6.114963	
64.97258	3318.567		-4.313093	
65.02657	3318.122		-2.461917	
65.08056	3317.778		-0.559442	
65.13454	3317.533		1.395111	
65.18854	3317.373		3.403815	
65.24252	3317.291		5.467455	
65.29652	3317.287		7.588175	
65.3505	3317.361		9.766764	
65.4045	3317.509		12.00545	
65.45848	3317.721		14.30505	
65.51247	3317.997		16.66788	
65.56646	3318.354		19.09477	
65.62045	3318.814		21.58816	
65.67444	3319.389		24.14886	
65.72843	3320.088		26.77943	
65.78242	3320.923		29.48074	
65.83641	3321.904		32.25549	
65.8904	3323.035		35.10461	
65.94439	3324.313		38.03106	
65.99837	3325.73		41.03592	
66.05237	3327.284		44.12236	
66.10635	3328.972		47.29157	
66.16035	3330.802		50.54695	
66.21433	3332.775		53.88981	
66.26833	3334.893		57.32377	
66.32231	3337.152		60.85023	
66.3763	3339.556		64.47292	
66.43029	3342.117		68.19343	
66.48428	3344.852		72.01556	
66.53827	3347.774		75.94102	
66.59226	3350.896		79.9738	
66.64625	3354.222		84.11568	
66.70024	3357.762		88.37079	
66.75423	3361.518		92.74094	
66.80822	3365.498		97.23037	
66.86221	3369.694		101.8408	
66.9162	3374.107		106.5766	
66.97018	3378.737		111.4395	
67.02418	3383.597		116.434	
67.07816	3388.706		121.5617	
67.13216	3394.08		126.8272	
67.18614	3399.729		132.2323	
67.24014	3405.667		137.7815	
67.29412	3411.896		143.4763	
67.34811	3418.423		149.3215	
67.4021	3425.245		155.3183	
67.45609	3432.357		161.4714	
67.51008	3439.76		167.782	
67.56407	3447.472		174.2541	
67.61806	3455.505		180.889	
67.67205	3463.873		187.6903	
67.72604	3472.587		194.6586	
67.78003	3481.663		201.7969	
67.83401	3491.114		209.1052	
67.88801	3500.959		216.5857	
67.94199	3511.203		224.2374	
67.99599	3521.858		232.0615	
68.04997	3532.926		240.0558	
68.10397	3544.414		248.2205	
68.15795	3556.319		256.5519	
68.21194	3568.645		265.0491	
68.26593	3581.387		273.7069	
68.31992	3594.548		282.5232	
68.37391	3608.126		291.4914	
68.4279	3622.132		300.6081	
68.48189	3636.582		309.8658	
68.53588	3651.499		319.2602	
68.58987	3666.901		328.7825	
68.64386	3682.815		338.4277	
68.69785	3699.262		348.1862	
68.75184	3716.276		358.0522	
68.80582	3733.875		368.0151	
68.85982	3752.079		378.0686	
68.9138	3770.889		388.2013	
68.9678	3790.315		398.4063	
69.02178	3810.359		408.6715	
69.07578	3831.032		418.9893	
69.12976	3852.339		429.3468	
69.18375	3874.295		439.7359	
69.23774	3896.912		450.1428	
69.29173	3920.214		460.5588	
69.34572	3944.214		470.969	
69.39971	3968.931		481.364	
69.4537	3994.373		491.7282	
69.50769	4020.559		502.0515	
69.56168	4047.5		512.3175	
69.61567	4075.222		522.5153	
69.66965	4103.735		532.6275	
69.72365	4133.063		542.6428	
69.77763	4163.21		552.5428	
69.83163	4194.19		562.3154	
69.88561	4225.997		571.9415	
69.93961	4258.636		581.4079	
69.99359	4292.092		590.6946	
70.04758	4326.367		599.7875	
70.10158	4361.445		608.6667	
70.15556	4397.302		617.3134	
70.20956	4433.93		625.71	
70.26354	4471.288		633.8361	
70.31754	4509.352		641.6731	
70.37152	4548.075		649.2003	
70.42551	4587.434		656.3984	
70.4795	4627.366		663.2474	
70.53349	4667.83		669.7279	
70.58748	4708.756		675.8208	
70.64147	4750.105		681.5075	
70.69546	4791.813		686.7705	
70.74945	4833.843		691.5927	
70.80344	4876.137		695.9587	
70.85743	4918.665		699.8531	
70.91142	4961.384		703.2637	
70.96541	5004.298		706.1774	
71.01939	5047.4		708.5849	
71.07339	5090.715		710.4759	
71.12737	5134.245		711.8446	
71.18137	5178.011		712.6837	
71.23535	5222		712.9909	
71.28934	5266.22		712.7618	
71.34333	5310.635		711.9982	
71.39732	5355.231		710.6982	
71.45131	5399.971		708.8673	
71.5053	5444.84		706.5068	
71.55929	5489.791		703.6254	
71.61328	5534.787		700.2273	
71.66727	5579.771		696.3243	
71.72126	5624.704		691.9233	
71.77525	5669.521		687.0391	
71.82924	5714.165		681.6808	
71.88322	5758.547		675.8658	
71.93722	5802.607		669.6052	
71.9912	5846.277		662.9185	
72.0452	5889.515		655.8181	
72.09918	5932.248		648.3251	
72.15318	5974.403		640.4527	
72.20716	6015.873		632.2228	
72.26115	6056.563		623.6495	
72.31514	6096.365		614.7549	
72.36913	6135.206		605.5533	
72.42312	6173		596.0669	
72.47711	6209.687		586.3099	
72.5311	6245.203		576.3044	
72.58509	6279.522		566.0645	
72.63908	6312.615		555.6121	
72.69307	6344.484		544.9611	
72.74706	6375.124		534.1327	
72.80105	6404.558		523.1415	
72.85503	6432.802		512.0084	
72.90903	6459.898		500.7479	
72.96301	6485.871		489.3808	
73.01701	6510.755		477.9216	
73.07099	6534.575		466.3914	
73.12498	6557.367		454.8047	
73.17897	6579.158		443.1825	
73.23296	6599.996		431.5396	
73.28695	6619.909		419.8972	
73.34094	6638.92		408.2698	
73.39493	6657.041		396.6786	
73.44892	6674.298		385.1377	
73.50291	6690.714		373.6679	
73.5569	6706.321		362.2827	
73.61089	6721.161		351.0017	
73.66488	6735.298		339.8377	
73.71886	6748.81		328.8094	
73.77286	6761.779		317.9285	
73.82684	6774.262		307.2122	
73.88084	6786.304		296.6709	
73.93482	6797.929		286.3203	
73.98882	6809.156		276.1693	
74.0428	6820.002		266.2314	
74.09679	6830.49		256.5137	
74.15078	6840.631		247.0279	
74.20477	6850.435		237.7789	
74.25876	6859.895		228.7761	
74.31275	6869.021		220.0225	
74.36674	6877.817		211.5249	
74.42073	6886.304		203.2841	
74.47472	6894.492		195.3044	
74.52871	6902.4		187.5843	
74.5827	6910.038		180.1253	
74.63669	6917.428		172.9237	
74.69067	6924.579		165.9786	
74.74467	6931.505		159.284	
74.79865	6938.21		152.8369	
74.85265	6944.7		146.6296	
74.90663	6950.964		140.6572	
74.96062	6956.999		134.9108	
75.01461	6962.81		129.3842	
75.0686	6968.411		124.0677	
75.12259	6973.803		118.9543	
75.17658	6978.994		114.034	
75.23057	6983.986		109.2997	
75.28456	6988.786		104.7415	
75.33855	6993.399		100.3523	
75.39254	6997.847		96.12238	
75.44653	7002.14		92.04494	
75.50052	7006.278		88.1109	
75.5545	7010.255		84.31361	
75.6085	7014.057		80.64451	
75.66248	7017.668		77.09745	
75.71648	7021.079		73.66453	
75.77046	7024.277		70.34012	
75.82446	7027.269		67.11707	
75.87844	7030.071		63.99041	
75.93243	7032.707		60.95369	
75.98642	7035.19		58.00252	
76.04041	7037.523		55.13116	
76.0944	7039.694		52.33587	
76.14839	7041.703		49.61172	
76.20238	7043.551		46.95567	
76.25637	7045.251		44.36354	
76.31036	7046.817		41.83303	
76.36435	7048.264		39.36084	
76.41833	7049.603		36.94543	
76.47233	7050.84		34.58432	
76.52631	7051.97		32.27666	
76.58031	7052.995		30.02063	
76.63429	7053.916		27.81594	
76.68829	7054.741		25.66125	
76.74227	7055.492		23.55663	
76.79626	7056.194		21.50105	
76.85025	7056.865		19.49475	
76.90424	7057.509		17.53686	
76.95823	7058.125		15.62771	
77.01222	7058.709		13.76657	
77.06621	7059.263		11.95383	
77.1202	7059.779		10.18893	
77.17419	7060.236		8.472307	
77.22818	7060.602		6.803496	
77.28217	7060.848		5.182992	
77.33616	7060.953		3.610383	
77.39014	7060.917		2.08619	
77.44414	7060.748		0.6101091	
77.49812	7060.457		-0.817277	
77.55212	7060.058		-2.196222	
77.6061	7059.573		-3.526187	
77.6601	7059.025		-4.807408	
77.71408	7058.431		-6.039388	
77.76807	7057.796		-7.222376	
77.82206	7057.119		-8.355982	
77.87605	7056.391		-9.440568	
77.93004	7055.614		-10.47599	
77.98403	7054.796		-11.46288	
78.03802	7053.927		-12.40141	
78.09201	7052.983		-13.29249	
78.146	7051.936		-14.13663	
78.19999	7050.772		-14.93506	
78.25397	7049.489		-15.6887	
78.30797	7048.089		-16.39907	
78.36195	7046.592		-17.06739	
78.41595	7045.019		-17.69532	
78.46993	7043.39		-18.28417	
78.52393	7041.72		-18.83551	
78.57791	7040.018		-19.35047	
78.6319	7038.29		-19.83046	
78.68589	7036.545		-20.27656	
78.73988	7034.786		-20.69015	
78.79387	7032.999		-21.07229	
78.84786	7031.169		-21.42428	
78.90185	7029.295		-21.7472	
78.95584	7027.377		-22.0423	
79.00983	7025.429		-22.31066	
79.06382	7023.468		-22.55351	
79.11781	7021.523		-22.77191	
79.1718	7019.621		-22.96701	
79.22578	7017.777		-23.13979	
79.27978	7015.992		-23.2913	
79.33376	7014.266		-23.42239	
79.38776	7012.597		-23.5339	
79.44174	7010.983		-23.62646	
79.49574	7009.416		-23.70061	
79.54972	7007.887		-23.7567	
79.60371	7006.391		-23.79498	
79.6577	7004.928		-23.81554	
79.71169	7003.508		-23.81833	
79.76568	7002.142		-23.80318	
79.81967	7000.828		-23.76985	
79.87366	6999.567		-23.71817	
79.92765	6998.362		-23.64798	
79.98164	6997.224		-23.55923	
80.03563	6996.169		-23.45196	
80.08961	6995.203		-23.32638	
80.14361	6994.318		-23.18286	
80.19759	6993.507		-23.02203	
80.25159	6992.755		-22.84461	
80.30557	6992.051		-22.65163	
80.35957	6991.388		-22.44418	
80.41355	6990.751		-22.22363	
80.46754	6990.115		-21.99134	
80.52153	6989.451		-21.74894	
80.57552	6988.737		-21.49795	
80.62951	6987.964		-21.24014	
80.6835	6987.14		-20.97717	
80.73749	6986.267		-20.71099	
80.79148	6985.351		-20.44338	
80.84547	6984.397		-20.17636	
80.89946	6983.411		-19.91178	
80.95345	6982.399		-19.65167	
81.00744	6981.363		-19.39787	
81.06142	6980.305		-19.15244	
81.11542	6979.235		-18.91719	
81.1694	6978.152		-18.69412	
81.2234	6977.034		-18.48499	
81.27738	6975.853		-18.29165	
81.33138	6974.59		-18.1157	
81.38536	6973.237		-17.95877	
81.43935	6971.792		-17.8222	
81.49334	6970.263		-17.70732	
81.54733	6968.654		-17.61513	
81.60132	6966.982		-17.54654	
81.65531	6965.279		-17.50211	
81.7093	6963.603		-17.48226	
81.76329	6962.009		-17.48713	
81.81728	6960.552		-17.51677	
81.87127	6959.263		-17.571	
81.92525	6958.157		-17.6496	
81.97925	6957.235		-17.75215	
82.03323	6956.49		-17.87825	
82.08723	6955.9		-18.0274	
82.14121	6955.423		-18.19916	
82.19521	6955.009		-18.39311	
82.24919	6954.618		-18.60892	
82.30318	6954.228		-18.84632	
82.35717	6953.82		-19.10518	
82.41116	6953.374		-19.38548	
82.46515	6952.886		-19.68738	
82.51914	6952.373		-20.01124	
82.57314	6951.854		-20.35772	
82.62712	6951.355		-20.72738	
82.68111	6950.896		-21.12132	
82.7351	6950.481		-21.5403	
82.78909	6950.108		-21.98569	
82.84308	6949.763		-22.45838	
82.89707	6949.419		-22.95983	
82.95106	6949.042		-23.49089	
83.00505	6948.603		-24.05301	
83.05904	6948.073		-24.64698	
83.11303	6947.429		-25.27425	
83.16702	6946.65		-25.93556	
83.22101	6945.725		-26.63235	
83.27499	6944.656		-27.36524	
83.32899	6943.456		-28.13554	
83.38297	6942.153		-28.9437	
83.43697	6940.782		-29.79089	
83.49095	6939.372		-30.6774	
83.54494	6937.937		-31.60429	
83.59893	6936.475		-32.57162	
83.65292	6934.979		-33.58014	
83.70691	6933.446		-34.62952	
83.7609	6931.87		-35.72008	
83.81489	6930.241		-36.85099	
83.86888	6928.546		-38.02206	
83.92287	6926.77		-39.23191	
83.97686	6924.901		-40.47985	
84.03085	6922.94		-41.76398	
84.08484	6920.891		-43.08319	
84.13882	6918.757		-44.43523	
84.19282	6916.546		-45.81884	
84.2468	6914.268		-47.23168	
84.3008	6911.921		-48.67246	
84.35478	6909.495		-50.13885	
84.40878	6906.973		-51.62957	
84.46276	6904.347		-53.14238	
84.51675	6901.615		-54.67613	
84.57074	6898.781		-56.22873	
84.62473	6895.844		-57.79912	
84.67872	6892.807		-59.38526	
84.73271	6889.669		-60.98613	
84.7867	6886.432		-62.59977	
84.84069	6883.094		-64.22527	
84.89468	6879.656		-65.86072	
84.94867	6876.129		-67.50528	
85.00266	6872.526		-69.15707	
85.05665	6868.842		-70.81525	
85.11063	6865.063		-72.47796	
85.16463	6861.181		-74.14433	
85.21861	6857.195		-75.81245	
85.27261	6853.099		-77.48133	
85.32659	6848.886		-79.14896	
85.38058	6844.56		-80.81426	
85.43457	6840.125		-82.47521	
85.48856	6835.591		-84.13078	
85.54255	6830.963		-85.77908	
85.59654	6826.245		-87.41924	
85.65053	6821.428		-89.04949	
85.70452	6816.507		-90.66899	
85.75851	6811.486		-92.27598	
85.8125	6806.375		-93.86961	
85.86649	6801.18		-95.44809	
85.92048	6795.903		-97.01051	
85.97446	6790.544		-98.55505	
86.02846	6785.095		-100.0807	
86.08244	6779.536		-101.5855	
86.13644	6773.853		-103.0685	
86.19042	6768.051		-104.5278	
86.24442	6762.136		-105.9626	
86.2984	6756.114		-107.3715	
86.35239	6749.993		-108.7538	
86.40638	6743.783		-110.1084	
86.46037	6737.5		-111.4353	
86.51436	6731.155		-112.7337	
86.56835	6724.752		-114.0037	
86.62234	6718.291		-115.245	
86.67633	6711.761		-116.4577	
86.73032	6705.146		-117.6416	
86.78431	6698.429		-118.797	
86.83829	6691.6		-119.9237	
86.89229	6684.655		-121.0221	
86.94627	6677.6		-122.0921	
87.00027	6670.439		-123.1341	
87.05425	6663.177		-124.148	
87.10825	6655.825		-125.134	
87.16223	6648.406		-126.0922	
87.21622	6640.946		-127.0227	
87.27021	6633.463		-127.9254	
87.3242	6625.96		-128.8005	
87.37819	6618.425		-129.6478	
87.43218	6610.848		-130.4676	
87.48617	6603.225		-131.2595	
87.54016	6595.56		-132.0239	
87.59415	6587.864		-132.7605	
87.64814	6580.149		-133.4696	
87.70213	6572.428		-134.1509	
87.75612	6564.708		-134.8048	
87.8101	6557.004		-135.4312	
87.8641	6549.33		-136.0307	
87.91808	6541.707		-136.6032	
87.97208	6534.15		-137.1493	
88.02606	6526.672		-137.6694	
88.08006	6519.251		-138.164	
88.13404	6511.868		-138.6335	
88.18803	6504.496		-139.0783	
88.24202	6497.119		-139.4988	
88.29601	6489.712		-139.8956	
88.35	6482.257		-140.2694	
88.40399	6474.741		-140.6208	
88.45798	6467.164		-140.9508	
88.51197	6459.524		-141.2602	
88.56596	6451.843		-141.5499	
88.61995	6444.151		-141.821	
88.67393	6436.479		-142.0746	
88.72793	6428.833		-142.3118	
88.78191	6421.222		-142.5336	
88.83591	6413.63		-142.7413	
88.88989	6406.042		-142.936	
88.94389	6398.42		-143.1186	
88.99787	6390.73		-143.2902	
89.05186	6382.934		-143.4518	
89.10585	6375.017		-143.604	
89.15984	6366.979		-143.7475	
89.21383	6358.855		-143.8829	
89.26782	6350.679		-144.0107	
89.32181	6342.494		-144.1312	
89.3758	6334.333		-144.2447	
89.42979	6326.23		-144.3514	
89.48378	6318.203		-144.4514	
89.53777	6310.269		-144.5446	
89.59176	6302.424		-144.6309	
89.64574	6294.667		-144.7098	
89.69974	6286.967		-144.7813	
89.75372	6279.29		-144.8448	
89.80772	6271.59		-144.9001	
89.8617	6263.839		-144.9467	
89.9157	6256.018		-144.9841	
89.96968	6248.143		-145.0118	
90.02367	6240.225		-145.0294	
90.07766	6232.282		-145.0365	
90.13165	6224.319		-145.0327	
90.18564	6216.359		-145.018	
90.23963	6208.415		-144.9922	
90.29362	6200.506		-144.9555	
90.34761	6192.642		-144.9083	
90.4016	6184.835		-144.8512	
90.45559	6177.062		-144.7847	
90.50957	6169.293		-144.7093	
90.56357	6161.497		-144.6257	
90.61755	6153.659		-144.5347	
90.67155	6145.763		-144.4366	
90.72553	6137.815		-144.3324	
90.77953	6129.814		-144.2228	
90.83351	6121.781		-144.1086	
90.8875	6113.72		-143.9906	
90.94149	6105.645		-143.8697	
90.99548	6097.564		-143.7468	
91.04947	6089.498		-143.6227	
91.10346	6081.458		-143.4983	
91.15745	6073.464		-143.3744	
91.21144	6065.523		-143.2517	
91.26543	6057.648		-143.1311	
91.31942	6049.839		-143.0132	
91.37341	6042.089		-142.8986	
91.4274	6034.377		-142.7879	
91.48138	6026.689		-142.6818	
91.53538	6019.008		-142.5805	
91.58936	6011.337		-142.4845	
91.64336	6003.681		-142.3941	
91.69734	5996.04		-142.3095	
91.75134	5988.415		-142.2308	
91.80532	5980.805		-142.1583	
91.85931	5973.208		-142.0918	
91.9133	5965.626		-142.0313	
91.96729	5958.067		-141.9768	
92.02128	5950.538		-141.928	
92.07527	5943.052		-141.8849	
92.12926	5935.623		-141.8474	
92.18325	5928.252		-141.8156	
92.23724	5920.925		-141.7894	
92.29123	5913.625		-141.7689	
92.34521	5906.338		-141.7542	
92.39921	5899.062		-141.7453	
92.45319	5891.79		-141.8315	
92.50719	5884.521		-141.9209	
92.56117	5877.252		-142.0117	
92.61517	5869.976		-142.1023	
92.66915	5862.681		-142.1922	
92.72314	5855.361		-142.2811	
92.77713	5848.001		-142.3692	
92.83112	5840.583		-142.4567	
92.88511	5833.094		-142.5439	
92.9391	5825.535		-142.6312	
92.99309	5817.917		-142.7189	
93.04708	5810.255		-142.8073	
93.10107	5802.567		-142.8966	
93.15506	5794.861		-142.9869	
93.20905	5787.126		-143.0785	
93.26304	5779.361		-143.1716	
93.31702	5771.569		-143.266	
93.37102	5763.757		-143.3622	
93.425	5755.925		-143.4599	
93.479	5748.078		-143.5594	
93.53298	5740.228		-143.6607	
93.58698	5732.385		-143.7638	
93.64096	5724.561		-143.8688	
93.69495	5716.757		-143.9757	
93.74894	5708.982		-144.0845	
93.80293	5701.244		-144.1952	
93.85692	5693.526		-144.3079	
93.91091	5685.801		-144.4225	
93.9649	5678.026		-144.539	
94.01889	5670.174		-144.6575	
94.07288	5662.13		-144.7778	
94.12687	5654.049		-144.9	
94.18085	5646.005		-145.024	
94.23485	5638.003		-145.1497	
94.28883	5630.035		-145.2771	
94.34283	5622.088		-145.4061	
94.39681	5614.158		-145.5368	
94.45081	5606.234		-145.669	
94.50479	5598.313		-145.8026	
94.55878	5590.387		-145.9377	
94.61277	5582.453		-146.0741	
94.66676	5574.505		-146.2119	
94.72075	5566.543		-146.3508	
94.77474	5558.561		-146.491	
94.82873	5550.559		-146.6323	
94.88272	5542.535		-146.7746	
94.93671	5534.495		-146.918	
94.9907	5526.439		-147.0623	
