T[Â°C]	330nm [counts / mm]	S.D.	First derivative	S.D. of first derivative
19.99939	7972.397		-118.3439	
20.05338	7965.668		-118.1193	
20.10736	7958.94		-117.895	
20.16135	7952.218		-117.6712	
20.21534	7945.501		-117.4479	
20.26933	7938.792		-117.225	
20.32332	7932.094		-117.0027	
20.37731	7925.405		-116.7811	
20.4313	7918.728		-116.5601	
20.48529	7912.062		-116.3399	
20.53928	7905.408		-116.1205	
20.59327	7898.766		-115.9019	
20.64726	7892.134		-115.6844	
20.70125	7885.512		-115.4678	
20.75524	7878.896		-115.2524	
20.80923	7872.281		-115.0381	
20.86322	7865.657		-114.8251	
20.91721	7859.015		-114.6133	
20.9712	7852.35		-114.4029	
21.02518	7845.967		-114.194	
21.07917	7839.663		-113.9866	
21.13316	7833.44		-113.7807	
21.18715	7827.291		-113.5764	
21.24114	7821.199		-113.3737	
21.29513	7815.146		-113.1728	
21.34912	7809.122		-112.9735	
21.40311	7803.114		-112.776	
21.4571	7797.109		-112.5803	
21.51109	7791.101		-112.3863	
21.56508	7785.081		-112.1941	
21.61907	7779.036		-112.0036	
21.67306	7772.966		-111.8148	
21.72705	7766.886		-111.6277	
21.78104	7760.813		-111.4421	
21.83503	7754.75		-111.2581	
21.88902	7748.695		-111.0753	
21.943	7742.651		-110.8938	
21.99699	7736.624		-110.7133	
22.05098	7730.619		-110.5336	
22.10497	7724.647		-110.3545	
22.15896	7718.719		-110.1755	
22.21295	7712.836		-109.9964	
22.26694	7706.997		-109.8167	
22.32093	7701.19		-109.636	
22.37492	7695.408		-109.4537	
22.42891	7689.637		-109.2697	
22.4829	7683.875		-109.0837	
22.53689	7678.126		-108.8963	
22.59088	7672.416		-108.7084	
22.64487	7666.774		-108.6051	
22.69886	7661.214		-108.5052	
22.75285	7655.739		-108.4084	
22.80684	7650.351		-108.3149	
22.86082	7645.031		-108.2245	
22.91481	7639.748		-108.1376	
22.9688	7634.467		-108.0543	
23.02279	7629.153		-107.975	
23.07678	7623.786		-107.9	
23.13077	7618.352		-107.8298	
23.18476	7612.849		-107.7648	
23.23875	7607.277		-107.7054	
23.29274	7601.637		-107.6519	
23.34673	7595.93		-107.6046	
23.40072	7590.158		-107.5639	
23.45471	7584.336		-107.5298	
23.5087	7578.481		-107.5025	
23.56269	7572.596		-107.482	
23.61668	7566.674		-107.4682	
23.67067	7560.714		-107.461	
23.72466	7554.715		-107.4602	
23.77865	7548.684		-107.4654	
23.83264	7542.635		-107.4763	
23.88663	7536.583		-107.4923	
23.94061	7530.539		-107.5129	
23.9946	7524.507		-107.5375	
24.04859	7518.483		-107.565	
24.10258	7512.458		-107.5948	
24.15657	7506.424		-107.6257	
24.21056	7500.375		-107.6568	
24.26455	7494.314		-107.687	
24.31854	7488.239		-107.7154	
24.37253	7482.155		-107.7408	
24.42652	7476.078		-107.7622	
24.48051	7470.022		-107.7787	
24.5345	7464.006		-107.7895	
24.58849	7458.042		-107.7938	
24.64248	7452.13		-107.7908	
24.69647	7446.273		-107.78	
24.75046	7440.482		-107.761	
24.80445	7434.769		-107.7334	
24.85843	7429.137		-107.697	
24.91242	7423.574		-107.6517	
24.96641	7418.057		-107.5978	
25.0204	7412.563		-107.5355	
25.07439	7407.065		-107.4652	
25.12838	7401.535		-107.3875	
25.18237	7395.949		-107.303	
25.23636	7390.289		-107.2124	
25.29035	7384.545		-107.1166	
25.34434	7378.716		-107.0163	
25.39833	7372.81		-106.9124	
25.45232	7366.84		-106.8059	
25.50631	7360.83		-106.6976	
25.5603	7354.808		-106.5885	
25.61429	7348.802		-106.4795	
25.66828	7342.826		-106.3715	
25.72227	7336.88		-106.2651	
25.77625	7330.965		-106.161	
25.83024	7325.077		-106.0596	
25.88423	7319.204		-105.9613	
25.93822	7313.324		-105.8661	
25.99221	7307.425		-105.7739	
26.0462	7301.502		-105.6847	
26.10019	7295.561		-105.5979	
26.15418	7289.614		-105.513	
26.20817	7283.69		-105.4295	
26.26216	7277.816		-105.3467	
26.31615	7272.006		-105.264	
26.37014	7266.274		-105.1807	
26.42413	7260.639		-105.0962	
26.47812	7255.117		-105.0101	
26.53211	7249.72		-104.9219	
26.5861	7244.447		-104.8312	
26.64009	7239.285		-104.7378	
26.69407	7234.215		-104.6413	
26.74806	7229.209		-104.5416	
26.80205	7224.225		-104.4386	
26.85604	7219.215		-104.332	
26.91003	7214.138		-104.222	
26.96402	7208.964		-104.1086	
27.01801	7203.669		-103.9919	
27.072	7198.244		-103.8723	
27.12599	7192.684		-103.7502	
27.17998	7186.997		-103.6261	
27.23397	7181.214		-103.5005	
27.28796	7175.369		-103.374	
27.34195	7169.497		-103.2471	
27.39594	7163.621		-103.1205	
27.44993	7157.756		-102.9946	
27.50392	7151.908		-102.8699	
27.55791	7146.075		-102.7467	
27.61189	7140.25		-102.6255	
27.66588	7134.413		-102.5065	
27.71987	7128.555		-102.3898	
27.77386	7122.683		-102.2754	
27.82785	7116.81		-102.1633	
27.88184	7110.941		-102.0533	
27.93583	7105.095		-101.9452	
27.98982	7099.292		-101.8388	
28.04381	7093.546		-101.7337	
28.0978	7087.869		-101.6298	
28.15179	7082.267		-101.5268	
28.20578	7076.746		-101.4244	
28.25977	7071.311		-101.3223	
28.31376	7065.963		-101.2204	
28.36775	7060.699		-101.1185	
28.42174	7055.5		-101.0163	
28.47573	7050.341		-100.9139	
28.52971	7045.194		-100.8112	
28.5837	7040.037		-100.7083	
28.63769	7034.86		-100.6053	
28.69168	7029.659		-100.5022	
28.74567	7024.422		-100.3995	
28.79966	7019.146		-100.2972	
28.85365	7013.836		-100.1959	
28.90764	7008.491		-100.0958	
28.96163	7003.116		-99.99744	
29.01562	6997.721		-99.90151	
29.06961	6992.302		-99.80868	
29.1236	6986.858		-99.71967	
29.17759	6981.393		-99.63518	
29.23158	6975.916		-99.55591	
29.28557	6970.438		-99.48248	
29.33956	6964.965		-99.41538	
29.39355	6959.506		-99.35502	
29.44754	6954.067		-99.30167	
29.50153	6948.655		-99.25546	
29.55552	6943.279		-99.21638	
29.6095	6937.932		-99.18427	
29.66349	6932.608		-99.15884	
29.71748	6927.317		-99.13968	
29.77147	6922.065		-99.1263	
29.82546	6916.853		-99.11817	
29.87945	6911.672		-99.11468	
29.93344	6906.522		-99.11516	
29.98743	6901.402		-99.11897	
30.04142	6896.312		-99.12553	
30.09541	6891.24		-99.1343	
30.1494	6886.175		-99.14481	
30.20339	6881.111		-99.15666	
30.25738	6876.048		-99.16948	
30.31137	6870.991		-99.18295	
30.36536	6865.936		-99.19676	
30.41935	6860.877		-99.21059	
30.47334	6855.803		-99.22416	
30.52732	6850.696		-99.23717	
30.58131	6845.544		-99.24936	
30.6353	6840.334		-99.26048	
30.68929	6835.051		-99.27031	
30.74328	6829.694		-99.27873	
30.79727	6824.277		-99.28567	
30.85126	6818.811		-99.29112	
30.90525	6813.305		-99.29514	
30.95924	6807.768		-99.29782	
31.01323	6802.198		-99.29932	
31.06722	6796.594		-99.29978	
31.12121	6790.95		-99.29942	
31.1752	6785.258		-99.29836	
31.22919	6779.52		-99.29668	
31.28318	6773.745		-99.2944	
31.33717	6767.95		-99.29136	
31.39116	6762.159		-99.28725	
31.44514	6756.39		-99.28163	
31.49913	6750.665		-99.27388	
31.55312	6744.99		-99.26328	
31.60711	6739.355		-99.24895	
31.6611	6733.756		-99.22994	
31.71509	6728.193		-99.20529	
31.76908	6722.674		-99.17404	
31.82307	6717.203		-99.13529	
31.87706	6711.782		-99.08824	
31.93105	6706.424		-99.03216	
31.98504	6701.136		-98.96648	
32.03903	6695.913		-98.89077	
32.09302	6690.741		-98.80478	
32.14701	6685.611		-98.70843	
32.201	6680.515		-98.60182	
32.25499	6675.432		-98.48528	
32.30898	6670.342		-98.35934	
32.36296	6665.223		-98.22466	
32.41695	6660.075		-98.08203	
32.47094	6654.906		-97.93237	
32.52493	6649.724		-97.77666	
32.57892	6644.523		-97.61595	
32.63291	6639.294		-97.45131	
32.6869	6634.021		-97.28387	
32.74089	6628.696		-97.11488	
32.79488	6623.313		-96.94556	
32.84887	6617.888		-96.77726	
32.90286	6612.44		-96.61128	
32.95685	6606.989		-96.44894	
33.01084	6601.555		-96.2915	
33.06483	6596.153		-96.14008	
33.11882	6590.788		-95.99574	
33.17281	6585.465		-95.85933	
33.2268	6580.179		-95.73157	
33.28078	6574.914		-95.61301	
33.33477	6569.662		-95.50401	
33.38876	6564.414		-95.40477	
33.44275	6559.174		-95.3153	
33.49674	6553.954		-95.23544	
33.55073	6548.765		-95.16491	
33.60472	6543.615		-95.10326	
33.65871	6538.521		-95.04994	
33.7127	6533.497		-95.0043	
33.76669	6528.548		-94.96558	
33.82068	6523.669		-94.93294	
33.87467	6518.854		-94.90549	
33.92866	6514.1		-94.88235	
33.98265	6509.391		-94.86265	
34.03664	6504.712		-94.84558	
34.09063	6500.048		-94.83038	
34.14462	6495.388		-94.81635	
34.1986	6490.714		-94.80291	
34.25259	6486.02		-94.78964	
34.30658	6481.295		-94.7763	
34.36057	6476.528		-94.76275	
34.41456	6471.709		-94.74898	
34.46855	6466.827		-94.73502	
34.52254	6461.882		-94.72095	
34.57653	6456.882		-94.70686	
34.63052	6451.841		-94.69286	
34.68451	6446.771		-94.67906	
34.7385	6441.681		-94.6656	
34.79249	6436.578		-94.65256	
34.84648	6431.458		-94.63995	
34.90047	6426.313		-94.62782	
34.95446	6421.132		-94.61618	
35.00845	6415.91		-94.60502	
35.06244	6410.647		-94.59425	
35.11642	6405.348		-94.58366	
35.17041	6400.02		-94.57298	
35.2244	6394.667		-94.56185	
35.27839	6389.285		-94.54983	
35.33238	6383.87		-94.53646	
35.38637	6378.424		-94.52127	
35.44036	6372.949		-94.50375	
35.49435	6367.451		-94.48335	
35.54834	6361.935		-94.45957	
35.60233	6356.423		-94.43188	
35.65632	6350.946		-94.39982	
35.71031	6345.528		-94.36294	
35.7643	6340.189		-94.32084	
35.81829	6334.942		-94.2731	
35.87228	6329.793		-94.21935	
35.92627	6324.734		-94.15923	
35.98026	6319.743		-94.09246	
36.03424	6314.792		-94.01884	
36.08823	6309.847		-93.93822	
36.14222	6304.871		-93.85059	
36.19621	6299.837		-93.75608	
36.2502	6294.737		-93.65497	
36.30419	6289.588		-93.54771	
36.35818	6284.418		-93.43492	
36.41217	6279.26		-93.31735	
36.46616	6274.132		-93.1959	
36.52015	6269.046		-93.07151	
36.57414	6264		-92.94522	
36.62813	6258.98		-92.81808	
36.68212	6253.982		-92.69114	
36.73611	6249.004		-92.56537	
36.7901	6244.029		-92.44166	
36.84409	6239.041		-92.32072	
36.89808	6234.013		-92.20315	
36.95206	6228.933		-92.0894	
37.00605	6223.806		-91.97987	
37.06004	6218.655		-91.87489	
37.11403	6213.504		-91.77474	
37.16802	6208.379		-91.67967	
37.22201	6203.301		-91.58986	
37.276	6198.295		-91.50549	
37.32999	6193.395		-91.42672	
37.38398	6188.615		-91.35369	
37.43797	6183.955		-91.28651	
37.49196	6179.398		-91.22528	
37.54595	6174.911		-91.17004	
37.59994	6170.462		-91.12081	
37.65393	6166.017		-91.07755	
37.70792	6161.55		-91.04013	
37.76191	6157.05		-91.00835	
37.8159	6152.516		-90.9819	
37.86988	6147.944		-90.9604	
37.92387	6143.345		-90.94342	
37.97786	6138.737		-90.93048	
38.03185	6134.135		-90.92113	
38.08584	6129.548		-90.91491	
38.13983	6124.968		-90.91146	
38.19382	6120.373		-90.91044	
38.24781	6115.733		-90.91153	
38.3018	6111.02		-90.9144	
38.35579	6106.22		-90.9187	
38.40978	6101.329		-90.92407	
38.46377	6096.354		-90.9301	
38.51776	6091.306		-90.93631	
38.57175	6086.198		-90.94218	
38.62574	6081.046		-90.94712	
38.67973	6075.87		-90.95053	
38.73372	6070.681		-90.95176	
38.78771	6065.488		-90.95015	
38.8417	6060.297		-90.94499	
38.89569	6055.112		-90.93557	
38.94968	6049.933		-90.9211	
39.00367	6044.762		-90.90084	
39.05766	6039.606		-90.87407	
39.11164	6034.467		-90.84016	
39.16563	6029.335		-90.79857	
39.21962	6024.206		-90.74886	
39.27361	6019.087		-90.69072	
39.3276	6013.996		-90.62389	
39.38159	6008.955		-90.54828	
39.43558	6003.986		-90.46386	
39.48957	5999.09		-90.37081	
39.54356	5994.244		-90.26947	
39.59755	5989.416		-90.16029	
39.65154	5984.571		-90.04381	
39.70553	5979.687		-89.92063	
39.75952	5974.761		-89.79135	
39.81351	5969.785		-89.65662	
39.8675	5964.75		-89.51709	
39.92149	5959.655		-89.37341	
39.97548	5954.513		-89.22625	
40.02946	5949.345		-89.07628	
40.08345	5944.171		-88.92425	
40.13744	5939.019		-88.7709	
40.19143	5933.913		-88.61706	
40.24542	5928.872		-88.46349	
40.29941	5923.904		-88.31097	
40.3534	5919.004		-88.16022	
40.40739	5914.157		-88.01191	
40.46138	5909.344		-87.86664	
40.51537	5904.551		-87.72492	
40.56936	5899.763		-87.58716	
40.62335	5894.971		-87.45361	
40.67734	5890.172		-87.3244	
40.73133	5885.369		-87.19961	
40.78532	5880.583		-87.0792	
40.83931	5875.841		-86.96312	
40.8933	5871.172		-86.8513	
40.94728	5866.6		-86.74367	
41.00127	5862.149		-86.64021	
41.05526	5857.836		-86.54089	
41.10925	5853.668		-86.44571	
41.16324	5849.632		-86.35473	
41.21723	5845.696		-86.26802	
41.27122	5841.816		-86.18566	
41.32521	5837.94		-86.10771	
41.3792	5834.031		-86.03427	
41.43319	5830.071		-85.96547	
41.48718	5826.046		-85.90147	
41.54117	5821.949		-85.84255	
41.59516	5817.771		-85.78905	
41.64915	5813.502		-85.74137	
41.70314	5809.14		-85.69995	
41.75713	5804.691		-85.66527	
41.81112	5800.169		-85.63782	
41.8651	5795.588		-85.6181	
41.91909	5790.968		-85.60652	
41.97308	5786.328		-85.60348	
42.02707	5781.67		-85.60921	
42.08106	5776.991		-85.62379	
42.13505	5772.271		-85.64716	
42.18904	5767.491		-85.67914	
42.24303	5762.635		-85.71941	
42.29702	5757.704		-85.76755	
42.35101	5752.702		-85.823	
42.405	5747.646		-85.88507	
42.45899	5742.562		-85.95297	
42.51298	5737.475		-86.02581	
42.56697	5732.405		-86.10265	
42.62096	5727.368		-86.18245	
42.67495	5722.378		-86.26412	
42.72894	5717.457		-86.34651	
42.78292	5712.619		-86.42841	
42.83691	5707.871		-86.50858	
42.8909	5703.213		-86.58572	
42.94489	5698.63		-86.6586	
42.99888	5694.09		-86.72601	
43.05287	5689.565		-86.78679	
43.10686	5685.035		-86.83986	
43.16085	5680.494		-86.88424	
43.21484	5675.936		-86.91908	
43.26883	5671.351		-86.9437	
43.32282	5666.737		-86.95752	
43.37681	5662.102		-86.96018	
43.4308	5657.448		-86.95147	
43.48479	5652.774		-86.93134	
43.53878	5648.082		-86.89994	
43.59277	5643.371		-86.85761	
43.64676	5638.634		-86.80483	
43.70074	5633.855		-86.74222	
43.75473	5629.022		-86.67047	
43.80872	5624.136		-86.59039	
43.86271	5619.201		-86.50285	
43.9167	5614.231		-86.40874	
43.97069	5609.244		-86.30903	
44.02468	5604.262		-86.20465	
44.07867	5599.303		-86.0965	
44.13266	5594.37		-85.98544	
44.18665	5589.462		-85.87221	
44.24064	5584.59		-85.75751	
44.29463	5579.76		-85.64201	
44.34862	5574.977		-85.52627	
44.40261	5570.257		-85.41073	
44.4566	5565.609		-85.29572	
44.51059	5561.03		-85.18147	
44.56458	5556.502		-85.06815	
44.61856	5552.013		-84.95586	
44.67255	5547.544		-84.84469	
44.72654	5543.085		-84.73466	
44.78053	5538.626		-84.62583	
44.83452	5534.161		-84.51822	
44.88851	5529.699		-84.41183	
44.9425	5525.255		-84.30667	
44.99649	5520.843		-84.20271	
45.05048	5516.475		-84.09991	
45.10447	5512.149		-83.99827	
45.15846	5507.85		-83.89774	
45.21245	5503.554		-83.79834	
45.26644	5499.243		-83.7001	
45.32043	5494.91		-83.6031	
45.37442	5490.556		-83.50748	
45.42841	5486.182		-83.41341	
45.4824	5481.788		-83.32108	
45.53638	5477.378		-83.23073	
45.59037	5472.955		-83.14262	
45.64436	5468.523		-83.05705	
45.69835	5464.078		-82.97435	
45.75234	5459.615		-82.8948	
45.80633	5455.137		-82.81866	
45.86032	5450.649		-82.74619	
45.91431	5446.16		-82.67758	
45.9683	5441.682		-82.61303	
46.02229	5437.221		-82.55263	
46.07628	5432.78		-82.49638	
46.13027	5428.356		-82.44421	
46.18426	5423.954		-82.39597	
46.23825	5419.57		-82.35139	
46.29224	5415.192		-82.31009	
46.34623	5410.816		-82.27165	
46.40022	5406.432		-82.2356	
46.4542	5402.032		-82.20139	
46.50819	5397.604		-82.16843	
46.56218	5393.149		-82.13611	
46.61617	5388.671		-82.10381	
46.67016	5384.175		-82.07088	
46.72415	5379.672		-82.03673	
46.77814	5375.171		-82.00086	
46.83213	5370.673		-81.96287	
46.88612	5366.178		-81.92245	
46.94011	5361.692		-81.87942	
46.9941	5357.237		-81.83369	
47.04809	5352.83		-81.78532	
47.10208	5348.468		-81.73439	
47.15607	5344.135		-81.68102	
47.21006	5339.813		-81.62534	
47.26405	5335.479		-81.56752	
47.31804	5331.115		-81.50774	
47.37202	5326.71		-81.44619	
47.42601	5322.261		-81.38316	
47.48	5317.768		-81.31896	
47.53399	5313.24		-81.25389	
47.58798	5308.68		-81.1883	
47.64197	5304.097		-81.12251	
47.69596	5299.504		-81.05686	
47.74995	5294.915		-80.99168	
47.80394	5290.343		-80.92731	
47.85793	5285.803		-80.86408	
47.91192	5281.305		-80.80232	
47.96591	5276.848		-80.7423	
48.0199	5272.424		-80.68419	
48.07389	5268.025		-80.62804	
48.12788	5263.644		-80.57384	
48.18187	5259.265		-80.52145	
48.23586	5254.875		-80.47061	
48.28984	5250.468		-80.42099	
48.34383	5246.057		-80.37215	
48.39782	5241.65		-80.32363	
48.45181	5237.261		-80.27499	
48.5058	5232.902		-80.22574	
48.55979	5228.587		-80.17545	
48.61378	5224.331		-80.12366	
48.66777	5220.136		-80.07001	
48.72176	5215.997		-80.01419	
48.77575	5211.908		-79.95605	
48.82974	5207.86		-79.89556	
48.88373	5203.844		-79.83286	
48.93772	5199.852		-79.76819	
48.99171	5195.876		-79.70193	
49.0457	5191.901		-79.63454	
49.09969	5187.908		-79.56646	
49.15368	5183.888		-79.49817	
49.20766	5179.837		-79.43008	
49.26165	5175.743		-79.36259	
49.31564	5171.595		-79.2961	
49.36963	5167.387		-79.23101	
49.42362	5163.117		-79.1677	
49.47761	5158.792		-79.10659	
49.5316	5154.417		-79.04809	
49.58559	5149.996		-78.99255	
49.63958	5145.539		-78.94025	
49.69357	5141.071		-78.89137	
49.74756	5136.621		-78.846	
49.80155	5132.212		-78.80418	
49.85554	5127.854		-78.76588	
49.90953	5123.534		-78.73102	
49.96352	5119.228		-78.69944	
50.01751	5114.917		-78.67091	
50.0715	5110.591		-78.64513	
50.12548	5106.241		-78.62168	
50.17947	5101.858		-78.60009	
50.23346	5097.441		-78.57977	
50.28745	5093.003		-78.56004	
50.34144	5088.556		-78.54014	
50.39543	5084.117		-78.51923	
50.44942	5079.697		-78.49642	
50.50341	5075.31		-78.47084	
50.5574	5070.975		-78.44163	
50.61139	5066.711		-78.40797	
50.66538	5062.525		-78.36909	
50.71937	5058.408		-78.32433	
50.77336	5054.347		-78.27313	
50.82735	5050.335		-78.21513	
50.88134	5046.363		-78.15012	
50.93533	5042.414		-78.0781	
50.98932	5038.464		-77.9992	
51.0433	5034.485		-77.91367	
51.09729	5030.452		-77.82188	
51.15128	5026.359		-77.72432	
51.20527	5022.21		-77.62156	
51.25927	5018.017		-77.51429	
51.31326	5013.787		-77.40334	
51.36724	5009.525		-77.28959	
51.42123	5005.244		-77.17396	
51.47522	5000.953		-77.0574	
51.52921	4996.655		-76.94087	
51.5832	4992.342		-76.82529	
51.63719	4988.01		-76.71151	
51.69118	4983.667		-76.6003	
51.74517	4979.328		-76.49232	
51.79916	4974.998		-76.3882	
51.85315	4970.679		-76.28838	
51.90714	4966.371		-76.19323	
51.96113	4962.075		-76.10305	
52.01512	4957.794		-76.01804	
52.06911	4953.525		-75.93835	
52.1231	4949.264		-75.86405	
52.17709	4945.014		-75.79522	
52.23108	4940.782		-75.7319	
52.28506	4936.581		-75.6741	
52.33905	4932.422		-75.62174	
52.39304	4928.324		-75.57465	
52.44703	4924.294		-75.53251	
52.50102	4920.335		-75.49496	
52.55501	4916.444		-75.46155	
52.609	4912.617		-75.43179	
52.66299	4908.835		-75.40514	
52.71698	4905.083		-75.38104	
52.77097	4901.348		-75.3589	
52.82496	4897.625		-75.33818	
52.87895	4893.913		-75.31842	
52.93294	4890.215		-75.29927	
52.98693	4886.526		-75.28048	
53.04092	4882.827		-75.26195	
53.09491	4879.09		-75.24369	
53.1489	4875.304		-75.22583	
53.20288	4871.47		-75.20858	
53.25687	4867.601		-75.19225	
53.31086	4863.699		-75.17719	
53.36485	4859.759		-75.16386	
53.41884	4855.779		-75.15266	
53.47283	4851.753		-75.14397	
53.52682	4847.676		-75.13818	
53.58081	4843.548		-75.13554	
53.6348	4839.381		-75.13631	
53.68879	4835.199		-75.14068	
53.74278	4831.015		-75.14873	
53.79677	4826.839		-75.16042	
53.85076	4822.672		-75.17555	
53.90475	4818.516		-75.19379	
53.95874	4814.376		-75.21462	
54.01273	4810.253		-75.23744	
54.06672	4806.135		-75.26154	
54.1207	4802.009		-75.28613	
54.17469	4797.863		-75.31046	
54.22868	4793.688		-75.33376	
54.28267	4789.48		-75.3553	
54.33666	4785.243		-75.37434	
54.39065	4780.987		-75.39017	
54.44464	4776.736		-75.40205	
54.49863	4772.507		-75.40929	
54.55262	4768.315		-75.41122	
54.60661	4764.167		-75.40723	
54.6606	4760.063		-75.39676	
54.71459	4755.996		-75.3793	
54.76858	4751.946		-75.35442	
54.82257	4747.896		-75.3217	
54.87656	4743.841		-75.28084	
54.93055	4739.776		-75.23157	
54.98454	4735.7		-75.17375	
55.03852	4731.606		-75.10736	
55.09251	4727.489		-75.03249	
55.1465	4723.341		-74.94935	
55.20049	4719.164		-74.85822	
55.25448	4714.974		-74.75951	
55.30847	4710.786		-74.65372	
55.36246	4706.618		-74.54149	
55.41645	4702.474		-74.42353	
55.47044	4698.349		-74.30061	
55.52443	4694.225		-74.17353	
55.57842	4690.093		-74.0431	
55.63241	4685.943		-73.91011	
55.6864	4681.778		-73.77536	
55.74039	4677.612		-73.6396	
55.79438	4673.458		-73.50355	
55.84837	4669.327		-73.36777	
55.90236	4665.225		-73.23274	
55.95634	4661.157		-73.09879	
56.01033	4657.133		-72.96615	
56.06432	4653.153		-72.83498	
56.11831	4649.209		-72.7054	
56.1723	4645.289		-72.57742	
56.22629	4641.381		-72.45106	
56.28028	4637.478		-72.32622	
56.33427	4633.576		-72.20278	
56.38826	4629.678		-72.08061	
56.44225	4625.787		-71.95957	
56.49624	4621.917		-71.83957	
56.55023	4618.087		-71.72054	
56.60422	4614.321		-71.60248	
56.65821	4610.636		-71.48546	
56.7122	4607.034		-71.36965	
56.76619	4603.504		-71.25529	
56.82018	4600.034		-71.14272	
56.87416	4596.602		-71.03226	
56.92815	4593.186		-70.92436	
56.98214	4589.761		-70.81942	
57.03613	4586.308		-70.71783	
57.09012	4582.805		-70.61996	
57.14411	4579.239		-70.52612	
57.1981	4575.599		-70.43656	
57.25209	4571.877		-70.35149	
57.30608	4568.082		-70.27106	
57.36007	4564.235		-70.19545	
57.41406	4560.371		-70.12479	
57.46805	4556.516		-70.05928	
57.52204	4552.687		-69.99904	
57.57603	4548.887		-69.94415	
57.63002	4545.104		-69.89461	
57.68401	4541.329		-69.8503	
57.738	4537.551		-69.81107	
57.79198	4533.764		-69.77664	
57.84597	4529.961		-69.74664	
57.89996	4526.129		-69.72057	
57.95395	4522.262		-69.69776	
58.00794	4518.36		-69.6775	
58.06193	4514.435		-69.65895	
58.11592	4510.505		-69.64126	
58.16991	4506.586		-69.62354	
58.2239	4502.696		-69.60495	
58.27789	4498.849		-69.5846	
58.33188	4495.055		-69.56167	
58.38587	4491.313		-69.53533	
58.43986	4487.618		-69.50477	
58.49385	4483.964		-69.46918	
58.54784	4480.343		-69.42783	
58.60183	4476.734		-69.37997	
58.65582	4473.125		-69.32498	
58.7098	4469.501		-69.26231	
58.76379	4465.852		-69.19157	
58.81778	4462.173		-69.11253	
58.87177	4458.467		-69.02511	
58.92576	4454.733		-68.92947	
58.97975	4450.97		-68.82587	
59.03374	4447.178		-68.71474	
59.08773	4443.368		-68.5966	
59.14172	4439.541		-68.47207	
59.19571	4435.695		-68.34182	
59.2497	4431.828		-68.20652	
59.30369	4427.94		-68.06683	
59.35768	4424.037		-67.92336	
59.41167	4420.125		-67.77673	
59.46566	4416.209		-67.62749	
59.51965	4412.292		-67.47614	
59.57364	4408.382		-67.32314	
59.62762	4404.49		-67.16887	
59.68161	4400.619		-67.01365	
59.7356	4396.772		-66.85771	
59.78959	4392.956		-66.70122	
59.84358	4389.176		-66.54426	
59.89757	4385.438		-66.38683	
59.95156	4381.735		-66.22885	
60.00555	4378.054		-66.07008	
60.05954	4374.386		-65.91019	
60.11353	4370.729		-65.74878	
60.16752	4367.093		-65.58537	
60.22151	4363.487		-65.41943	
60.2755	4359.923		-65.25043	
60.32949	4356.411		-65.07784	
60.38348	4352.955		-64.90103	
60.43747	4349.568		-64.71935	
60.49146	4346.263		-64.53211	
60.54544	4343.043		-64.33856	
60.59943	4339.897		-64.138	
60.65342	4336.808		-63.92974	
60.70741	4333.75		-63.71319	
60.7614	4330.697		-63.48783	
60.81539	4327.628		-63.25329	
60.86938	4324.522		-63.00934	
60.92337	4321.363		-62.75593	
60.97736	4318.145		-62.49319	
61.03135	4314.883		-62.22143	
61.08534	4311.596		-61.94111	
61.13933	4308.298		-61.65284	
61.19332	4304.994		-61.35736	
61.24731	4301.692		-61.05544	
61.3013	4298.395		-60.74789	
61.35529	4295.101		-60.43547	
61.40928	4291.802		-60.11889	
61.46326	4288.484		-59.79875	
61.51725	4285.134		-59.47554	
61.57124	4281.752		-59.14964	
61.62523	4278.337		-58.82126	
61.67922	4274.888		-58.4905	
61.73321	4271.405		-58.15726	
61.7872	4267.899		-57.8213	
61.84119	4264.393		-57.4822	
61.89518	4260.91		-57.13942	
61.94917	4257.474		-56.79224	
62.00316	4254.094		-56.43983	
62.05715	4250.768		-56.08118	
62.11114	4247.496		-55.71524	
62.16513	4244.269		-55.3408	
62.21912	4241.08		-54.9566	
62.27311	4237.922		-54.56121	
62.3271	4234.786		-54.15318	
62.38108	4231.667		-53.73088	
62.43507	4228.564		-53.29269	
62.48906	4225.488		-52.83682	
62.54305	4222.445		-52.36154	
62.59704	4219.449		-51.86505	
62.65103	4216.511		-51.34568	
62.70502	4213.641		-50.80177	
62.75901	4210.853		-50.23187	
62.813	4208.153		-49.63459	
62.86699	4205.537		-49.00874	
62.92098	4202.993		-48.35326	
62.97497	4200.505		-47.66735	
63.02896	4198.063		-46.9503	
63.08295	4195.66		-46.20169	
63.13694	4193.282		-45.42115	
63.19093	4190.919		-44.60859	
63.24492	4188.556		-43.76397	
63.2989	4186.186		-42.88743	
63.35289	4183.804		-41.97913	
63.40688	4181.412		-41.03941	
63.46087	4179.007		-40.06852	
63.51486	4176.594		-39.06693	
63.56885	4174.175		-38.03499	
63.62284	4171.755		-36.97319	
63.67683	4169.341		-35.88181	
63.73082	4166.936		-34.76118	
63.78481	4164.54		-33.61133	
63.8388	4162.164		-32.43248	
63.89279	4159.818		-31.22435	
63.94678	4157.517		-29.98662	
64.00077	4155.266		-28.71876	
64.05476	4153.072		-27.42024	
64.10875	4150.933		-26.08993	
64.16273	4148.853		-24.72736	
64.21673	4146.841		-23.33102	
64.27071	4144.909		-21.90016	
64.32471	4143.067		-20.43291	
64.37869	4141.335		-18.92822	
64.43269	4139.731		-17.38388	
64.48667	4138.272		-15.79853	
64.54066	4136.977		-14.16959	
64.59465	4135.862		-12.49543	
64.64864	4134.926		-10.77323	
64.70263	4134.162		-9.001196	
64.75662	4133.556		-7.176342	
64.81061	4133.093		-5.296872	
64.8646	4132.757		-3.359758	
64.91859	4132.529		-1.363289	
64.97258	4132.39		0.6955171	
65.02657	4132.329		2.818239	
65.08056	4132.343		5.007801	
65.13454	4132.434		7.265622	
65.18854	4132.606		9.594553	
65.24252	4132.866		11.99585	
65.29652	4133.213		14.47227	
65.3505	4133.648		17.02486	
65.4045	4134.181		19.65628	
65.45848	4134.818		22.36738	
65.51247	4135.561		25.16073	
65.56646	4136.412		28.03701	
65.62045	4137.382		30.99874	
65.67444	4138.463		34.04651	
65.72843	4139.648		37.18296	
65.78242	4140.936		40.40866	
65.83641	4142.33		43.72644	
65.8904	4143.84		47.13696	
65.94439	4145.484		50.64329	
65.99837	4147.276		54.24628	
66.05237	4149.23		57.94931	
66.10635	4151.356		61.75342	
66.16035	4153.657		65.6623	
66.21433	4156.135		69.67722	
66.26833	4158.792		73.80225	
66.32231	4161.628		78.03891	
66.3763	4164.652		82.39165	
66.43029	4167.876		86.86244	
66.48428	4171.321		91.456	
66.53827	4175.001		96.17467	
66.59226	4178.922		101.0236	
66.64625	4183.086		106.0054	
66.70024	4187.493		111.1255	
66.75423	4192.137		116.3868	
66.80822	4197.032		121.7951	
66.86221	4202.191		127.3533	
66.9162	4207.634		133.0675	
66.97018	4213.381		138.9407	
67.02418	4219.453		144.9792	
67.07816	4225.855		151.1862	
67.13216	4232.6		157.5682	
67.18614	4239.694		164.1282	
67.24014	4247.146		170.8733	
67.29412	4254.958		177.8065	
67.34811	4263.137		184.9348	
67.4021	4271.681		192.2614	
67.45609	4280.59		199.7935	
67.51008	4289.862		207.534	
67.56407	4299.512		215.4897	
67.61806	4309.549		223.6638	
67.67205	4319.989		232.0624	
67.72604	4330.844		240.6883	
67.78003	4342.128		249.547	
67.83401	4353.85		258.6405	
67.88801	4366.02		267.9735	
67.94199	4378.642		277.5468	
67.99599	4391.73		287.3638	
68.04997	4405.297		297.4238	
68.10397	4419.36		307.7289	
68.15795	4433.926		318.2764	
68.21194	4449.008		329.067	
68.26593	4464.601		340.096	
68.31992	4480.704		351.3622	
68.37391	4497.311		362.8592	
68.4279	4514.434		374.584	
68.48189	4532.092		386.5285	
68.53588	4550.322		398.688	
68.58987	4569.163		411.0527	
68.64386	4588.657		423.6166	
68.69785	4608.83		436.368	
68.75184	4629.712		449.2996	
68.80582	4651.315		462.3981	
68.85982	4673.656		475.655	
68.9138	4696.745		489.0553	
68.9678	4720.601		502.5893	
69.02178	4745.229		516.2405	
69.07578	4770.643		529.9981	
69.12976	4796.847		543.8443	
69.18375	4823.86		557.7672	
69.23774	4851.695		571.7476	
69.29173	4880.381		585.7728	
69.34572	4909.94		599.8224	
69.39971	4940.413		613.8826	
69.4537	4971.841		627.9317	
69.50769	5004.261		641.9553	
69.56168	5037.696		655.9306	
69.61567	5072.185		669.8422	
69.66965	5107.75		683.6662	
69.72365	5144.428		697.3862	
69.77763	5182.243		710.9773	
69.83163	5221.229		724.4221	
69.88561	5261.398		737.6944	
69.93961	5302.776		750.7757	
69.99359	5345.358		763.6383	
70.04758	5389.151		776.2627	
70.10158	5434.136		788.6214	
70.15556	5480.281		800.6885	
70.20956	5527.58		812.4402	
70.26354	5575.994		823.8482	
70.31754	5625.519		834.8873	
70.37152	5676.104		845.5287	
70.42551	5727.712		855.7465	
70.4795	5780.249		865.5121	
70.53349	5833.646		874.7993	
70.58748	5887.803		883.5807	
70.64147	5942.652		891.8306	
70.69546	5998.094		899.5236	
70.74945	6054.059		906.6353	
70.80344	6110.45		913.1431	
70.85743	6167.214		919.025	
70.91142	6224.295		924.2617	
70.96541	6281.686		928.8339	
71.01939	6339.354		932.7267	
71.07339	6397.308		935.9237	
71.12737	6455.521		938.4148	
71.18137	6514.002		940.1874	
71.23535	6572.725		941.2364	
71.28934	6631.677		941.5531	
71.34333	6690.807		941.1374	
71.39732	6750.103		939.9847	
71.45131	6809.523		938.0999	
71.5053	6869.056		935.4825	
71.55929	6928.652		932.1425	
71.61328	6988.286		928.0836	
71.66727	7047.9		923.3204	
71.72126	7107.458		917.8604	
71.77525	7166.886		911.7226	
71.82924	7226.12		904.918	
71.88322	7285.054		897.4694	
71.93722	7343.612		889.391	
71.9912	7401.706		880.7084	
72.0452	7459.272		871.4384	
72.09918	7516.205		861.609	
72.15318	7572.406		851.2386	
72.20716	7627.722		840.3573	
72.26115	7682.022		828.9843	
72.31514	7735.165		817.1508	
72.36913	7787.051		804.8768	
72.42312	7837.566		792.1935	
72.47711	7886.632		779.1216	
72.5311	7934.161		765.692	
72.58509	7980.118		751.925	
72.63908	8024.477		737.8517	
72.69307	8067.237		723.4924	
72.74706	8108.38		708.8768	
72.80105	8147.912		694.0259	
72.85503	8185.828		678.9692	
72.90903	8222.163		663.7273	
72.96301	8256.935		648.3295	
73.01701	8290.174		632.7966	
73.07099	8321.888		617.1578	
73.12498	8352.119		601.4338	
73.17897	8380.918		585.654	
73.23296	8408.365		569.8388	
73.28695	8434.528		554.0175	
73.34094	8459.481		538.2104	
73.39493	8483.282		522.4463	
73.44892	8505.983		506.745	
73.50291	8527.622		491.1345	
73.5569	8548.246		475.6336	
73.61089	8567.905		460.2693	
73.66488	8586.664		445.0595	
73.71886	8604.592		430.0295	
73.77286	8621.771		415.1958	
73.82684	8638.248		400.5822	
73.88084	8654.051		386.2033	
73.93482	8669.193		372.081	
73.98882	8683.695		358.2277	
74.0428	8697.581		344.6626	
74.09679	8710.896		331.396	
74.15078	8723.676		318.444	
74.20477	8735.952		305.8143	
74.25876	8747.744		293.52	
74.31275	8759.069		281.5656	
74.36674	8769.942		269.9609	
74.42073	8780.399		258.7073	
74.47472	8790.448		247.8111	
74.52871	8800.092		237.2705	
74.5827	8809.32		227.088	
74.63669	8818.143		217.2587	
74.69067	8826.563		207.7817	
74.74467	8834.602		198.6491	
74.79865	8842.273		189.857	
74.85265	8849.612		181.3949	
74.90663	8856.649		173.2563	
74.96062	8863.422		165.429	
75.01461	8869.947		157.9046	
75.0686	8876.237		150.6697	
75.12259	8882.293		143.7149	
75.17658	8888.117		137.0265	
75.23057	8893.704		130.5943	
75.28456	8899.053		124.4048	
75.33855	8904.167		118.448	
75.39254	8909.059		112.7107	
75.44653	8913.731		107.1833	
75.50052	8918.191		101.8532	
75.5545	8922.444		96.71146	
75.6085	8926.489		91.74619	
75.66248	8930.314		86.94892	
75.71648	8933.918		82.30875	
75.77046	8937.298		77.81792	
75.82446	8940.461		73.46661	
75.87844	8943.413		69.24798	
75.93243	8946.164		65.15331	
75.98642	8948.714		61.17666	
76.04041	8951.059		57.3103	
76.0944	8953.195		53.54916	
76.14839	8955.124		49.88651	
76.20238	8956.85		46.31812	
76.25637	8958.382		42.83825	
76.31036	8959.739		39.44358	
76.36435	8960.956		36.12935	
76.41833	8962.066		32.89313	
76.47233	8963.094		29.73108	
76.52631	8964.039		26.64154	
76.58031	8964.903		23.62141	
76.63429	8965.682		20.66967	
76.68829	8966.378		17.78391	
76.74227	8966.996		14.96361	
76.79626	8967.526		12.20683	
76.85025	8967.96		9.513321	
76.90424	8968.281		6.881371	
76.95823	8968.471		4.310799	
77.01222	8968.521		1.799997	
77.06621	8968.434		-0.6511496	
77.1202	8968.213		-3.044093	
77.17419	8967.857		-5.378864	
77.22818	8967.363		-7.656756	
77.28217	8966.711		-9.877699	
77.33616	8965.878		-12.04281	
77.39014	8964.853		-14.15183	
77.44414	8963.638		-16.20557	
77.49812	8962.246		-18.20353	
77.55212	8960.692		-20.14627	
77.6061	8958.995		-22.03316	
77.6601	8957.176		-23.86466	
77.71408	8955.247		-25.64015	
77.76807	8953.221		-27.36005	
77.82206	8951.104		-29.0238	
77.87605	8948.896		-30.63184	
77.93004	8946.607		-32.18376	
77.98403	8944.252		-33.68018	
78.03802	8941.844		-35.12101	
78.09201	8939.366		-36.50716	
78.146	8936.793		-37.83893	
78.19999	8934.099		-39.11758	
78.25397	8931.274		-40.34378	
78.30797	8928.332		-41.51912	
78.36195	8925.307		-42.64456	
78.41595	8922.237		-43.72178	
78.46993	8919.154		-44.75183	
78.52393	8916.056		-45.73633	
78.57791	8912.924		-46.67622	
78.6319	8909.74		-47.57298	
78.68589	8906.502		-48.42748	
78.73988	8903.193		-49.24111	
78.79387	8899.805		-50.01477	
78.84786	8896.336		-50.74988	
78.90185	8892.78		-51.44746	
78.95584	8889.14		-52.10904	
79.00983	8885.43		-52.73578	
79.06382	8881.678		-53.32928	
79.11781	8877.926		-53.89077	
79.1718	8874.218		-54.42181	
79.22578	8870.599		-54.92366	
79.27978	8867.098		-55.3978	
79.33376	8863.724		-55.84541	
79.38776	8860.461		-56.26779	
79.44174	8857.286		-56.66587	
79.49574	8854.159		-57.04064	
79.54972	8851.039		-57.39268	
79.60371	8847.892		-57.72256	
79.6577	8844.707		-58.03048	
79.71169	8841.496		-58.31664	
79.76568	8838.283		-58.58091	
79.81967	8835.074		-58.82323	
79.87366	8831.877		-59.04333	
79.92765	8828.708		-59.24102	
79.98164	8825.607		-59.4161	
80.03563	8822.611		-59.56857	
80.08961	8819.739		-59.69846	
80.14361	8816.981		-59.80612	
80.19759	8814.311		-59.89205	
80.25159	8811.681		-59.95709	
80.30557	8809.045		-60.00223	
80.35957	8806.364		-60.0287	
80.41355	8803.621		-60.0378	
80.46754	8800.809		-60.03101	
80.52153	8797.922		-60.00983	
80.57552	8794.962		-59.9759	
80.62951	8791.939		-59.93086	
80.6835	8788.868		-59.87639	
80.73749	8785.756		-59.81424	
80.79148	8782.604		-59.74622	
80.84547	8779.419		-59.6742	
80.89946	8776.214		-59.60012	
80.95345	8773.004		-59.52595	
81.00744	8769.788		-59.45362	
81.06142	8766.558		-59.38507	
81.11542	8763.292		-59.32214	
81.1694	8759.961		-59.26672	
81.2234	8756.533		-59.22057	
81.27738	8752.985		-59.18545	
81.33138	8749.308		-59.16298	
81.38536	8745.505		-59.15468	
81.43935	8741.589		-59.16193	
81.49334	8737.582		-59.18589	
81.54733	8733.5		-59.22751	
81.60132	8729.365		-59.28746	
81.65531	8725.211		-59.36617	
81.7093	8721.099		-59.46383	
81.76329	8717.085		-59.58043	
81.81728	8713.217		-59.71574	
81.87127	8709.524		-59.86932	
81.92525	8706.021		-60.04052	
81.97925	8702.703		-60.22863	
82.03323	8699.561		-60.43286	
82.08723	8696.58		-60.65244	
82.14121	8693.744		-60.8867	
82.19521	8691.021		-61.13514	
82.24919	8688.378		-61.39738	
82.30318	8685.779		-61.67327	
82.35717	8683.186		-61.96276	
82.41116	8680.586		-62.26605	
82.46515	8677.979		-62.58355	
82.51914	8675.372		-62.91595	
82.57314	8672.774		-63.26428	
82.62712	8670.198		-63.62952	
82.68111	8667.655		-64.01317	
82.7351	8665.13		-64.41645	
82.78909	8662.583		-64.84111	
82.84308	8659.98		-65.2885	
82.89707	8657.286		-65.76051	
82.95106	8654.474		-66.25848	
83.00505	8651.538		-66.7843	
83.05904	8648.479		-67.3392	
83.11303	8645.288		-67.92496	
83.16702	8641.96		-68.54267	
83.22101	8638.501		-69.19405	
83.27499	8634.939		-69.88003	
83.32899	8631.311		-70.60216	
83.38297	8627.644		-71.36121	
83.43697	8623.955		-72.15861	
83.49095	8620.25		-72.99489	
83.54494	8616.521		-73.87124	
83.59893	8612.755		-74.78782	
83.65292	8608.928		-75.74541	
83.70691	8605.027		-76.74368	
83.7609	8601.046		-77.78289	
83.81489	8596.986		-78.86212	
83.86888	8592.854		-79.98102	
83.92287	8588.647		-81.13805	
83.97686	8584.365		-82.33227	
84.03085	8580.025		-83.56158	
84.08484	8575.656		-84.82465	
84.13882	8571.295		-86.11901	
84.19282	8566.961		-87.44313	
84.2468	8562.648		-88.7945	
84.3008	8558.315		-90.17155	
84.35478	8553.917		-91.57178	
84.40878	8549.403		-92.99369	
84.46276	8544.75		-94.43501	
84.51675	8539.929		-95.89458	
84.57074	8534.919		-97.37048	
84.62473	8529.721		-98.8619	
84.67872	8524.352		-100.3672	
84.73271	8518.828		-101.8858	
84.7867	8513.19		-103.4164	
84.84069	8507.475		-104.9587	
84.89468	8501.707		-106.5114	
84.94867	8495.914		-108.0745	
85.00266	8490.125		-109.647	
85.05665	8484.332		-111.2285	
85.11063	8478.5		-112.818	
85.16463	8472.594		-114.4151	
85.21861	8466.586		-116.0184	
85.27261	8460.445		-117.6273	
85.32659	8454.152		-119.24	
85.38058	8447.7		-120.8557	
85.43457	8441.084		-122.4726	
85.48856	8434.317		-124.0897	
85.54255	8427.422		-125.7051	
85.59654	8420.429		-127.3177	
85.65053	8413.356		-128.9257	
85.70452	8406.229		-130.5279	
85.75851	8399.051		-132.1223	
85.8125	8391.83		-133.7075	
85.86649	8384.564		-135.2815	
85.92048	8377.249		-136.8429	
85.97446	8369.864		-138.3894	
86.02846	8362.389		-139.9195	
86.08244	8354.801		-141.4308	
86.13644	8347.089		-142.9217	
86.19042	8339.243		-144.3898	
86.24442	8331.263		-145.8338	
86.2984	8323.154		-147.2515	
86.35239	8314.931		-148.6418	
86.40638	8306.615		-150.0028	
86.46037	8298.235		-151.3341	
86.51436	8289.811		-152.6343	
86.56835	8281.349		-153.9034	
86.62234	8272.847		-155.1408	
86.67633	8264.29		-156.3468	
86.73032	8255.658		-157.5212	
86.78431	8246.938		-158.6643	
86.83829	8238.11		-159.7764	
86.89229	8229.164		-160.8579	
86.94627	8220.103		-161.9093	
87.00027	8210.928		-162.9312	
87.05425	8201.626		-163.9239	
87.10825	8192.19		-164.8881	
87.16223	8182.642		-165.824	
87.21622	8172.999		-166.7322	
87.27021	8163.271		-167.6128	
87.3242	8153.459		-168.4663	
87.37819	8143.557		-169.2927	
87.43218	8133.56		-170.0923	
87.48617	8123.472		-170.8649	
87.54016	8113.315		-171.611	
87.59415	8103.125		-172.3302	
87.64814	8092.936		-173.0228	
87.70213	8082.767		-173.6888	
87.75612	8072.627		-174.3284	
87.8101	8062.528		-174.9417	
87.8641	8052.483		-175.5291	
87.91808	8042.513		-176.091	
87.97208	8032.627		-176.6279	
88.02606	8022.837		-177.1399	
88.08006	8013.137		-177.6276	
88.13404	8003.521		-178.0913	
88.18803	7993.973		-178.5313	
88.24202	7984.489		-178.9479	
88.29601	7975.047		-179.3414	
88.35	7965.639		-179.7122	
88.40399	7956.241		-180.0608	
88.45798	7946.843		-180.3876	
88.51197	7937.424		-180.6934	
88.56596	7927.984		-180.9789	
88.61995	7918.517		-181.245	
88.67393	7909.026		-181.4927	
88.72793	7899.5		-181.7231	
88.78191	7889.937		-181.9371	
88.83591	7880.327		-182.1358	
88.88989	7870.676		-182.3201	
88.94389	7860.966		-182.491	
88.99787	7851.181		-182.6494	
89.05186	7841.277		-182.7962	
89.10585	7831.241		-182.9322	
89.15984	7821.071		-183.0582	
89.21383	7810.808		-183.1746	
89.26782	7800.494		-183.2822	
89.32181	7790.177		-183.3815	
89.3758	7779.889		-183.473	
89.42979	7769.662		-183.5569	
89.48378	7759.513		-183.6336	
89.53777	7749.465		-183.703	
89.59176	7739.515		-183.7652	
89.64574	7729.654		-183.82	
89.69974	7719.858		-183.8671	
89.75372	7710.117		-183.9065	
89.80772	7700.397		-183.9379	
89.8617	7690.674		-183.961	
89.9157	7680.918		-183.9754	
89.96968	7671.122		-183.9809	
90.02367	7661.275		-183.9771	
90.07766	7651.38		-183.9636	
90.13165	7641.429		-183.9402	
90.18564	7631.43		-183.9068	
90.23963	7621.375		-183.8635	
90.29362	7611.274		-183.8105	
90.34761	7601.125		-183.7483	
90.4016	7590.935		-183.6774	
90.45559	7580.697		-183.5985	
90.50957	7570.426		-183.5123	
90.56357	7560.13		-183.4196	
90.61755	7549.829		-183.3212	
90.67155	7539.521		-183.218	
90.72553	7529.208		-183.1109	
90.77953	7518.874		-183.0006	
90.83351	7508.525		-182.888	
90.8875	7498.173		-182.7738	
90.94149	7487.85		-182.659	
90.99548	7477.579		-182.5442	
91.04947	7467.376		-182.4303	
91.10346	7457.241		-182.318	
91.15745	7447.178		-182.2079	
91.21144	7437.186		-182.1009	
91.26543	7427.273		-181.9973	
91.31942	7417.443		-181.898	
91.37341	7407.702		-181.8033	
91.4274	7398.045		-181.714	
91.48138	7388.473		-181.6303	
91.53538	7378.971		-181.5526	
91.58936	7369.513		-181.481	
91.64336	7360.072		-181.4155	
91.69734	7350.636		-181.3562	
91.75134	7341.199		-181.3028	
91.80532	7331.76		-181.2555	
91.85931	7322.305		-181.2139	
91.9133	7312.824		-181.178	
91.96729	7303.318		-181.1476	
92.02128	7293.795		-181.1227	
92.07527	7284.273		-181.103	
92.12926	7274.779		-181.0887	
92.18325	7265.329		-181.0799	
92.23724	7255.923		-181.0766	
92.29123	7246.552		-181.0792	
92.34521	7237.204		-181.088	
92.39921	7227.862		-181.1032	
92.45319	7218.515		-181.2367	
92.50719	7209.166		-181.3686	
92.56117	7199.819		-181.4981	
92.61517	7190.475		-181.6252	
92.66915	7181.127		-181.7502	
92.72314	7171.758		-181.8737	
92.77713	7162.333		-181.9964	
92.83112	7152.808		-182.119	
92.88511	7143.161		-182.2419	
92.9391	7133.391		-182.3658	
92.99309	7123.519		-182.4909	
93.04708	7113.57		-182.6176	
93.10107	7103.561		-182.7462	
93.15506	7093.502		-182.8767	
93.20905	7083.399		-183.0093	
93.26304	7073.254		-183.1442	
93.31702	7063.078		-183.2814	
93.37102	7052.893		-183.4209	
93.425	7042.712		-183.5627	
93.479	7032.543		-183.7069	
93.53298	7022.387		-183.8534	
93.58698	7012.236		-184.0022	
93.64096	7002.092		-184.1532	
93.69495	6991.959		-184.3065	
93.74894	6981.846		-184.4619	
93.80293	6971.76		-184.6194	
93.85692	6961.686		-184.7789	
93.91091	6951.603		-184.9404	
93.9649	6941.489		-185.1037	
94.01889	6931.338		-185.2689	
94.07288	6921.206		-185.4356	
94.12687	6911.142		-185.604	
94.18085	6901.177		-185.7738	
94.23485	6891.282		-185.945	
94.28883	6881.44		-186.1174	
94.34283	6871.629		-186.2911	
94.39681	6861.841		-186.4658	
94.45081	6852.064		-186.6415	
94.50479	6842.294		-186.8181	
94.55878	6832.522		-186.9955	
94.61277	6822.747		-187.1737	
94.66676	6812.962		-187.3525	
94.72075	6803.167		-187.5319	
94.77474	6793.357		-187.7118	
94.82873	6783.535		-187.8921	
94.88272	6773.699		-188.0728	
94.93671	6763.858		-188.2539	
94.9907	6754.013		-188.4353	
