T[Â°C]	350nm [counts / mm]	S.D.	First derivative	S.D. of first derivative
20.00112	3096.26		-45.12346	
20.05506	3093.648		-45.09531	
20.10901	3091.039		-45.06777	
20.16296	3088.434		-45.04082	
20.21691	3085.834		-45.0145	
20.27086	3083.238		-44.98882	
20.32481	3080.648		-44.96377	
20.37875	3078.065		-44.93938	
20.4327	3075.489		-44.91565	
20.48665	3072.921		-44.89257	
20.5406	3070.359		-44.87016	
20.59455	3067.806		-44.84842	
20.6485	3065.26		-44.82733	
20.70244	3062.721		-44.80689	
20.75639	3060.188		-44.78709	
20.81034	3057.658		-44.76793	
20.86429	3055.124		-44.74937	
20.91824	3052.582		-44.7314	
20.97219	3050.032		-44.714	
21.02613	3047.576		-44.69713	
21.08008	3045.125		-44.68077	
21.13403	3042.688		-44.66486	
21.18798	3040.27		-44.64938	
21.24193	3037.879		-44.63428	
21.29588	3035.518		-44.6195	
21.34982	3033.19		-44.60499	
21.40377	3030.897		-44.59069	
21.45772	3028.636		-44.57655	
21.51167	3026.394		-44.5625	
21.56562	3024.158		-44.54847	
21.61957	3021.914		-44.53439	
21.67352	3019.652		-44.52017	
21.72746	3017.362		-44.50574	
21.78141	3015.043		-44.49102	
21.83536	3012.701		-44.47592	
21.88931	3010.349		-44.46035	
21.94326	3008.005		-44.44424	
21.99721	3005.682		-44.4275	
22.05116	3003.383		-44.41006	
22.1051	3001.101		-44.39184	
22.15905	2998.832		-44.37281	
22.213	2996.574		-44.35292	
22.26695	2994.326		-44.33221	
22.3209	2992.084		-44.31079	
22.37485	2989.838		-44.28887	
22.42879	2987.578		-44.26689	
22.48274	2985.294		-44.24551	
22.53669	2982.98		-44.2257	
22.59064	2980.636		-44.20858	
22.64459	2978.265		-44.18184	
22.69854	2975.864		-44.15336	
22.75248	2973.442		-44.12337	
22.80643	2971.006		-44.09216	
22.86038	2968.568		-44.06008	
22.91433	2966.132		-44.02752	
22.96828	2963.699		-43.99495	
23.02223	2961.265		-43.9628	
23.07617	2958.828		-43.93155	
23.13012	2956.378		-43.90165	
23.18407	2953.903		-43.87353	
23.23802	2951.393		-43.84754	
23.29197	2948.841		-43.82397	
23.34592	2946.249		-43.80303	
23.39986	2943.622		-43.78484	
23.45381	2940.969		-43.76941	
23.50776	2938.3		-43.7567	
23.56171	2935.631		-43.74656	
23.61566	2932.979		-43.7388	
23.66961	2930.364		-43.73317	
23.72355	2927.797		-43.72937	
23.7775	2925.279		-43.72708	
23.83145	2922.811		-43.72592	
23.8854	2920.39		-43.72548	
23.93935	2918.016		-43.72536	
23.9933	2915.686		-43.72513	
24.04725	2913.392		-43.72436	
24.10119	2911.12		-43.72264	
24.15514	2908.861		-43.71962	
24.20909	2906.608		-43.71497	
24.26304	2904.356		-43.70846	
24.31699	2902.113		-43.69987	
24.37094	2899.888		-43.68907	
24.42488	2897.69		-43.67593	
24.47883	2895.523		-43.66034	
24.53278	2893.389		-43.64219	
24.58673	2891.292		-43.62141	
24.64068	2889.228		-43.59792	
24.69463	2887.186		-43.57171	
24.74858	2885.149		-43.54276	
24.80252	2883.098		-43.51114	
24.85647	2881.017		-43.47694	
24.91042	2878.896		-43.44031	
24.96437	2876.728		-43.40147	
25.01832	2874.516		-43.36071	
25.07227	2872.262		-43.31833	
25.12621	2869.969		-43.27473	
25.18016	2867.645		-43.23029	
25.23411	2865.295		-43.18544	
25.28806	2862.93		-43.14063	
25.34201	2860.554		-43.09634	
25.39596	2858.167		-43.05304	
25.4499	2855.761		-43.01118	
25.50385	2853.331		-42.97118	
25.5578	2850.873		-42.93341	
25.61175	2848.386		-42.89814	
25.6657	2845.872		-42.86559	
25.71965	2843.337		-42.83588	
25.77359	2840.789		-42.80903	
25.82754	2838.242		-42.785	
25.88149	2835.709		-42.76367	
25.93544	2833.199		-42.74483	
25.98939	2830.722		-42.72821	
26.04334	2828.282		-42.71352	
26.09728	2825.88		-42.70039	
26.15123	2823.514		-42.68849	
26.20518	2821.175		-42.67743	
26.25913	2818.847		-42.66686	
26.31308	2816.521		-42.65644	
26.36703	2814.188		-42.64587	
26.42097	2811.844		-42.63485	
26.47492	2809.489		-42.62313	
26.52887	2807.125		-42.6105	
26.58282	2804.763		-42.59674	
26.63677	2802.414		-42.58168	
26.69072	2800.088		-42.56518	
26.74467	2797.795		-42.54714	
26.79861	2795.534		-42.52748	
26.85256	2793.299		-42.5062	
26.90651	2791.084		-42.48329	
26.96046	2788.885		-42.45881	
27.01441	2786.697		-42.43283	
27.06836	2784.514		-42.40546	
27.1223	2782.33		-42.37683	
27.17625	2780.136		-42.34711	
27.2302	2777.927		-42.31649	
27.28415	2775.705		-42.2852	
27.3381	2773.48		-42.25352	
27.39205	2771.257		-42.2218	
27.446	2769.035		-42.19044	
27.49994	2766.818		-42.1599	
27.55389	2764.611		-42.13061	
27.60784	2762.423		-42.103	
27.66179	2760.261		-42.07745	
27.71574	2758.125		-42.05428	
27.76969	2756.011		-42.03372	
27.82363	2753.91		-42.01595	
27.87758	2751.803		-42.00103	
27.93153	2749.675		-41.98891	
27.98548	2747.514		-41.97947	
28.03943	2745.313		-41.97245	
28.09338	2743.072		-41.96756	
28.14732	2740.802		-41.96445	
28.20127	2738.51		-41.96276	
28.25522	2736.205		-41.96206	
28.30917	2733.89		-41.96198	
28.36312	2731.573		-41.96209	
28.41707	2729.255		-41.96201	
28.47101	2726.94		-41.96134	
28.52496	2724.63		-41.95971	
28.57891	2722.326		-41.95678	
28.63286	2720.029		-41.95224	
28.68681	2717.736		-41.94581	
28.74076	2715.445		-41.93724	
28.7947	2713.152		-41.92629	
28.84865	2710.85		-41.91273	
28.9026	2708.537		-41.8964	
28.95655	2706.211		-41.87711	
29.0105	2703.879		-41.85474	
29.06445	2701.551		-41.82922	
29.11839	2699.229		-41.80051	
29.17234	2696.915		-41.76862	
29.22629	2694.607		-41.73357	
29.28024	2692.312		-41.69545	
29.33419	2690.036		-41.65437	
29.38814	2687.779		-41.61047	
29.44209	2685.532		-41.56396	
29.49603	2683.286		-41.51515	
29.54998	2681.024		-41.46437	
29.60393	2678.735		-41.41201	
29.65788	2676.41		-41.35846	
29.71183	2674.05		-41.30415	
29.76578	2671.664		-41.24949	
29.81972	2669.264		-41.19489	
29.87367	2666.864		-41.14073	
29.92762	2664.475		-41.08734	
29.98157	2662.102		-41.035	
30.03552	2659.743		-40.98396	
30.08947	2657.397		-40.93439	
30.14341	2655.064		-40.88651	
30.19736	2652.749		-40.84047	
30.25131	2650.457		-40.79644	
30.30526	2648.193		-40.75452	
30.35921	2645.959		-40.71484	
30.41316	2643.755		-40.67746	
30.4671	2641.583		-40.64242	
30.52105	2639.443		-40.6098	
30.575	2637.337		-40.57967	
30.62895	2635.268		-40.55212	
30.6829	2633.235		-40.52727	
30.73685	2631.235		-40.5052	
30.79079	2629.262		-40.48598	
30.84474	2627.313		-40.46968	
30.89869	2625.379		-40.45631	
30.95264	2623.454		-40.44583	
31.00659	2621.535		-40.43819	
31.06054	2619.616		-40.43333	
31.11448	2617.688		-40.43113	
31.16843	2615.735		-40.43143	
31.22238	2613.75		-40.43403	
31.27633	2611.733		-40.43869	
31.33028	2609.693		-40.44513	
31.38423	2607.632		-40.45305	
31.43818	2605.554		-40.46219	
31.49212	2603.467		-40.47229	
31.54607	2601.376		-40.48313	
31.60002	2599.277		-40.49451	
31.65397	2597.165		-40.50624	
31.70792	2595.032		-40.51814	
31.76187	2592.876		-40.53002	
31.81581	2590.694		-40.54172	
31.86976	2588.484		-40.5531	
31.92371	2586.251		-40.56405	
31.97766	2583.995		-40.57445	
32.03161	2581.714		-40.58424	
32.08556	2579.409		-40.59336	
32.1395	2577.091		-40.60179	
32.19345	2574.77		-40.60951	
32.2474	2572.458		-40.61653	
32.30135	2570.162		-40.62286	
32.3553	2567.884		-40.62849	
32.40925	2565.625		-40.63343	
32.4632	2563.38		-40.6377	
32.51714	2561.143		-40.64126	
32.57109	2558.913		-40.6441	
32.62504	2556.684		-40.64619	
32.67899	2554.449		-40.64751	
32.73294	2552.196		-40.64806	
32.78688	2549.911		-40.64778	
32.84084	2547.587		-40.64664	
32.89478	2545.22		-40.64459	
32.94873	2542.816		-40.64156	
33.00268	2540.389		-40.63749	
33.05663	2537.958		-40.63232	
33.11058	2535.53		-40.62599	
33.16452	2533.112		-40.6184	
33.21847	2530.709		-40.60943	
33.27242	2528.325		-40.5989	
33.32637	2525.96		-40.58664	
33.38032	2523.615		-40.57245	
33.43427	2521.294		-40.55615	
33.48822	2519.006		-40.53754	
33.54216	2516.751		-40.51646	
33.59611	2514.53		-40.49275	
33.65006	2512.34		-40.46629	
33.70401	2510.18		-40.43698	
33.75796	2508.049		-40.40478	
33.8119	2505.951		-40.36972	
33.86585	2503.895		-40.33189	
33.9198	2501.885		-40.29145	
33.97375	2499.917		-40.24864	
34.0277	2497.986		-40.20374	
34.08165	2496.085		-40.15705	
34.1356	2494.205		-40.10893	
34.18954	2492.335		-40.05976	
34.24349	2490.468		-40.00997	
34.29744	2488.6		-39.96005	
34.35139	2486.724		-39.91049	
34.40534	2484.835		-39.86182	
34.45929	2482.922		-39.81453	
34.51323	2480.975		-39.76907	
34.56718	2478.984		-39.72585	
34.62113	2476.945		-39.68528	
34.67508	2474.856		-39.64769	
34.72903	2472.719		-39.61339	
34.78298	2470.539		-39.58263	
34.83693	2468.322		-39.55563	
34.89087	2466.071		-39.53249	
34.94482	2463.786		-39.51329	
34.99877	2461.47		-39.49803	
35.05272	2459.13		-39.48668	
35.10667	2456.78		-39.47914	
35.16061	2454.43		-39.47525	
35.21457	2452.093		-39.47479	
35.26851	2449.778		-39.47747	
35.32246	2447.494		-39.48295	
35.37641	2445.25		-39.49085	
35.43036	2443.05		-39.50071	
35.48431	2440.893		-39.51205	
35.53825	2438.775		-39.52434	
35.5922	2436.686		-39.53701	
35.64615	2434.615		-39.54948	
35.7001	2432.553		-39.56117	
35.75405	2430.5		-39.57153	
35.80799	2428.458		-39.58007	
35.86195	2426.424		-39.58634	
35.91589	2424.398		-39.58997	
35.96984	2422.379		-39.59065	
36.02379	2420.362		-39.58815	
36.07774	2418.344		-39.58225	
36.13169	2416.317		-39.57281	
36.18563	2414.268		-39.55974	
36.23958	2412.194		-39.54307	
36.29353	2410.091		-39.52287	
36.34748	2407.956		-39.49927	
36.40143	2405.79		-39.47246	
36.45538	2403.594		-39.44264	
36.50933	2401.373		-39.41001	
36.56327	2399.127		-39.37481	
36.61722	2396.862		-39.3373	
36.67117	2394.585		-39.2978	
36.72512	2392.3		-39.25665	
36.77907	2390.003		-39.21424	
36.83302	2387.697		-39.17101	
36.88696	2385.387		-39.1274	
36.94091	2383.08		-39.08382	
36.99486	2380.79		-39.04073	
37.04881	2378.53		-38.9985	
37.10276	2376.306		-38.95748	
37.15671	2374.122		-38.91798	
37.21066	2371.973		-38.88029	
37.2646	2369.854		-38.8446	
37.31855	2367.762		-38.81109	
37.3725	2365.701		-38.77989	
37.42645	2363.671		-38.75105	
37.4804	2361.677		-38.7246	
37.53434	2359.716		-38.70049	
37.58829	2357.782		-38.67868	
37.64224	2355.86		-38.65911	
37.69619	2353.94		-38.64165	
37.75014	2352.018		-38.6262	
37.80409	2350.084		-38.61261	
37.85804	2348.133		-38.60073	
37.91198	2346.163		-38.59045	
37.96593	2344.175		-38.58166	
38.01988	2342.177		-38.57428	
38.07383	2340.178		-38.56821	
38.12778	2338.176		-38.56336	
38.18172	2336.172		-38.55965	
38.23568	2334.166		-38.55697	
38.28962	2332.154		-38.55527	
38.34357	2330.128		-38.55446	
38.39752	2328.083		-38.55445	
38.45147	2326.013		-38.55515	
38.50542	2323.911		-38.55643	
38.55936	2321.777		-38.55817	
38.61331	2319.628		-38.56024	
38.66726	2317.487		-38.56249	
38.72121	2315.366		-38.5648	
38.77516	2313.27		-38.56706	
38.82911	2311.199		-38.56918	
38.88305	2309.155		-38.57109	
38.937	2307.137		-38.57273	
38.99095	2305.144		-38.57404	
39.0449	2303.176		-38.57496	
39.09885	2301.228		-38.57542	
39.1528	2299.295		-38.57537	
39.20675	2297.367		-38.57475	
39.26069	2295.429		-38.57347	
39.31464	2293.465		-38.57146	
39.36859	2291.46		-38.56863	
39.42254	2289.404		-38.56492	
39.47649	2287.293		-38.56028	
39.53043	2285.129		-38.55468	
39.58438	2282.921		-38.54813	
39.63833	2280.682		-38.54064	
39.69228	2278.428		-38.53222	
39.74623	2276.171		-38.52289	
39.80018	2273.918		-38.51267	
39.85413	2271.67		-38.50161	
39.90807	2269.423		-38.48977	
39.96202	2267.172		-38.4772	
40.01597	2264.915		-38.46399	
40.06992	2262.652		-38.45018	
40.12387	2260.38		-38.43586	
40.17781	2258.1		-38.42106	
40.23177	2255.819		-38.40583	
40.28571	2253.551		-38.39022	
40.33966	2251.312		-38.37426	
40.39361	2249.115		-38.35793	
40.44756	2246.965		-38.34125	
40.50151	2244.854		-38.32417	
40.55545	2242.777		-38.30665	
40.6094	2240.736		-38.2886	
40.66335	2238.731		-38.26991	
40.7173	2236.761		-38.25044	
40.77125	2234.826		-38.23003	
40.8252	2232.922		-38.2085	
40.87915	2231.038		-38.18567	
40.93309	2229.161		-38.16134	
40.98704	2227.278		-38.13529	
41.04099	2225.376		-38.10732	
41.09494	2223.452		-38.07728	
41.14889	2221.504		-38.04506	
41.20284	2219.538		-38.01061	
41.25678	2217.562		-37.97393	
41.31073	2215.581		-37.93503	
41.36468	2213.601		-37.89401	
41.41863	2211.622		-37.85102	
41.47258	2209.647		-37.80626	
41.52653	2207.676		-37.75995	
41.58047	2205.709		-37.71238	
41.63442	2203.744		-37.6638	
41.68837	2201.775		-37.61449	
41.74232	2199.799		-37.56474	
41.79627	2197.813		-37.51481	
41.85022	2195.815		-37.46499	
41.90416	2193.805		-37.41553	
41.95811	2191.783		-37.36666	
42.01206	2189.753		-37.31866	
42.06601	2187.719		-37.27175	
42.11996	2185.676		-37.22617	
42.17391	2183.623		-37.18216	
42.22786	2181.561		-37.13991	
42.2818	2179.493		-37.0996	
42.33575	2177.425		-37.06137	
42.3897	2175.363		-37.0253	
42.44365	2173.31		-36.99143	
42.4976	2171.265		-36.95979	
42.55154	2169.226		-36.93034	
42.6055	2167.184		-36.90302	
42.65944	2165.133		-36.87771	
42.71339	2163.066		-36.8543	
42.76734	2160.981		-36.83263	
42.82129	2158.879		-36.81252	
42.87524	2156.764		-36.79377	
42.92918	2154.646		-36.77614	
42.98313	2152.537		-36.75935	
43.03708	2150.448		-36.74311	
43.09103	2148.387		-36.72713	
43.14498	2146.358		-36.71119	
43.19893	2144.361		-36.69508	
43.25288	2142.391		-36.67865	
43.30682	2140.443		-36.66176	
43.36077	2138.508		-36.64431	
43.41472	2136.582		-36.62623	
43.46867	2134.661		-36.60745	
43.52262	2132.746		-36.58796	
43.57656	2130.84		-36.56776	
43.63051	2128.943		-36.54692	
43.68446	2127.05		-36.52552	
43.73841	2125.157		-36.50369	
43.79236	2123.263		-36.48157	
43.84631	2121.369		-36.45932	
43.90026	2119.477		-36.43711	
43.9542	2117.587		-36.41512	
44.00815	2115.705		-36.39357	
44.0621	2113.833		-36.37268	
44.11605	2111.971		-36.35267	
44.17	2110.117		-36.33378	
44.22395	2108.271		-36.31622	
44.27789	2106.424		-36.30015	
44.33184	2104.565		-36.28572	
44.38579	2102.686		-36.27302	
44.43974	2100.78		-36.26211	
44.49369	2098.848		-36.25301	
44.54764	2096.887		-36.24569	
44.60159	2094.9		-36.24014	
44.65553	2092.894		-36.23626	
44.70948	2090.876		-36.23397	
44.76343	2088.853		-36.23317	
44.81738	2086.832		-36.2337	
44.87133	2084.82		-36.23545	
44.92527	2082.823		-36.23825	
44.97923	2080.841		-36.24195	
45.03317	2078.876		-36.24641	
45.08712	2076.927		-36.25148	
45.14107	2074.993		-36.25702	
45.19502	2073.07		-36.26289	
45.24897	2071.149		-36.26896	
45.30291	2069.223		-36.27509	
45.35686	2067.284		-36.28112	
45.41081	2065.327		-36.28688	
45.46476	2063.349		-36.29218	
45.51871	2061.351		-36.29683	
45.57265	2059.341		-36.30067	
45.62661	2057.328		-36.30355	
45.68055	2055.319		-36.30532	
45.7345	2053.319		-36.3059	
45.78845	2051.335		-36.3052	
45.8424	2049.369		-36.30318	
45.89635	2047.419		-36.29984	
45.95029	2045.484		-36.2952	
46.00424	2043.555		-36.28935	
46.05819	2041.625		-36.28243	
46.11214	2039.684		-36.27458	
46.16609	2037.725		-36.26595	
46.22004	2035.744		-36.25669	
46.27399	2033.739		-36.24693	
46.32793	2031.707		-36.23675	
46.38188	2029.653		-36.22627	
46.43583	2027.588		-36.21557	
46.48978	2025.523		-36.20473	
46.54373	2023.462		-36.19381	
46.59768	2021.413		-36.18288	
46.65162	2019.38		-36.17197	
46.70557	2017.362		-36.16109	
46.75952	2015.361		-36.15021	
46.81347	2013.378		-36.13927	
46.86742	2011.414		-36.12819	
46.92137	2009.467		-36.11687	
46.97532	2007.533		-36.10519	
47.02926	2005.607		-36.09304	
47.08321	2003.691		-36.08032	
47.13716	2001.782		-36.06692	
47.19111	1999.88		-36.05275	
47.24506	1997.989		-36.03778	
47.299	1996.112		-36.022	
47.35295	1994.254		-36.00549	
47.4069	1992.414		-35.98832	
47.46085	1990.591		-35.97062	
47.5148	1988.776		-35.95253	
47.56875	1986.966		-35.93417	
47.6227	1985.152		-35.9157	
47.67664	1983.331		-35.89725	
47.73059	1981.494		-35.87897	
47.78454	1979.635		-35.86095	
47.83849	1977.749		-35.84328	
47.89244	1975.832		-35.82604	
47.94638	1973.89		-35.80932	
48.00034	1971.933		-35.79324	
48.05428	1969.969		-35.77792	
48.10823	1968.004		-35.76349	
48.16218	1966.04		-35.75009	
48.21613	1964.076		-35.7378	
48.27008	1962.105		-35.7267	
48.32402	1960.124		-35.71685	
48.37797	1958.134		-35.70829	
48.43192	1956.14		-35.70107	
48.48587	1954.142		-35.69524	
48.53982	1952.141		-35.6908	
48.59377	1950.137		-35.68776	
48.64771	1948.133		-35.68607	
48.70166	1946.13		-35.68566	
48.75561	1944.136		-35.68641	
48.80956	1942.158		-35.68815	
48.86351	1940.208		-35.69067	
48.91746	1938.289		-35.69372	
48.97141	1936.403		-35.697	
49.02535	1934.546		-35.70019	
49.0793	1932.71		-35.70293	
49.13325	1930.881		-35.70485	
49.1872	1929.043		-35.70561	
49.24115	1927.186		-35.70491	
49.29509	1925.304		-35.70249	
49.34904	1923.398		-35.69818	
49.40299	1921.47		-35.69186	
49.45694	1919.527		-35.68347	
49.51089	1917.576		-35.673	
49.56484	1915.627		-35.66048	
49.61879	1913.688		-35.64599	
49.67273	1911.764		-35.6296	
49.72668	1909.856		-35.61142	
49.78063	1907.961		-35.59155	
49.83458	1906.067		-35.5701	
49.88853	1904.162		-35.54717	
49.94247	1902.239		-35.52285	
49.99643	1900.303		-35.49722	
50.05037	1898.355		-35.47033	
50.10432	1896.399		-35.44222	
50.15827	1894.435		-35.41294	
50.21222	1892.467		-35.3825	
50.26617	1890.494		-35.3509	
50.32011	1888.521		-35.31814	
50.37406	1886.558		-35.28426	
50.42801	1884.612		-35.24932	
50.48196	1882.683		-35.21346	
50.53591	1880.767		-35.17681	
50.58986	1878.855		-35.13953	
50.64381	1876.941		-35.10179	
50.69775	1875.018		-35.06374	
50.7517	1873.088		-35.02551	
50.80565	1871.155		-34.98723	
50.8596	1869.228		-34.94902	
50.91355	1867.308		-34.91097	
50.96749	1865.395		-34.8732	
51.02144	1863.485		-34.83575	
51.07539	1861.584		-34.79867	
51.12934	1859.693		-34.762	
51.18329	1857.818		-34.72574	
51.23724	1855.96		-34.68988	
51.29119	1854.12		-34.65442	
51.34513	1852.294		-34.61937	
51.39908	1850.474		-34.58476	
51.45303	1848.655		-34.55063	
51.50698	1846.833		-34.51703	
51.56093	1845.005		-34.48402	
51.61488	1843.172		-34.45168	
51.66882	1841.337		-34.42005	
51.72277	1839.504		-34.38921	
51.77672	1837.674		-34.35926	
51.83067	1835.846		-34.33027	
51.88462	1834.013		-34.30237	
51.93857	1832.172		-34.27565	
51.99252	1830.323		-34.25021	
52.04646	1828.469		-34.22613	
52.10041	1826.607		-34.2035	
52.15436	1824.743		-34.18232	
52.20831	1822.884		-34.1626	
52.26226	1821.033		-34.14425	
52.3162	1819.195		-34.1272	
52.37016	1817.371		-34.11136	
52.4241	1815.563		-34.09667	
52.47805	1813.773		-34.0831	
52.532	1811.999		-34.07069	
52.58595	1810.235		-34.05946	
52.6399	1808.477		-34.04945	
52.69384	1806.718		-34.04071	
52.74779	1804.956		-34.03327	
52.80174	1803.194		-34.02718	
52.85569	1801.438		-34.02251	
52.90964	1799.687		-34.01932	
52.96358	1797.936		-34.01769	
53.01754	1796.179		-34.01768	
53.07148	1794.41		-34.01934	
53.12543	1792.63		-34.02272	
53.17938	1790.835		-34.02782	
53.23333	1789.022		-34.03466	
53.28728	1787.19		-34.04319	
53.34122	1785.34		-34.05338	
53.39517	1783.474		-34.06516	
53.44912	1781.594		-34.0784	
53.50307	1779.697		-34.09295	
53.55702	1777.786		-34.10859	
53.61097	1775.863		-34.12508	
53.66492	1773.931		-34.14214	
53.71886	1771.994		-34.15946	
53.77281	1770.058		-34.17673	
53.82676	1768.132		-34.19365	
53.88071	1766.219		-34.20995	
53.93466	1764.321		-34.22535	
53.98861	1762.433		-34.23964	
54.04255	1760.55		-34.25265	
54.0965	1758.67		-34.26422	
54.15045	1756.796		-34.2742	
54.2044	1754.935		-34.28247	
54.25835	1753.093		-34.28888	
54.3123	1751.272		-34.29332	
54.36625	1749.474		-34.2957	
54.42019	1747.698		-34.29594	
54.47414	1745.938		-34.294	
54.52809	1744.188		-34.28991	
54.58204	1742.438		-34.2837	
54.63599	1740.674		-34.27546	
54.68993	1738.89		-34.26528	
54.74389	1737.084		-34.25331	
54.79783	1735.261		-34.23971	
54.85178	1733.425		-34.22463	
54.90573	1731.575		-34.20825	
54.95968	1729.706		-34.19075	
55.01363	1727.814		-34.17231	
55.06757	1725.896		-34.15314	
55.12152	1723.951		-34.13348	
55.17547	1721.985		-34.11354	
55.22942	1720.009		-34.09358	
55.28337	1718.033		-34.07384	
55.33731	1716.066		-34.05458	
55.39127	1714.115		-34.036	
55.44521	1712.184		-34.01828	
55.49916	1710.27		-34.00152	
55.55311	1708.37		-33.98577	
55.60706	1706.475		-33.97104	
55.66101	1704.581		-33.95729	
55.71495	1702.686		-33.94447	
55.7689	1700.797		-33.93248	
55.82285	1698.922		-33.92117	
55.8768	1697.07		-33.9104	
55.93075	1695.244		-33.90001	
55.9847	1693.445		-33.88979	
56.03865	1691.669		-33.87958	
56.09259	1689.917		-33.86918	
56.14654	1688.191		-33.8584	
56.20049	1686.492		-33.84709	
56.25444	1684.811		-33.83507	
56.30839	1683.14		-33.82223	
56.36234	1681.476		-33.80846	
56.41628	1679.811		-33.79368	
56.47023	1678.143		-33.77787	
56.52418	1676.462		-33.76102	
56.57813	1674.756		-33.74316	
56.63208	1673.016		-33.72437	
56.68603	1671.24		-33.70474	
56.73997	1669.436		-33.68441	
56.79392	1667.613		-33.66354	
56.84787	1665.781		-33.64225	
56.90182	1663.948		-33.62069	
56.95577	1662.122		-33.59896	
57.00972	1660.303		-33.57716	
57.06366	1658.485		-33.55539	
57.11761	1656.661		-33.53373	
57.17156	1654.822		-33.51228	
57.22551	1652.966		-33.49114	
57.27946	1651.089		-33.47042	
57.33341	1649.194		-33.45021	
57.38736	1647.287		-33.43055	
57.4413	1645.379		-33.41146	
57.49525	1643.482		-33.39293	
57.5492	1641.602		-33.37491	
57.60315	1639.74		-33.35737	
57.6571	1637.894		-33.3403	
57.71104	1636.061		-33.32367	
57.76499	1634.241		-33.30747	
57.81894	1632.433		-33.29168	
57.87289	1630.635		-33.27626	
57.92684	1628.843		-33.26114	
57.98079	1627.056		-33.24622	
58.03474	1625.266		-33.23137	
58.08868	1623.471		-33.21642	
58.14263	1621.671		-33.20121	
58.19658	1619.866		-33.18554	
58.25053	1618.053		-33.16925	
58.30448	1616.236		-33.1522	
58.35843	1614.418		-33.1343	
58.41237	1612.606		-33.11546	
58.46632	1610.804		-33.09562	
58.52027	1609.015		-33.07477	
58.57422	1607.236		-33.05289	
58.62817	1605.465		-33.03	
58.68212	1603.7		-33.00618	
58.73606	1601.94		-32.98151	
58.79001	1600.182		-32.95607	
58.84396	1598.426		-32.92997	
58.89791	1596.669		-32.90328	
58.95186	1594.906		-32.87606	
59.00581	1593.132		-32.84832	
59.05975	1591.347		-32.82005	
59.1137	1589.555		-32.79117	
59.16765	1587.765		-32.7616	
59.2216	1585.983		-32.73122	
59.27555	1584.212		-32.69992	
59.3295	1582.453		-32.66756	
59.38345	1580.703		-32.63395	
59.43739	1578.964		-32.5989	
59.49134	1577.237		-32.56223	
59.54529	1575.524		-32.52375	
59.59924	1573.822		-32.48334	
59.65319	1572.127		-32.44091	
59.70713	1570.435		-32.39644	
59.76109	1568.737		-32.34997	
59.81503	1567.029		-32.30161	
59.86898	1565.31		-32.2515	
59.92293	1563.585		-32.19981	
59.97688	1561.861		-32.14677	
60.03083	1560.145		-32.09257	
60.08477	1558.437		-32.03743	
60.13872	1556.733		-31.98151	
60.19267	1555.029		-31.92499	
60.24662	1553.32		-31.86803	
60.30057	1551.606		-31.81082	
60.35452	1549.882		-31.75352	
60.40847	1548.148		-31.69627	
60.46241	1546.402		-31.63919	
60.51636	1544.643		-31.58237	
60.57031	1542.869		-31.52585	
60.62426	1541.078		-31.46969	
60.67821	1539.271		-31.41393	
60.73215	1537.454		-31.35863	
60.7861	1535.633		-31.30383	
60.84005	1533.811		-31.24957	
60.894	1531.993		-31.19586	
60.94795	1530.182		-31.14266	
61.0019	1528.38		-31.08992	
61.05585	1526.595		-31.03752	
61.10979	1524.829		-30.98533	
61.16374	1523.088		-30.93316	
61.21769	1521.369		-30.88079	
61.27164	1519.671		-30.82799	
61.32559	1517.987		-30.7745	
61.37954	1516.316		-30.72006	
61.43348	1514.66		-30.66436	
61.48743	1513.027		-30.60711	
61.54138	1511.42		-30.54804	
61.59533	1509.846		-30.48685	
61.64928	1508.306		-30.42332	
61.70323	1506.801		-30.35723	
61.75718	1505.326		-30.28841	
61.81112	1503.872		-30.21673	
61.86507	1502.424		-30.14209	
61.91902	1500.976		-30.06444	
61.97297	1499.521		-29.98377	
62.02692	1498.051		-29.90008	
62.08086	1496.562		-29.81341	
62.13482	1495.049		-29.72376	
62.18876	1493.507		-29.63117	
62.24271	1491.939		-29.53561	
62.29666	1490.345		-29.43708	
62.35061	1488.728		-29.33552	
62.40456	1487.09		-29.23085	
62.4585	1485.438		-29.12294	
62.51245	1483.774		-29.01161	
62.5664	1482.103		-28.89661	
62.62035	1480.432		-28.77768	
62.6743	1478.769		-28.65448	
62.72824	1477.122		-28.52664	
62.7822	1475.49		-28.39373	
62.83614	1473.868		-28.25533	
62.89009	1472.244		-28.11093	
62.94404	1470.615		-27.96	
62.99799	1468.979		-27.80198	
63.05194	1467.34		-27.6363	
63.10588	1465.705		-27.46236	
63.15983	1464.086		-27.27961	
63.21378	1462.487		-27.08742	
63.26773	1460.912		-26.88525	
63.32168	1459.358		-26.67249	
63.37563	1457.828		-26.44852	
63.42958	1456.329		-26.21276	
63.48352	1454.866		-25.96465	
63.53747	1453.438		-25.70363	
63.59142	1452.039		-25.42922	
63.64537	1450.66		-25.14091	
63.69932	1449.293		-24.83825	
63.75327	1447.932		-24.52082	
63.80721	1446.569		-24.1882	
63.86116	1445.194		-23.84	
63.91511	1443.8		-23.47598	
63.96906	1442.384		-23.09581	
64.02301	1440.947		-22.69926	
64.07696	1439.492		-22.28619	
64.13091	1438.028		-21.85633	
64.18485	1436.562		-21.4095	
64.2388	1435.109		-20.94547	
64.29275	1433.678		-20.46403	
64.34669	1432.281		-19.9649	
64.40065	1430.921		-19.4477	
64.4546	1429.601		-18.91227	
64.50854	1428.319		-18.35816	
64.56249	1427.075		-17.7849	
64.61644	1425.868		-17.19203	
64.67039	1424.701		-16.57902	
64.72433	1423.577		-15.94526	
64.77828	1422.495		-15.29012	
64.83224	1421.454		-14.61279	
64.88618	1420.455		-13.91273	
64.94013	1419.501		-13.18907	
64.99408	1418.6		-12.44098	
65.04803	1417.758		-11.66766	
65.10197	1416.981		-10.86828	
65.15592	1416.268		-10.04204	
65.20987	1415.618		-9.188124	
65.26382	1415.028		-8.305592	
65.31777	1414.495		-7.393903	
65.37172	1414.015		-6.45212	
65.42567	1413.581		-5.479416	
65.47961	1413.19		-4.47504	
65.53356	1412.838		-3.438249	
65.58751	1412.522		-2.368323	
65.64146	1412.239		-1.264545	
65.69541	1411.99		-0.1260329	
65.74936	1411.776		1.047555	
65.80331	1411.6		2.257048	
65.85725	1411.466		3.503112	
65.9112	1411.384		4.786306	
65.96515	1411.359		6.107143	
66.0191	1411.387		7.466078	
66.07304	1411.467		8.86354	
66.127	1411.598		10.30016	
66.18095	1411.781		11.77592	
66.23489	1412.019		13.29142	
66.28884	1412.317		14.84714	
66.34279	1412.677		16.4435	
66.39674	1413.099		18.08098	
66.45068	1413.586		19.7601	
66.50463	1414.141		21.48138	
66.55859	1414.77		23.24568	
66.61253	1415.483		25.05306	
66.66648	1416.289		26.90449	
66.72043	1417.2		28.8006	
66.77438	1418.225		30.74208	
66.82832	1419.371		32.72964	
66.88227	1420.638		34.76397	
66.93622	1422.024		36.84576	
66.99017	1423.535		38.97569	
67.04412	1425.175		41.15471	
67.09807	1426.948		43.3828	
67.15202	1428.849		45.66082	
67.20596	1430.874		47.98925	
67.25991	1433.02		50.36855	
67.31386	1435.29		52.79911	
67.36781	1437.688		55.28124	
67.42175	1440.222		57.8152	
67.47571	1442.899		60.40156	
67.52966	1445.724		63.0397	
67.5836	1448.704		65.73007	
67.63755	1451.843		68.47275	
67.6915	1455.14		71.26773	
67.74545	1458.587		74.11498	
67.79939	1462.177		77.0144	
67.85334	1465.911		79.96579	
67.9073	1469.791		82.96935	
67.96124	1473.819		86.02389	
68.01519	1477.997		89.12937	
68.06914	1482.329		92.28529	
68.12309	1486.824		95.49104	
68.17703	1491.493		98.74596	
68.23098	1496.35		102.0493	
68.28493	1501.406		105.4004	
68.33888	1506.67		108.7987	
68.39283	1512.149		112.2424	
68.44678	1517.844		115.7311	
68.50072	1523.756		119.2637	
68.55467	1529.876		122.8393	
68.60862	1536.194		126.457	
68.66257	1542.709		130.1157	
68.71651	1549.421		133.8144	
68.77047	1556.336		137.5526	
68.82442	1563.457		141.3282	
68.87836	1570.788		145.1405	
68.93231	1578.33		148.9885	
68.98626	1586.083		152.8708	
69.04021	1594.056		156.7864	
69.09415	1602.256		160.7337	
69.1481	1610.694		164.7112	
69.20206	1619.376		168.7181	
69.256	1628.298		172.7513	
69.30995	1637.457		176.8094	
69.3639	1646.85		180.8904	
69.41785	1656.47		184.9915	
69.47179	1666.31		189.1103	
69.52574	1676.373		193.2436	
69.57969	1686.66		197.3883	
69.63364	1697.177		201.5413	
69.68759	1707.925		205.6976	
69.74154	1718.911		209.8538	
69.79549	1730.147		214.0053	
69.84943	1741.639		218.1473	
69.90338	1753.392		222.2747	
69.95733	1765.407		226.3818	
70.01128	1777.685		230.4628	
70.06523	1790.228		234.5118	
70.11918	1803.034		238.5213	
70.17313	1816.107		242.4846	
70.22707	1829.444		246.3946	
70.28102	1843.04		250.2437	
70.33497	1856.889		254.0241	
70.38892	1870.988		257.7276	
70.44286	1885.34		261.3461	
70.49682	1899.945		264.8716	
70.55077	1914.79		268.2946	
70.60471	1929.869		271.607	
70.65866	1945.177		274.8004	
70.71261	1960.718		277.866	
70.76656	1976.498		280.7956	
70.8205	1992.526		283.5807	
70.87445	2008.804		286.2134	
70.92841	2025.328		288.6861	
70.98235	2042.087		290.9908	
71.0363	2059.083		293.1208	
71.09025	2076.322		295.0695	
71.1442	2093.806		296.8308	
71.19814	2111.531		298.3992	
71.25209	2129.483		299.7697	
71.30604	2147.651		300.9378	
71.35999	2166.026		301.8996	
71.41394	2184.598		302.6517	
71.46789	2203.361		303.1913	
71.52184	2222.312		303.5164	
71.57578	2241.444		303.6254	
71.62973	2260.75		303.5173	
71.68368	2280.22		303.1918	
71.73763	2299.845		302.649	
71.79158	2319.608		301.8895	
71.84553	2339.477		300.9151	
71.89948	2359.414		299.7274	
71.95342	2379.374		298.3289	
72.00737	2399.307		296.7225	
72.06132	2419.169		294.9116	
72.11526	2438.926		292.8999	
72.16921	2458.553		290.6917	
72.22317	2478.024		288.2912	
72.27711	2497.303		285.7038	
72.33106	2516.357		282.9344	
72.38501	2535.147		279.9886	
72.43896	2553.638		276.8721	
72.4929	2571.793		273.5909	
72.54685	2589.577		270.1513	
72.6008	2606.951		266.5598	
72.65475	2623.884		262.8224	
72.7087	2640.343		258.9469	
72.76265	2656.316		254.9399	
72.8166	2671.791		250.8085	
72.87054	2686.756		246.5602	
72.92449	2701.204		242.2023	
72.97844	2715.13		237.7427	
73.03239	2728.536		233.1894	
73.08634	2741.43		228.5498	
73.14029	2753.818		223.8337	
73.19424	2765.706		219.0489	
73.24818	2777.102		214.2043	
73.30213	2788.015		209.3087	
73.35608	2798.456		204.3712	
73.41003	2808.431		199.401	
73.46397	2817.943		194.4076	
73.51793	2827.001		189.3995	
73.57188	2835.615		184.3875	
73.62582	2843.802		179.3803	
73.67977	2851.591		174.3871	
73.73372	2859.008		169.4171	
73.78767	2866.086		164.4796	
73.84161	2872.857		159.5833	
73.89556	2879.351		154.7371	
73.94952	2885.587		149.9486	
74.00346	2891.573		145.2275	
74.05741	2897.309		140.5807	
74.11136	2902.8		136.0155	
74.16531	2908.052		131.5388	
74.21925	2913.076		127.1568	
74.2732	2917.894		122.8749	
74.32715	2922.528		118.6984	
74.3811	2927.002		114.6311	
74.43505	2931.342		110.6779	
74.489	2935.573		106.8414	
74.54295	2939.717		103.1242	
74.59689	2943.781		99.52808	
74.65084	2947.762		96.0543	
74.70479	2951.651		92.70347	
74.75874	2955.435		89.47567	
74.81269	2959.095		86.37	
74.86664	2962.625		83.3864	
74.92059	2966.028		80.52299	
74.97453	2969.315		77.77793	
75.02848	2972.495		75.14898	
75.08243	2975.577		72.63356	
75.13638	2978.564		70.22878	
75.19032	2981.458		67.93153	
75.24428	2984.266		65.73815	
75.29823	2987.003		63.64576	
75.35217	2989.68		61.65038	
75.40612	2992.298		59.74831	
75.46007	2994.852		57.93577	
75.51402	2997.337		56.20899	
75.56796	2999.754		54.56425	
75.62191	3002.111		52.99792	
75.67587	3004.411		51.50629	
75.72981	3006.657		50.08639	
75.78376	3008.851		48.7347	
75.83771	3011		47.44803	
75.89165	3013.111		46.22328	
75.9456	3015.195		45.05742	
75.99955	3017.258		43.94755	
76.0535	3019.302		42.89081	
76.10745	3021.328		41.88428	
76.1614	3023.343		40.92549	
76.21535	3025.356		40.01163	
76.26929	3027.369		39.14003	
76.32324	3029.37		38.30809	
76.37719	3031.35		37.51326	
76.43114	3033.302		36.75298	
76.48508	3035.225		36.02473	
76.53903	3037.119		35.32601	
76.59299	3038.98		34.65425	
76.64693	3040.803		34.00723	
76.70088	3042.578		33.38252	
76.75483	3044.289		32.77789	
76.80878	3045.918		32.19126	
76.86272	3047.453		31.62073	
76.91667	3048.891		31.06457	
76.97062	3050.236		30.52125	
77.02457	3051.5		29.98931	
77.07852	3052.698		29.46766	
77.13247	3053.843		28.95518	
77.18642	3054.956		28.45099	
77.24036	3056.054		27.95438	
77.29431	3057.16		27.46475	
77.34826	3058.285		26.98166	
77.40221	3059.439		26.50473	
77.45616	3060.617		26.0337	
77.51011	3061.809		25.56864	
77.56406	3063.007		25.1096	
77.618	3064.204		24.65688	
77.67195	3065.39		24.21095	
77.7259	3066.566		23.77238	
77.77985	3067.74		23.34179	
77.83379	3068.928		22.9198	
77.88775	3070.148		22.50696	
77.9417	3071.419		22.104	
77.99564	3072.751		21.71143	
78.04959	3074.148		21.32977	
78.10354	3075.611		20.95946	
78.15749	3077.148		20.60085	
78.21143	3078.749		20.25424	
78.26538	3080.39		19.91981	
78.31934	3082.035		19.5976	
78.37328	3083.639		19.28764	
78.42723	3085.165		18.98973	
78.48118	3086.584		18.70358	
78.53513	3087.882		18.42879	
78.58907	3089.058		18.16485	
78.64302	3090.124		17.91115	
78.69697	3091.088		17.66694	
78.75092	3091.963		17.4314	
78.80487	3092.76		17.20378	
78.85882	3093.495		16.98325	
78.91277	3094.178		16.76907	
78.96671	3094.813		16.56057	
79.02066	3095.393		16.35718	
79.07461	3095.91		16.15846	
79.12856	3096.352		15.96416	
79.18251	3096.716		15.77415	
79.23646	3097.006		15.58861	
79.29041	3097.24		15.40781	
79.34435	3097.443		15.23221	
79.3983	3097.647		15.06241	
79.45225	3097.886		14.89912	
79.5062	3098.187		14.74316	
79.56014	3098.566		14.59544	
79.6141	3099.019		14.45694	
79.66805	3099.535		14.32876	
79.72199	3100.115		14.21199	
79.77594	3100.755		14.10776	
79.82989	3101.444		14.01717	
79.88383	3102.168		13.9413	
79.93778	3102.912		13.88116	
79.99173	3103.66		13.83773	
80.04568	3104.405		13.81184	
80.09963	3105.153		13.80425	
80.15358	3105.92		13.81554	
80.20753	3106.721		13.84614	
80.26147	3107.572		13.89631	
80.31542	3108.475		13.96611	
80.36937	3109.417		14.05542	
80.42332	3110.371		14.16391	
80.47727	3111.306		14.29106	
80.53122	3112.196		14.43615	
80.58517	3113.024		14.59826	
80.63911	3113.78		14.77624	
80.69306	3114.456		14.96873	
80.74701	3115.055		15.17419	
80.80096	3115.592		15.39092	
80.8549	3116.088		15.61712	
80.90886	3116.568		15.85089	
80.96281	3117.055		16.0902	
81.01675	3117.57		16.33302	
81.0707	3118.133		16.57733	
81.12465	3118.758		16.82111	
81.1786	3119.44		17.06248	
81.23254	3120.164		17.29967	
81.28649	3120.913		17.5311	
81.34045	3121.677		17.75539	
81.39439	3122.443		17.97125	
81.44834	3123.22		18.17766	
81.50229	3124.021		18.37375	
81.55624	3124.86		18.55882	
81.61018	3125.742		18.73229	
81.66413	3126.677		18.89373	
81.71808	3127.681		19.0428	
81.77203	3128.765		19.17926	
81.82598	3129.938		19.30286	
81.87993	3131.202		19.41344	
81.93388	3132.546		19.51085	
81.98782	3133.956		19.59496	
82.04177	3135.41		19.66565	
82.09572	3136.884		19.72286	
82.14967	3138.354		19.7665	
82.20362	3139.814		19.79653	
82.25757	3141.272		19.81279	
82.31152	3142.732		19.8151	
82.36546	3144.197		19.8032	
82.41941	3145.669		19.77671	
82.47336	3147.146		19.73517	
82.52731	3148.621		19.678	
82.58125	3150.091		19.60447	
82.63521	3151.551		19.51376	
82.68916	3152.998		19.40494	
82.7431	3154.429		19.27701	
82.79705	3155.848		19.12893	
82.851	3157.255		18.95966	
82.90495	3158.646		18.76814	
82.95889	3160.011		18.55331	
83.01284	3161.346		18.31411	
83.0668	3162.655		18.04944	
83.12074	3163.938		17.75831	
83.17469	3165.194		17.43972	
83.22864	3166.42		17.09277	
83.28259	3167.61		16.71672	
83.33653	3168.76		16.31097	
83.39048	3169.862		15.87508	
83.44443	3170.91		15.40879	
83.49838	3171.903		14.91193	
83.55233	3172.842		14.38469	
83.60628	3173.723		13.82724	
83.66022	3174.548		13.23995	
83.71417	3175.323		12.62333	
83.76812	3176.049		11.97807	
83.82207	3176.73		11.30494	
83.87601	3177.37		10.60484	
83.92997	3177.971		9.878611	
83.98392	3178.541		9.127533	
84.03786	3179.083		8.352654	
84.09181	3179.594		7.555227	
84.14576	3180.074		6.736592	
84.19971	3180.532		5.898142	
84.25365	3180.968		5.041271	
84.3076	3181.387		4.167367	
84.36156	3181.797		3.277674	
84.4155	3182.195		2.373821	
84.46945	3182.58		1.457063	
84.5234	3182.947		0.5287984	
84.57735	3183.292		-0.4096037	
84.63129	3183.613		-1.356782	
84.68524	3183.899		-2.311419	
84.73919	3184.144		-3.272222	
84.79314	3184.34		-4.238085	
84.84709	3184.478		-5.20747	
84.90104	3184.542		-6.179269	
84.95499	3184.517		-7.152243	
85.00893	3184.388		-8.125217	
85.06288	3184.155		-9.097059	
85.11683	3183.814		-10.06673	
85.17078	3183.363		-11.03324	
85.22473	3182.799		-11.9958	
85.27868	3182.124		-12.95322	
85.33263	3181.341		-13.90474	
85.38657	3180.454		-14.84944	
85.44052	3179.474		-15.78642	
85.49447	3178.402		-16.71476	
85.54842	3177.239		-17.63363	
85.60236	3175.982		-18.54225	
85.65631	3174.636		-19.43988	
85.71027	3173.207		-20.32597	
85.76421	3171.713		-21.19964	
85.81816	3170.176		-22.06043	
85.87211	3168.624		-22.90782	
85.92606	3167.069		-23.74131	
85.98	3165.513		-24.56043	
86.03395	3163.937		-25.36476	
86.0879	3162.323		-26.15392	
86.14185	3160.651		-26.92764	
86.1958	3158.906		-27.68541	
86.24975	3157.078		-28.42712	
86.3037	3155.177		-29.15263	
86.35764	3153.214		-29.86192	
86.41159	3151.201		-30.55501	
86.46554	3149.145		-31.232	
86.51949	3147.053		-31.89305	
86.57344	3144.93		-32.53844	
86.62739	3142.784		-33.1683	
86.68134	3140.618		-33.78309	
86.73528	3138.434		-34.38327	
86.78923	3136.225		-34.96939	
86.84318	3133.983		-35.54202	
86.89713	3131.692		-36.10174	
86.95107	3129.35		-36.64915	
87.00503	3126.965		-37.18492	
87.05898	3124.561		-37.70952	
87.11292	3122.153		-38.22364	
87.16687	3119.755		-38.7279	
87.22082	3117.375		-39.22296	
87.27477	3115.022		-39.70943	
87.32871	3112.7		-40.18792	
87.38266	3110.421		-40.65895	
87.43661	3108.197		-41.12306	
87.49056	3106.032		-41.58046	
87.54451	3103.925		-42.03153	
87.59846	3101.856		-42.47651	
87.6524	3099.8		-42.91554	
87.70635	3097.728		-43.34871	
87.7603	3095.615		-43.77609	
87.81425	3093.456		-44.19768	
87.8682	3091.262		-44.61356	
87.92215	3089.052		-45.02359	
87.9761	3086.855		-45.42778	
88.03004	3084.69		-45.82608	
88.08399	3082.561		-46.21843	
88.13794	3080.458		-46.6047	
88.19189	3078.368		-46.9848	
88.24583	3076.264		-47.3586	
88.29979	3074.116		-47.726	
88.35374	3071.899		-48.08674	
88.40768	3069.594		-48.44072	
88.46163	3067.185		-48.78773	
88.51558	3064.67		-49.12753	
88.56953	3062.057		-49.45984	
88.62347	3059.363		-49.78434	
88.67742	3056.615		-50.10074	
88.73138	3053.844		-50.40879	
88.78532	3051.074		-50.70817	
88.83927	3048.309		-50.99876	
88.89322	3045.531		-51.28047	
88.94717	3042.726		-51.55322	
89.00111	3039.879		-51.81698	
89.05506	3036.983		-52.07175	
89.10901	3034.028		-52.31754	
89.16296	3031.004		-52.55441	
89.21691	3027.9		-52.7823	
89.27086	3024.707		-53.00123	
89.32481	3021.417		-53.21121	
89.37875	3018.042		-53.41222	
89.4327	3014.602		-53.60427	
89.48665	3011.128		-53.78741	
89.5406	3007.639		-53.96171	
89.59455	3004.165		-54.1273	
89.6485	3000.73		-54.28424	
89.70245	2997.344		-54.43268	
89.75639	2993.998		-54.57278	
89.81034	2990.675		-54.70473	
89.86429	2987.349		-54.82877	
89.91824	2984.014		-54.94515	
89.97218	2980.668		-55.05413	
90.02614	2977.315		-55.15597	
90.08009	2973.961		-55.25093	
90.13403	2970.624		-55.33934	
90.18798	2967.322		-55.4216	
90.24193	2964.074		-55.49821	
90.29588	2960.882		-55.56972	
90.34982	2957.751		-55.63681	
90.40377	2954.672		-55.70021	
90.45773	2951.645		-55.76074	
90.51167	2948.669		-55.81919	
90.56562	2945.736		-55.87633	
90.61957	2942.834		-55.93287	
90.67352	2939.951		-55.98942	
90.72746	2937.082		-56.0465	
90.78141	2934.229		-56.10458	
90.83536	2931.393		-56.16409	
90.88931	2928.576		-56.22544	
90.94326	2925.777		-56.28898	
90.99721	2922.993		-56.35503	
91.05116	2920.222		-56.42392	
91.1051	2917.467		-56.49595	
91.15905	2914.739		-56.57139	
91.213	2912.047		-56.65048	
91.26694	2909.398		-56.73345	
91.3209	2906.782		-56.82048	
91.37485	2904.185		-56.91163	
91.42879	2901.589		-57.00695	
91.48274	2898.973		-57.10642	
91.53669	2896.321		-57.21004	
91.59064	2893.631		-57.31782	
91.64458	2890.906		-57.42973	
91.69853	2888.155		-57.54573	
91.75249	2885.391		-57.66578	
91.80643	2882.622		-57.78978	
91.86038	2879.846		-57.91764	
91.91433	2877.052		-58.04928	
91.96828	2874.222		-58.18457	
92.02222	2871.34		-58.32337	
92.07617	2868.39		-58.46549	
92.13012	2865.363		-58.61071	
92.18407	2862.252		-58.75881	
92.23802	2859.058		-58.90949	
92.29197	2855.773		-59.06247	
92.34592	2852.392		-59.21745	
92.39986	2848.91		-59.3741	
92.45381	2845.346		-59.4939	
92.50776	2841.726		-59.603	
92.56171	2838.08		-59.70527	
92.61566	2834.426		-59.80415	
92.66961	2830.779		-59.90198	
92.72356	2827.136		-60.00024	
92.7775	2823.499		-60.09965	
92.83145	2819.862		-60.20052	
92.8854	2816.235		-60.30286	
92.93935	2812.614		-60.40656	
92.99329	2808.996		-60.51138	
93.04725	2805.36		-60.61709	
93.1012	2801.699		-60.72339	
93.15514	2798.008		-60.83003	
93.20909	2794.303		-60.93674	
93.26304	2790.601		-61.04329	
93.31699	2786.925		-61.14944	
93.37093	2783.289		-61.25497	
93.42488	2779.71		-61.35968	
93.47884	2776.191		-61.46339	
93.53278	2772.747		-61.5659	
93.58673	2769.366		-61.66706	
93.64068	2766.02		-61.76672	
93.69463	2762.692		-61.86473	
93.74857	2759.376		-61.96097	
93.80252	2756.05		-62.05532	
93.85647	2752.708		-62.14767	
93.91042	2749.355		-62.23795	
93.96437	2746.007		-62.32602	
94.01832	2742.683		-62.41184	
94.07227	2739.53		-62.49535	
94.12621	2736.363		-62.5765	
94.18016	2733.17		-62.65523	
94.23411	2729.96		-62.73153	
94.28806	2726.744		-62.80536	
94.34201	2723.525		-62.87672	
94.39596	2720.308		-62.94558	
94.44991	2717.094		-63.01196	
94.50385	2713.882		-63.07584	
94.5578	2710.672		-63.13727	
94.61175	2707.465		-63.19624	
94.6657	2704.26		-63.2528	
94.71964	2701.057		-63.30697	
94.7736	2697.856		-63.3588	
94.82755	2694.659		-63.40832	
94.88149	2691.465		-63.45559	
94.93544	2688.272		-63.50067	
94.98939	2685.077		-63.54362	
