T[Â°C]	330nm [counts / mm]	S.D.	First derivative	S.D. of first derivative
20.00047	5023.554		-75.02135	
20.05458	5019.478		-74.90046	
20.10868	5015.416		-74.77963	
20.16279	5011.365		-74.65889	
20.2169	5007.326		-74.53825	
20.27101	5003.297		-74.41772	
20.32511	4999.276		-74.29733	
20.37922	4995.263		-74.17711	
20.43333	4991.254		-74.05707	
20.48743	4987.249		-73.93723	
20.54154	4983.244		-73.81762	
20.59565	4979.24		-73.69827	
20.64976	4975.234		-73.57921	
20.70386	4971.228		-73.46046	
20.75797	4967.222		-73.34203	
20.81208	4963.221		-73.22397	
20.86618	4959.239		-73.10629	
20.92029	4955.313		-72.98901	
20.9744	4951.52		-72.87216	
21.0285	4947.731		-72.75576	
21.08261	4943.923		-72.63982	
21.13672	4940.083		-72.52435	
21.19082	4936.208		-72.40938	
21.24493	4932.294		-72.29491	
21.29904	4928.338		-72.18094	
21.35315	4924.344		-72.0675	
21.40725	4920.321		-71.95457	
21.46136	4916.284		-71.84216	
21.51547	4912.253		-71.73029	
21.56957	4908.246		-71.61893	
21.62368	4904.272		-71.50809	
21.67779	4900.331		-71.39776	
21.7319	4896.42		-71.28792	
21.786	4892.527		-71.17855	
21.84011	4888.646		-71.06963	
21.89422	4884.781		-70.96111	
21.94832	4880.937		-70.85294	
22.00243	4877.116		-70.74506	
22.05654	4873.311		-70.63739	
22.11064	4869.518		-70.52982	
22.16475	4865.736		-70.42224	
22.21886	4861.967		-70.31448	
22.27296	4858.22		-70.20638	
22.32707	4854.506		-70.09775	
22.38118	4850.83		-69.98836	
22.43529	4847.187		-69.87802	
22.48939	4843.567		-69.76661	
22.5435	4839.972		-69.65414	
22.59761	4836.399		-69.54086	
22.65171	4832.838		-69.45324	
22.70582	4829.281		-69.36737	
22.75993	4825.724		-69.28343	
22.81404	4822.166		-69.20166	
22.86814	4818.6		-69.1223	
22.92225	4815.009		-69.04559	
22.97636	4811.374		-68.97166	
23.03046	4807.684		-68.90064	
23.08457	4803.937		-68.8325	
23.13868	4800.148		-68.7672	
23.19278	4796.341		-68.70464	
23.24689	4792.528		-68.6447	
23.301	4788.723		-68.58723	
23.3551	4784.937		-68.53207	
23.40921	4781.176		-68.47903	
23.46332	4777.445		-68.42799	
23.51743	4773.753		-68.37879	
23.57153	4770.103		-68.33133	
23.62564	4766.489		-68.28543	
23.67975	4762.9		-68.24095	
23.73385	4759.316		-68.19772	
23.78796	4755.711		-68.1556	
23.84207	4752.059		-68.11445	
23.89618	4748.346		-68.0741	
23.95028	4744.575		-68.03442	
24.00439	4740.756		-67.99525	
24.0585	4736.904		-67.95646	
24.1126	4733.04		-67.91788	
24.16671	4729.195		-67.87938	
24.22082	4725.402		-67.84077	
24.27492	4721.687		-67.80186	
24.32903	4718.062		-67.76245	
24.38314	4714.514		-67.72234	
24.43724	4711.023		-67.68138	
24.49135	4707.557		-67.63945	
24.54546	4704.075		-67.59644	
24.59957	4700.542		-67.55229	
24.65367	4696.937		-67.50701	
24.70778	4693.25		-67.46066	
24.76189	4689.493		-67.41344	
24.81599	4685.69		-67.36554	
24.8701	4681.873		-67.31725	
24.92421	4678.067		-67.26881	
24.97832	4674.289		-67.22053	
25.03242	4670.549		-67.17265	
25.08653	4666.852		-67.12547	
25.14064	4663.198		-67.07932	
25.19474	4659.584		-67.0345	
25.24885	4655.99		-66.99127	
25.30296	4652.388		-66.94984	
25.35706	4648.754		-66.91033	
25.41117	4645.077		-66.87279	
25.46528	4641.364		-66.83712	
25.51938	4637.633		-66.80318	
25.57349	4633.907		-66.77071	
25.6276	4630.204		-66.73949	
25.68171	4626.533		-66.7093	
25.73581	4622.909		-66.67999	
25.78992	4619.341		-66.65143	
25.84403	4615.835		-66.62352	
25.89813	4612.393		-66.59616	
25.95224	4609.001		-66.56928	
26.00635	4605.635		-66.5428	
26.06046	4602.266		-66.51662	
26.11456	4598.875		-66.49063	
26.16867	4595.451		-66.46464	
26.22278	4591.986		-66.43843	
26.27688	4588.479		-66.41176	
26.33099	4584.93		-66.38438	
26.3851	4581.354		-66.35606	
26.43921	4577.773		-66.32655	
26.49331	4574.207		-66.29563	
26.54742	4570.665		-66.26315	
26.60152	4567.154		-66.22895	
26.65563	4563.674		-66.19295	
26.70974	4560.213		-66.1551	
26.76385	4556.758		-66.11543	
26.81795	4553.292		-66.07404	
26.87206	4549.791		-66.03106	
26.92617	4546.241		-65.98666	
26.98027	4542.634		-65.94102	
27.03438	4538.971		-65.8943	
27.08849	4535.26		-65.84669	
27.1426	4531.519		-65.79833	
27.1967	4527.771		-65.74937	
27.25081	4524.038		-65.69991	
27.30492	4520.329		-65.64996	
27.35902	4516.644		-65.59949	
27.41313	4512.977		-65.54843	
27.46724	4509.32		-65.49663	
27.52135	4505.672		-65.44392	
27.57545	4502.036		-65.39012	
27.62956	4498.414		-65.33508	
27.68367	4494.802		-65.27864	
27.73777	4491.196		-65.22071	
27.79188	4487.597		-65.16118	
27.84599	4484.011		-65.10001	
27.90009	4480.443		-65.03717	
27.9542	4476.885		-64.97273	
28.00831	4473.323		-64.90684	
28.06241	4469.751		-64.83966	
28.11652	4466.174		-64.77146	
28.17063	4462.602		-64.70251	
28.22474	4459.039		-64.63305	
28.27884	4455.486		-64.56331	
28.33295	4451.94		-64.49345	
28.38706	4448.407		-64.42361	
28.44116	4444.89		-64.35386	
28.49527	4441.395		-64.28427	
28.54938	4437.928		-64.21484	
28.60349	4434.491		-64.14558	
28.65759	4431.079		-64.07658	
28.7117	4427.689		-64.00793	
28.76581	4424.321		-63.93986	
28.81991	4420.965		-63.87252	
28.87402	4417.609		-63.80609	
28.92813	4414.241		-63.74069	
28.98223	4410.859		-63.67643	
29.03634	4407.468		-63.61343	
29.09045	4404.067		-63.55181	
29.14455	4400.663		-63.49167	
29.19866	4397.257		-63.43314	
29.25277	4393.856		-63.37629	
29.30688	4390.464		-63.3212	
29.36098	4387.085		-63.26794	
29.41509	4383.729		-63.21657	
29.4692	4380.403		-63.16706	
29.5233	4377.113		-63.11937	
29.57741	4373.855		-63.0734	
29.63152	4370.623		-63.02904	
29.68563	4367.402		-62.98613	
29.73973	4364.181		-62.94452	
29.79384	4360.951		-62.90406	
29.84795	4357.705		-62.86464	
29.90205	4354.438		-62.82616	
29.95616	4351.144		-62.78861	
30.01027	4347.819		-62.75203	
30.06437	4344.468		-62.71653	
30.11848	4341.097		-62.68227	
30.17259	4337.709		-62.64942	
30.22669	4334.309		-62.61814	
30.2808	4330.899		-62.58858	
30.33491	4327.483		-62.56089	
30.38902	4324.06		-62.53517	
30.44312	4320.628		-62.51148	
30.49723	4317.185		-62.48982	
30.55134	4313.724		-62.47013	
30.60544	4310.246		-62.4523	
30.65955	4306.753		-62.43621	
30.71366	4303.245		-62.42172	
30.76777	4299.726		-62.40859	
30.82187	4296.203		-62.39653	
30.87598	4292.682		-62.38523	
30.93009	4289.165		-62.37439	
30.98419	4285.656		-62.36374	
31.0383	4282.153		-62.35308	
31.09241	4278.658		-62.3422	
31.14651	4275.174		-62.33096	
31.20062	4271.703		-62.31921	
31.25473	4268.248		-62.30683	
31.30883	4264.808		-62.29369	
31.36294	4261.386		-62.27963	
31.41705	4257.993		-62.26444	
31.47116	4254.636		-62.24789	
31.52526	4251.314		-62.2297	
31.57937	4248.016		-62.2096	
31.63348	4244.729		-62.18728	
31.68758	4241.445		-62.16248	
31.74169	4238.166		-62.13494	
31.7958	4234.894		-62.10445	
31.84991	4231.63		-62.07087	
31.90401	4228.373		-62.0341	
31.95812	4225.12		-61.99409	
32.01223	4221.872		-61.95091	
32.06633	4218.624		-61.90469	
32.12044	4215.365		-61.85564	
32.17455	4212.09		-61.804	
32.22865	4208.794		-61.75013	
32.28276	4205.47		-61.69436	
32.33687	4202.109		-61.63714	
32.39098	4198.713		-61.57892	
32.44508	4195.294		-61.52015	
32.49919	4191.865		-61.46126	
32.5533	4188.439		-61.40268	
32.6074	4185.025		-61.34483	
32.66151	4181.637		-61.28811	
32.71562	4178.277		-61.23285	
32.76972	4174.949		-61.17935	
32.82383	4171.646		-61.12787	
32.87794	4168.36		-61.07867	
32.93204	4165.087		-61.03199	
32.98615	4161.819		-60.9881	
33.04026	4158.558		-60.94724	
33.09436	4155.308		-60.90967	
33.14847	4152.061		-60.87562	
33.20258	4148.805		-60.84526	
33.25669	4145.531		-60.81872	
33.31079	4142.239		-60.79606	
33.3649	4138.932		-60.77726	
33.41901	4135.617		-60.76221	
33.47311	4132.3		-60.75069	
33.52722	4128.991		-60.74235	
33.58133	4125.7		-60.73671	
33.63544	4122.433		-60.7332	
33.68954	4119.185		-60.73112	
33.74365	4115.948		-60.72974	
33.79776	4112.712		-60.72829	
33.85186	4109.465		-60.72605	
33.90597	4106.193		-60.72237	
33.96008	4102.899		-60.71665	
34.01418	4099.59		-60.7084	
34.06829	4096.281		-60.69719	
34.1224	4092.988		-60.68266	
34.17651	4089.725		-60.66452	
34.23061	4086.496		-60.64259	
34.28472	4083.3		-60.61682	
34.33883	4080.129		-60.58728	
34.39293	4076.973		-60.55417	
34.44704	4073.823		-60.51775	
34.50115	4070.674		-60.47836	
34.55526	4067.513		-60.43641	
34.60936	4064.334		-60.39231	
34.66347	4061.129		-60.34648	
34.71758	4057.905		-60.29932	
34.77168	4054.667		-60.25122	
34.82579	4051.42		-60.20254	
34.8799	4048.163		-60.15361	
34.934	4044.892		-60.10477	
34.98811	4041.607		-60.0564	
35.04222	4038.309		-60.00887	
35.09632	4034.996		-59.96263	
35.15043	4031.657		-59.9181	
35.20454	4028.288		-59.87573	
35.25864	4024.893		-59.83596	
35.31275	4021.484		-59.7992	
35.36686	4018.072		-59.76581	
35.42097	4014.653		-59.73605	
35.47507	4011.219		-59.71008	
35.52918	4007.76		-59.68793	
35.58329	4004.275		-59.66951	
35.63739	4000.777		-59.65454	
35.6915	3997.283		-59.64266	
35.74561	3993.817		-59.63338	
35.79972	3990.395		-59.62621	
35.85382	3987.027		-59.62058	
35.90793	3983.719		-59.61597	
35.96204	3980.476		-59.61177	
36.01614	3977.301		-59.60733	
36.07025	3974.199		-59.60197	
36.12436	3971.166		-59.59507	
36.17846	3968.196		-59.58603	
36.23257	3965.278		-59.57434	
36.28668	3962.395		-59.55962	
36.34079	3959.523		-59.54156	
36.39489	3956.636		-59.51999	
36.449	3953.719		-59.49482	
36.50311	3950.773		-59.46608	
36.55721	3947.8		-59.43383	
36.61132	3944.809		-59.39821	
36.66543	3941.8		-59.35937	
36.71954	3938.774		-59.31747	
36.77364	3935.734		-59.27267	
36.82775	3932.676		-59.22512	
36.88186	3929.589		-59.17495	
36.93596	3926.468		-59.12231	
36.99007	3923.31		-59.06734	
37.04418	3920.115		-59.01022	
37.09828	3916.883		-58.95113	
37.15239	3913.607		-58.89029	
37.2065	3910.274		-58.82794	
37.2606	3906.882		-58.76431	
37.31471	3903.44		-58.69965	
37.36882	3899.97		-58.6342	
37.42292	3896.497		-58.56816	
37.47703	3893.043		-58.50169	
37.53114	3889.622		-58.43491	
37.58525	3886.237		-58.36788	
37.63935	3882.883		-58.30056	
37.69346	3879.558		-58.23284	
37.74757	3876.26		-58.16459	
37.80167	3872.99		-58.09563	
37.85578	3869.749		-58.02582	
37.90989	3866.533		-57.95498	
37.964	3863.338		-57.88286	
38.0181	3860.156		-57.80921	
38.07221	3856.987		-57.73375	
38.12632	3853.832		-57.65623	
38.18042	3850.706		-57.57644	
38.23453	3847.619		-57.4942	
38.28864	3844.565		-57.4094	
38.34274	3841.529		-57.32204	
38.39685	3838.489		-57.23218	
38.45096	3835.424		-57.14003	
38.50507	3832.328		-57.04588	
38.55917	3829.204		-56.95012	
38.61328	3826.059		-56.85323	
38.66739	3822.899		-56.75573	
38.72149	3819.735		-56.65816	
38.7756	3816.581		-56.56113	
38.82971	3813.448		-56.46522	
38.88382	3810.34		-56.37101	
38.93792	3807.252		-56.27901	
38.99203	3804.181		-56.18971	
39.04613	3801.131		-56.10353	
39.10024	3798.113		-56.02087	
39.15435	3795.132		-55.94207	
39.20846	3792.19		-55.86739	
39.26256	3789.279		-55.79708	
39.31667	3786.387		-55.73129	
39.37078	3783.503		-55.67013	
39.42488	3780.616		-55.61366	
39.47899	3777.723		-55.56194	
39.5331	3774.829		-55.51497	
39.5872	3771.938		-55.47278	
39.64131	3769.057		-55.43531	
39.69542	3766.192		-55.40251	
39.74953	3763.346		-55.37426	
39.80363	3760.522		-55.35042	
39.85774	3757.719		-55.33079	
39.91185	3754.933		-55.3151	
39.96595	3752.163		-55.30305	
40.02006	3749.407		-55.29428	
40.07417	3746.663		-55.28841	
40.12828	3743.93		-55.28505	
40.18238	3741.212		-55.28382	
40.23649	3738.505		-55.28439	
40.2906	3735.794		-55.28644	
40.3447	3733.058		-55.28972	
40.39881	3730.269		-55.29406	
40.45292	3727.41		-55.29936	
40.50702	3724.481		-55.30556	
40.56113	3721.488		-55.31267	
40.61524	3718.433		-55.32074	
40.66935	3715.323		-55.32982	
40.72345	3712.17		-55.33998	
40.77756	3708.994		-55.35127	
40.83167	3705.813		-55.36368	
40.88577	3702.635		-55.3771	
40.93988	3699.459		-55.3914	
40.99399	3696.279		-55.40638	
41.0481	3693.091		-55.42181	
41.1022	3689.895		-55.43744	
41.15631	3686.688		-55.45298	
41.21041	3683.467		-55.46811	
41.26452	3680.231		-55.48245	
41.31863	3676.987		-55.49561	
41.37274	3673.741		-55.50722	
41.42684	3670.505		-55.51689	
41.48095	3667.293		-55.52429	
41.53506	3664.112		-55.52911	
41.58916	3660.972		-55.53108	
41.64327	3657.88		-55.53	
41.69738	3654.845		-55.52569	
41.75148	3651.868		-55.51797	
41.80559	3648.944		-55.50669	
41.8597	3646.057		-55.49166	
41.91381	3643.182		-55.47274	
41.96791	3640.293		-55.44978	
42.02202	3637.36		-55.42267	
42.07613	3634.365		-55.39135	
42.13023	3631.303		-55.35581	
42.18434	3628.191		-55.3161	
42.23845	3625.053		-55.27232	
42.29256	3621.922		-55.22467	
42.34666	3618.824		-55.17343	
42.40077	3615.776		-55.11897	
42.45488	3612.79		-55.06172	
42.50898	3609.861		-55.0022	
42.56309	3606.976		-54.94099	
42.6172	3604.114		-54.87872	
42.6713	3601.25		-54.81598	
42.72541	3598.37		-54.75335	
42.77952	3595.468		-54.69129	
42.83363	3592.545		-54.63016	
42.88773	3589.6		-54.57018	
42.94184	3586.632		-54.5115	
42.99594	3583.644		-54.45421	
43.05005	3580.647		-54.3984	
43.10416	3577.663		-54.34413	
43.15827	3574.716		-54.29147	
43.21238	3571.825		-54.24048	
43.26648	3569		-54.19125	
43.32059	3566.236		-54.14383	
43.37469	3563.52		-54.09828	
43.4288	3560.834		-54.05462	
43.48291	3558.156		-54.01281	
43.53702	3555.463		-53.97277	
43.59113	3552.733		-53.93444	
43.64523	3549.954		-53.89771	
43.69934	3547.115		-53.86251	
43.75344	3544.213		-53.82873	
43.80755	3541.257		-53.79623	
43.86166	3538.266		-53.76482	
43.91576	3535.267		-53.73433	
43.96987	3532.282		-53.70455	
44.02398	3529.333		-53.67528	
44.07809	3526.432		-53.6463	
44.13219	3523.576		-53.61741	
44.1863	3520.752		-53.58842	
44.24041	3517.941		-53.55915	
44.29451	3515.124		-53.52946	
44.34862	3512.287		-53.49921	
44.40273	3509.423		-53.46833	
44.45684	3506.527		-53.43674	
44.51094	3503.599		-53.40446	
44.56505	3500.641		-53.37152	
44.61916	3497.652		-53.33799	
44.67326	3494.629		-53.30397	
44.72737	3491.578		-53.26957	
44.78148	3488.511		-53.23486	
44.83559	3485.439		-53.19986	
44.88969	3482.373		-53.16463	
44.9438	3479.325		-53.12918	
44.99791	3476.302		-53.09352	
45.05201	3473.305		-53.05769	
45.10612	3470.328		-53.02167	
45.16022	3467.37		-52.98545	
45.21433	3464.434		-52.94897	
45.26844	3461.526		-52.91218	
45.32255	3458.655		-52.87503	
45.37666	3455.83		-52.83747	
45.43076	3453.043		-52.79951	
45.48487	3450.281		-52.76112	
45.53897	3447.524		-52.72229	
45.59308	3444.756		-52.68303	
45.64719	3441.968		-52.64337	
45.7013	3439.152		-52.60332	
45.75541	3436.307		-52.56293	
45.80951	3433.437		-52.52219	
45.86362	3430.55		-52.48111	
45.91772	3427.654		-52.43967	
45.97183	3424.76		-52.39786	
46.02594	3421.882		-52.35564	
46.08005	3419.034		-52.31298	
46.13415	3416.223		-52.26982	
46.18826	3413.448		-52.22609	
46.24237	3410.703		-52.18171	
46.29647	3407.974		-52.13658	
46.35058	3405.255		-52.09057	
46.40469	3402.535		-52.04356	
46.45879	3399.805		-51.9954	
46.5129	3397.059		-51.94596	
46.56701	3394.298		-51.89515	
46.62112	3391.528		-51.84293	
46.67522	3388.756		-51.78934	
46.72933	3385.991		-51.73452	
46.78344	3383.242		-51.67869	
46.83754	3380.511		-51.62218	
46.89165	3377.803		-51.56542	
46.94576	3375.124		-51.50888	
46.99987	3372.475		-51.45305	
47.05397	3369.848		-51.39843	
47.10808	3367.224		-51.34543	
47.16219	3364.581		-51.29442	
47.21629	3361.902		-51.24569	
47.2704	3359.173		-51.19951	
47.32451	3356.396		-51.1561	
47.37861	3353.577		-51.11566	
47.43272	3350.726		-51.07832	
47.48683	3347.851		-51.04419	
47.54094	3344.957		-51.01334	
47.59504	3342.056		-50.98579	
47.64915	3339.154		-50.96154	
47.70325	3336.257		-50.94054	
47.75736	3333.368		-50.92272	
47.81147	3330.487		-50.90799	
47.86558	3327.61		-50.89623	
47.91969	3324.729		-50.88728	
47.97379	3321.84		-50.88094	
48.0279	3318.945		-50.87694	
48.082	3316.053		-50.87492	
48.13611	3313.181		-50.87442	
48.19022	3310.338		-50.87492	
48.24433	3307.53		-50.87587	
48.29843	3304.766		-50.87666	
48.35254	3302.053		-50.87666	
48.40665	3299.39		-50.87526	
48.46075	3296.768		-50.87186	
48.51486	3294.174		-50.8659	
48.56897	3291.595		-50.85685	
48.62307	3289.021		-50.84424	
48.67718	3286.444		-50.8277	
48.73129	3283.859		-50.80692	
48.7854	3281.263		-50.78172	
48.8395	3278.653		-50.75201	
48.89361	3276.033		-50.71785	
48.94772	3273.407		-50.67936	
49.00182	3270.785		-50.63677	
49.05593	3268.171		-50.59037	
49.11004	3265.56		-50.54049	
49.16415	3262.945		-50.48754	
49.21825	3260.316		-50.43191	
49.27236	3257.663		-50.37401	
49.32647	3254.979		-50.31425	
49.38057	3252.257		-50.25302	
49.43468	3249.486		-50.19067	
49.48879	3246.665		-50.12753	
49.54289	3243.796		-50.06394	
49.597	3240.884		-50.00017	
49.65111	3237.939		-49.93652	
49.70522	3234.973		-49.87327	
49.75932	3232		-49.81074	
49.81343	3229.034		-49.74926	
49.86753	3226.089		-49.68918	
49.92164	3223.176		-49.63084	
49.97575	3220.298		-49.57453	
50.02986	3217.455		-49.52045	
50.08397	3214.648		-49.46869	
50.13807	3211.876		-49.41931	
50.19218	3209.134		-49.37228	
50.24628	3206.416		-49.32754	
50.30039	3203.724		-49.28499	
50.3545	3201.057		-49.24449	
50.40861	3198.416		-49.20586	
50.46271	3195.799		-49.16891	
50.51682	3193.206		-49.13346	
50.57093	3190.635		-49.09931	
50.62503	3188.091		-49.0663	
50.67914	3185.573		-49.03429	
50.73325	3183.076		-49.00318	
50.78735	3180.591		-48.97288	
50.84146	3178.108		-48.94335	
50.89557	3175.617		-48.91459	
50.94968	3173.111		-48.88664	
51.00378	3170.587		-48.85955	
51.05789	3168.048		-48.8334	
51.112	3165.499		-48.8083	
51.1661	3162.942		-48.78432	
51.22021	3160.379		-48.76155	
51.27432	3157.808		-48.74004	
51.32843	3155.226		-48.71983	
51.38253	3152.627		-48.70087	
51.43664	3150.01		-48.68313	
51.49075	3147.378		-48.6665	
51.54485	3144.735		-48.65084	
51.59896	3142.091		-48.63602	
51.65307	3139.458		-48.62191	
51.70717	3136.848		-48.60839	
51.76128	3134.27		-48.59534	
51.81539	3131.726		-48.58263	
51.8695	3129.213		-48.57014	
51.9236	3126.727		-48.55778	
51.97771	3124.256		-48.54539	
52.03181	3121.792		-48.5328	
52.08592	3119.321		-48.51981	
52.14003	3116.826		-48.50621	
52.19414	3114.292		-48.49173	
52.24825	3111.716		-48.47614	
52.30235	3109.104		-48.45913	
52.35646	3106.462		-48.44045	
52.41056	3103.794		-48.41983	
52.46467	3101.1		-48.39703	
52.51878	3098.385		-48.37186	
52.57289	3095.662		-48.34415	
52.62699	3092.945		-48.31382	
52.6811	3090.239		-48.28085	
52.73521	3087.542		-48.24528	
52.78931	3084.852		-48.2072	
52.84342	3082.164		-48.16676	
52.89753	3079.471		-48.12411	
52.95163	3076.759		-48.07947	
53.00574	3074.012		-48.03302	
53.05985	3071.222		-47.98499	
53.11396	3068.388		-47.93556	
53.16806	3065.52		-47.88494	
53.22217	3062.635		-47.83333	
53.27628	3059.75		-47.78084	
53.33038	3056.88		-47.72758	
53.38449	3054.042		-47.67363	
53.4386	3051.248		-47.61903	
53.49271	3048.504		-47.56383	
53.54681	3045.808		-47.50806	
53.60092	3043.15		-47.45173	
53.65503	3040.527		-47.39486	
53.70913	3037.942		-47.33742	
53.76324	3035.392		-47.27936	
53.81735	3032.875		-47.22062	
53.87145	3030.39		-47.16117	
53.92556	3027.936		-47.10094	
53.97967	3025.508		-47.03992	
54.03378	3023.111		-46.9781	
54.08788	3020.744		-46.91547	
54.14199	3018.401		-46.85205	
54.19609	3016.066		-46.78789	
54.2502	3013.729		-46.72304	
54.30431	3011.387		-46.65759	
54.35842	3009.037		-46.59163	
54.41253	3006.671		-46.52524	
54.46663	3004.285		-46.45848	
54.52074	3001.885		-46.39146	
54.57484	2999.482		-46.32427	
54.62895	2997.087		-46.25708	
54.68306	2994.705		-46.19008	
54.73717	2992.337		-46.12352	
54.79127	2989.977		-46.05769	
54.84538	2987.616		-45.99289	
54.89949	2985.249		-45.92948	
54.95359	2982.872		-45.86781	
55.0077	2980.485		-45.80824	
55.06181	2978.085		-45.75111	
55.11591	2975.664		-45.69676	
55.17002	2973.217		-45.64548	
55.22413	2970.741		-45.59753	
55.27824	2968.236		-45.55309	
55.33234	2965.708		-45.51227	
55.38645	2963.173		-45.4751	
55.44056	2960.647		-45.44152	
55.49466	2958.142		-45.41138	
55.54877	2955.66		-45.38441	
55.60288	2953.201		-45.36029	
55.65699	2950.762		-45.33858	
55.71109	2948.335		-45.31878	
55.7652	2945.909		-45.30033	
55.81931	2943.474		-45.28267	
55.87341	2941.014		-45.26525	
55.92752	2938.517		-45.24755	
55.98163	2935.979		-45.22911	
56.03573	2933.404		-45.20948	
56.08984	2930.802		-45.18835	
56.14395	2928.188		-45.16547	
56.19806	2925.579		-45.14063	
56.25216	2922.993		-45.11374	
56.30627	2920.445		-45.08471	
56.36037	2917.933		-45.05354	
56.41448	2915.45		-45.0202	
56.46859	2912.98		-44.98473	
56.5227	2910.515		-44.94717	
56.57681	2908.052		-44.90757	
56.63091	2905.594		-44.86603	
56.68502	2903.145		-44.82263	
56.73912	2900.707		-44.77745	
56.79323	2898.278		-44.73063	
56.84734	2895.861		-44.68228	
56.90145	2893.458		-44.6326	
56.95555	2891.069		-44.58178	
57.00966	2888.691		-44.53006	
57.06377	2886.32		-44.47772	
57.11787	2883.949		-44.42515	
57.17198	2881.574		-44.37274	
57.22609	2879.185		-44.32092	
57.28019	2876.774		-44.2701	
57.3343	2874.341		-44.22061	
57.38841	2871.891		-44.1727	
57.44252	2869.43		-44.12649	
57.49662	2866.965		-44.08203	
57.55073	2864.503		-44.03926	
57.60484	2862.049		-43.99809	
57.65894	2859.606		-43.95829	
57.71305	2857.186		-43.91961	
57.76716	2854.795		-43.88175	
57.82127	2852.441		-43.84438	
57.87537	2850.129		-43.80717	
57.92948	2847.865		-43.76982	
57.98359	2845.646		-43.7321	
58.03769	2843.46		-43.69379	
58.0918	2841.287		-43.65477	
58.14591	2839.113		-43.61491	
58.20001	2836.93		-43.57423	
58.25412	2834.738		-43.53279	
58.30823	2832.54		-43.49076	
58.36234	2830.334		-43.44835	
58.41644	2828.12		-43.40579	
58.47055	2825.894		-43.36335	
58.52465	2823.658		-43.32129	
58.57876	2821.411		-43.2799	
58.63287	2819.149		-43.23948	
58.68698	2816.874		-43.20026	
58.74109	2814.583		-43.16246	
58.79519	2812.274		-43.12626	
58.8493	2809.943		-43.09178	
58.9034	2807.593		-43.05908	
58.95751	2805.228		-43.02819	
59.01162	2802.846		-42.9991	
59.06573	2800.444		-42.97178	
59.11983	2798.021		-42.94624	
59.17394	2795.577		-42.92244	
59.22805	2793.108		-42.90037	
59.28215	2790.618		-42.87994	
59.33626	2788.11		-42.86106	
59.39037	2785.586		-42.84358	
59.44447	2783.056		-42.82732	
59.49858	2780.531		-42.81208	
59.55269	2778.024		-42.79762	
59.6068	2775.546		-42.78359	
59.6609	2773.106		-42.76958	
59.71501	2770.705		-42.75508	
59.76912	2768.338		-42.73954	
59.82322	2765.997		-42.72235	
59.87733	2763.686		-42.70294	
59.93144	2761.412		-42.68073	
59.98555	2759.177		-42.65519	
60.03965	2756.975		-42.62582	
60.09376	2754.792		-42.59221	
60.14787	2752.619		-42.55401	
60.20197	2750.451		-42.51099	
60.25608	2748.287		-42.46304	
60.31019	2746.12		-42.41011	
60.3643	2743.944		-42.35224	
60.4184	2741.759		-42.28958	
60.47251	2739.564		-42.22236	
60.52662	2737.358		-42.15094	
60.58072	2735.138		-42.07576	
60.63483	2732.905		-41.99726	
60.68893	2730.661		-41.91595	
60.74304	2728.402		-41.83235	
60.79715	2726.119		-41.74695	
60.85126	2723.811		-41.66023	
60.90536	2721.481		-41.57257	
60.95947	2719.14		-41.48432	
61.01358	2716.791		-41.39574	
61.06768	2714.432		-41.30699	
61.12179	2712.062		-41.2182	
61.1759	2709.68		-41.12941	
61.23001	2707.291		-41.04058	
61.28411	2704.898		-40.95165	
61.33822	2702.503		-40.86254	
61.39233	2700.114		-40.77313	
61.44643	2697.742		-40.68327	
61.50054	2695.403		-40.59276	
61.55465	2693.107		-40.50132	
61.60876	2690.858		-40.40862	
61.66286	2688.663		-40.31424	
61.71697	2686.519		-40.21772	
61.77108	2684.419		-40.11853	
61.82518	2682.351		-40.01612	
61.87929	2680.306		-39.9099	
61.9334	2678.276		-39.79928	
61.9875	2676.252		-39.68364	
62.04161	2674.229		-39.56239	
62.09572	2672.205		-39.4349	
62.14983	2670.178		-39.30059	
62.20393	2668.155		-39.15891	
62.25804	2666.14		-39.00935	
62.31215	2664.134		-38.85147	
62.36625	2662.134		-38.68489	
62.42036	2660.132		-38.50937	
62.47447	2658.112		-38.32471	
62.52858	2656.067		-38.13081	
62.58268	2653.998		-37.92763	
62.63679	2651.91		-37.71508	
62.6909	2649.803		-37.49319	
62.745	2647.67		-37.26194	
62.79911	2645.508		-37.02131	
62.85322	2643.323		-36.77122	
62.90732	2641.129		-36.51151	
62.96143	2638.941		-36.24185	
63.01554	2636.763		-35.96188	
63.06964	2634.597		-35.67112	
63.12375	2632.446		-35.36896	
63.17786	2630.314		-35.05475	
63.23196	2628.206		-34.72769	
63.28607	2626.122		-34.38698	
63.34018	2624.061		-34.03174	
63.39429	2622.023		-33.66105	
63.44839	2620.006		-33.27397	
63.5025	2618.01		-32.86954	
63.55661	2616.039		-32.44675	
63.61071	2614.094		-32.00457	
63.66482	2612.183		-31.54203	
63.71893	2610.312		-31.05813	
63.77304	2608.492		-30.55191	
63.82714	2606.725		-30.02248	
63.88125	2605.009		-29.46887	
63.93536	2603.339		-28.89023	
63.98946	2601.707		-28.28574	
64.04357	2600.108		-27.65461	
64.09768	2598.535		-26.99605	
64.15179	2596.978		-26.30934	
64.20589	2595.428		-25.59377	
64.25999	2593.881		-24.8488	
64.3141	2592.341		-24.07361	
64.36821	2590.816		-23.2677	
64.42232	2589.309		-22.43056	
64.47643	2587.823		-21.5617	
64.53053	2586.363		-20.66069	
64.58464	2584.937		-19.72713	
64.63875	2583.554		-18.76066	
64.69286	2582.213		-17.76093	
64.74696	2580.908		-16.72756	
64.80107	2579.637		-15.6601	
64.85518	2578.402		-14.558	
64.90928	2577.211		-13.42083	
64.96339	2576.072		-12.24744	
65.01749	2574.985		-11.03714	
65.0716	2573.953		-9.788966	
65.12571	2572.98		-8.501847	
65.17982	2572.071		-7.174631	
65.23392	2571.231		-5.80607	
65.28803	2570.47		-4.394813	
65.34214	2569.807		-2.939421	
65.39625	2569.256		-1.438386	
65.45036	2568.832		0.1098657	
65.50446	2568.541		1.706747	
65.55856	2568.385		3.354421	
65.61267	2568.36		5.054431	
65.66678	2568.454		6.808567	
65.72089	2568.656		8.618627	
65.77499	2568.955		10.4864	
65.8291	2569.339		12.41366	
65.88321	2569.794		14.40214	
65.93732	2570.311		16.4535	
65.99142	2570.892		18.56932	
66.04553	2571.546		20.75112	
66.09964	2572.286		23.00036	
66.15374	2573.12		25.318	
66.20785	2574.058		27.7061	
66.26196	2575.107		30.16567	
66.31606	2576.272		32.69801	
66.37017	2577.56		35.30449	
66.42428	2578.973		37.98643	
66.47839	2580.506		40.74519	
66.53249	2582.15		43.58205	
66.5866	2583.909		46.49834	
66.64071	2585.788		49.49533	
66.69482	2587.789		52.57431	
66.74892	2589.908		55.73613	
66.80302	2592.15		58.98301	
66.85713	2594.523		62.31581	
66.91124	2597.039		65.73587	
66.96535	2599.706		69.24452	
67.01945	2602.537		72.84311	
67.07356	2605.551		76.53298	
67.12767	2608.765		80.31547	
67.18178	2612.195		84.19191	
67.23589	2615.855		88.16365	
67.28999	2619.756		92.23209	
67.3441	2623.904		96.39867	
67.3982	2628.298		100.6642	
67.45231	2632.941		105.0315	
67.50642	2637.833		109.5013	
67.56052	2642.969		114.0751	
67.61463	2648.346		118.7542	
67.66874	2653.967		123.5402	
67.72285	2659.836		128.434	
67.77695	2665.957		133.4369	
67.83106	2672.34		138.5498	
67.88517	2678.995		143.7734	
67.93928	2685.935		149.1081	
67.99338	2693.172		154.5536	
68.04749	2700.72		160.1112	
68.10159	2708.587		165.7801	
68.1557	2716.78		171.5597	
68.20981	2725.303		177.4495	
68.26392	2734.159		183.4487	
68.31802	2743.351		189.5564	
68.37213	2752.881		195.7714	
68.42624	2762.743		202.0926	
68.48035	2772.926		208.5185	
68.53445	2783.426		215.0477	
68.58856	2794.245		221.6785	
68.64266	2805.391		228.4081	
68.69677	2816.877		235.2365	
68.75088	2828.727		242.1609	
68.80499	2840.975		249.179	
68.85909	2853.656		256.2888	
68.9132	2866.8		263.4879	
68.96731	2880.423		270.774	
69.02142	2894.527		278.1447	
69.07552	2909.104		285.5973	
69.12963	2924.139		293.1292	
69.18374	2939.618		300.7375	
69.23784	2955.524		308.4179	
69.29195	2971.855		316.1693	
69.34605	2988.602		323.987	
69.40016	3005.768		331.867	
69.45427	3023.37		339.8049	
69.50838	3041.428		347.7961	
69.56248	3059.96		355.835	
69.61659	3078.983		363.9159	
69.6707	3098.513		372.0322	
69.72481	3118.559		380.1765	
69.77892	3139.128		388.3407	
69.83302	3160.231		396.5161	
69.88712	3181.876		404.6917	
69.94123	3204.071		412.8592	
69.99534	3226.805		421.0061	
70.04945	3250.06		429.1201	
70.10355	3273.814		437.188	
70.15766	3298.046		445.1962	
70.21177	3322.744		453.1299	
70.26588	3347.902		460.9738	
70.31998	3373.526		468.7119	
70.37409	3399.632		476.3275	
70.4282	3426.231		483.8032	
70.4823	3453.33		491.1203	
70.53641	3480.946		498.2626	
70.59052	3509.083		505.2106	
70.64462	3537.738		511.9456	
70.69873	3566.901		518.4488	
70.75284	3596.564		524.7014	
70.80695	3626.716		530.685	
70.86105	3657.343		536.3814	
70.91516	3688.432		541.7732	
70.96927	3719.969		546.8434	
71.02338	3751.946		551.5759	
71.07748	3784.361		555.9557	
71.13158	3817.214		559.968	
71.18569	3850.515		563.6008	
71.2398	3884.265		566.8418	
71.29391	3918.475		569.6801	
71.34801	3953.153		572.1063	
71.40212	3988.316		574.1122	
71.45623	4023.985		575.6912	
71.51034	4060.164		576.8377	
71.56445	4096.839		577.5478	
71.61855	4133.98		577.8187	
71.67266	4171.544		577.6492	
71.72676	4209.463		577.0393	
71.78087	4247.675		575.9902	
71.83498	4286.102		574.5046	
71.88908	4324.672		572.5862	
71.94319	4363.318		570.2397	
71.9973	4401.968		567.4714	
72.05141	4440.547		564.2878	
72.10551	4478.979		560.6968	
72.15962	4517.188		556.707	
72.21373	4555.102		552.3277	
72.26784	4592.651		547.5688	
72.32195	4629.768		542.4409	
72.37605	4666.378		536.9557	
72.43015	4702.416		531.1229	
72.48426	4737.795		524.9553	
72.53837	4772.445		518.4647	
72.59248	4806.304		511.6639	
72.64658	4839.307		504.5655	
72.70069	4871.402		497.1827	
72.7548	4902.534		489.5288	
72.80891	4932.652		481.6174	
72.86301	4961.719		473.4627	
72.91712	4989.713		465.0789	
72.97122	5016.623		456.4821	
73.02533	5042.45		447.6847	
73.07944	5067.199		438.7036	
73.13354	5090.875		429.5544	
73.18765	5113.483		420.2534	
73.24176	5135.037		410.8172	
73.29587	5155.544		401.2627	
73.34998	5175.026		391.6071	
73.40408	5193.521		381.8683	
73.45819	5211.078		372.0644	
73.5123	5227.736		362.2139	
73.56641	5243.539		352.3355	
73.62051	5258.529		342.4496	
73.67461	5272.746		332.5728	
73.72872	5286.219		322.7255	
73.78283	5298.988		312.9271	
73.83694	5311.09		303.1966	
73.89104	5322.566		293.5528	
73.94515	5333.461		284.014	
73.99926	5343.835		274.5981	
74.05337	5353.739		265.3223	
74.10748	5363.225		256.2027	
74.16158	5372.344		247.2549	
74.21568	5381.146		238.4945	
74.26979	5389.683		229.9325	
74.3239	5398.001		221.5822	
74.37801	5406.139		213.4546	
74.43211	5414.105		205.5592	
74.48622	5421.895		197.9043	
74.54033	5429.495		190.4967	
74.59444	5436.892		183.3418	
74.64854	5444.078		176.4438	
74.70265	5451.05		169.8053	
74.75676	5457.801		163.4276	
74.81086	5464.32		157.3112	
74.86497	5470.603		151.4532	
74.91908	5476.648		145.8514	
74.97318	5482.468		140.502	
75.02729	5488.083		135.3996	
75.0814	5493.511		130.538	
75.13551	5498.771		125.9099	
75.18961	5503.871		121.5071	
75.24372	5508.814		117.3209	
75.29783	5513.604		113.3417	
75.35194	5518.235		109.56	
75.40604	5522.706		105.9657	
75.46014	5527.004		102.5492	
75.51425	5531.126		99.29952	
75.56836	5535.076		96.20722	
75.62247	5538.864		93.2625	
75.67657	5542.503		90.45589	
75.73068	5546.018		87.77825	
75.78479	5549.438		85.22084	
75.8389	5552.792		82.77529	
75.89301	5556.111		80.43369	
75.94711	5559.429		78.18849	
76.00122	5562.768		76.03265	
76.05532	5566.139		73.95981	
76.10943	5569.539		71.96323	
76.16354	5572.949		70.03754	
76.21764	5576.345		68.17755	
76.27175	5579.706		66.37856	
76.32586	5583.018		64.63628	
76.37997	5586.275		62.94688	
76.43407	5589.481		61.30687	
76.48818	5592.641		59.71318	
76.54229	5595.753		58.16305	
76.5964	5598.813		56.65409	
76.65051	5601.815		55.1842	
76.70461	5604.765		53.7517	
76.75871	5607.679		52.35452	
76.81282	5610.571		50.99136	
76.86693	5613.438		49.66086	
76.92104	5616.266		48.36182	
76.97514	5619.043		47.09317	
77.02925	5621.761		45.85401	
77.08336	5624.415		44.6435	
77.13747	5626.994		43.46084	
77.19157	5629.479		42.30527	
77.24568	5631.853		41.1761	
77.29978	5634.11		40.0729	
77.35389	5636.25		38.99488	
77.408	5638.276		37.94175	
77.4621	5640.195		36.91318	
77.51621	5642.019		35.90889	
77.57032	5643.757		34.9287	
77.62443	5645.418		33.97252	
77.67854	5647.003		33.04036	
77.73264	5648.508		32.13235	
77.78675	5649.93		31.2487	
77.84086	5651.277		30.38967	
77.89497	5652.561		29.55556	
77.94907	5653.789		28.74682	
78.00317	5654.971		27.96363	
78.05728	5656.115		27.20661	
78.11139	5657.223		26.47632	
78.1655	5658.294		25.77342	
78.2196	5659.325		25.0986	
78.27371	5660.314		24.45254	
78.32782	5661.254		23.83593	
78.38193	5662.135		23.24939	
78.43604	5662.955		22.69354	
78.49014	5663.722		22.16895	
78.54424	5664.439		21.67622	
78.59835	5665.103		21.21567	
78.65246	5665.715		20.78775	
78.70657	5666.282		20.39275	
78.76067	5666.815		20.03084	
78.81478	5667.317		19.70205	
78.86889	5667.788		19.4063	
78.923	5668.222		19.14342	
78.9771	5668.613		18.91315	
79.03121	5668.964		18.71521	
79.08532	5669.29		18.54924	
79.13943	5669.604		18.41486	
79.19353	5669.909		18.31169	
79.24763	5670.208		18.23925	
79.30174	5670.5		18.19704	
79.35585	5670.795		18.18454	
79.40996	5671.109		18.20117	
79.46407	5671.465		18.24627	
79.51817	5671.899		18.31912	
79.57228	5672.438		18.41884	
79.62639	5673.089		18.54444	
79.6805	5673.842		18.69481	
79.7346	5674.684		18.86873	
79.7887	5675.613		19.06485	
79.84281	5676.636		19.28176	
79.89692	5677.758		19.51788	
79.95103	5678.972		19.77155	
80.00513	5680.268		20.04112	
80.05924	5681.625		20.32489	
80.11335	5683.028		20.62112	
80.16746	5684.46		20.92804	
80.22157	5685.911		21.24378	
80.27567	5687.377		21.5664	
80.32978	5688.848		21.8939	
80.38389	5690.303		22.22424	
80.43799	5691.728		22.55531	
80.4921	5693.113		22.88513	
80.5462	5694.459		23.21163	
80.60031	5695.779		23.53285	
80.65442	5697.09		23.84689	
80.70853	5698.411		24.15188	
80.76263	5699.747		24.446	
80.81674	5701.096		24.72746	
80.87085	5702.467		24.99451	
80.92496	5703.865		25.24542	
80.97906	5705.301		25.47852	
81.03316	5706.785		25.69217	
81.08727	5708.335		25.88498	
81.14138	5709.955		26.05554	
81.19549	5711.647		26.20264	
81.2496	5713.399		26.32516	
81.3037	5715.188		26.42213	
81.35781	5716.99		26.49271	
81.41192	5718.785		26.53627	
81.46603	5720.568		26.55229	
81.52013	5722.348		26.54038	
81.57424	5724.14		26.50027	
81.62835	5725.955		26.43182	
81.68245	5727.798		26.335	
81.73656	5729.663		26.20987	
81.79066	5731.54		26.05661	
81.84477	5733.423		25.87543	
81.89888	5735.309		25.6666	
81.95299	5737.185		25.43038	
82.0071	5739.029		25.167	
82.0612	5740.818		24.87672	
82.11531	5742.538		24.55972	
82.16942	5744.177		24.21619	
82.22353	5745.738		23.84626	
82.27763	5747.231		23.45008	
82.33173	5748.672		23.02754	
82.38584	5750.066		22.57859	
82.43995	5751.42		22.1031	
82.49406	5752.742		21.60084	
82.54816	5754.048		21.07157	
82.60227	5755.353		20.51504	
82.65638	5756.667		19.93095	
82.71049	5757.984		19.31902	
82.7646	5759.289		18.67901	
82.8187	5760.557		18.01073	
82.87281	5761.771		17.31404	
82.92691	5762.914		16.58893	
82.98102	5763.983		15.83513	
83.03513	5764.973		15.05265	
83.08923	5765.886		14.24146	
83.14334	5766.732		13.40149	
83.19745	5767.533		12.53265	
83.25156	5768.295		11.63485	
83.30566	5769.035		10.70799	
83.35977	5769.755		9.752009	
83.41388	5770.456		8.766851	
83.46799	5771.119		7.752486	
83.52209	5771.72		6.709085	
83.57619	5772.24		5.636448	
83.6303	5772.686		4.534908	
83.68441	5773.062		3.404748	
83.73852	5773.37		2.246345	
83.79263	5773.603		1.060165	
83.84673	5773.766		-0.1532197	
83.90084	5773.861		-1.393167	
83.95495	5773.9		-2.658956	
84.00906	5773.885		-3.949794	
84.06316	5773.827		-5.264798	
84.11727	5773.729		-6.603019	
84.17137	5773.602		-7.963258	
84.22548	5773.44		-9.344874	
84.27959	5773.233		-10.74664	
84.33369	5772.956		-12.16754	
84.3878	5772.588		-13.60655	
84.44191	5772.114		-15.06268	
84.49602	5771.525		-16.53496	
84.55013	5770.826		-18.02244	
84.60423	5770.036		-19.52412	
84.65834	5769.173		-21.03898	
84.71245	5768.247		-22.56594	
84.76655	5767.259		-24.10362	
84.82066	5766.211		-25.65126	
84.87476	5765.099		-27.20739	
84.92887	5763.92		-28.77072	
84.98298	5762.658		-30.33999	
85.03709	5761.287		-31.91391	
85.09119	5759.781		-33.49123	
85.1453	5758.127		-35.07075	
85.19941	5756.314		-36.65131	
85.25352	5754.349		-38.23177	
85.30762	5752.246		-39.81104	
85.36173	5750.018		-41.38806	
85.41583	5747.673		-42.96168	
85.46994	5745.21		-44.5315	
85.52405	5742.622		-46.09654	
85.57816	5739.912		-47.65614	
85.63226	5737.085		-49.20969	
85.68637	5734.145		-50.75663	
85.74048	5731.084		-52.29645	
85.79459	5727.901		-53.82864	
85.84869	5724.594		-55.35256	
85.9028	5721.162		-56.8675	
85.95691	5717.605		-58.37257	
86.01101	5713.927		-59.86653	
86.06512	5710.13		-61.34863	
86.11922	5706.229		-62.81736	
86.17333	5702.24		-64.2714	
86.22744	5698.177		-65.70931	
86.28155	5694.039		-67.12962	
86.33566	5689.833		-68.53077	
86.38976	5685.571		-69.91118	
86.44387	5681.255		-71.26928	
86.49798	5676.893		-72.60348	
86.55209	5672.489		-73.9122	
86.60619	5668.051		-75.19391	
86.66029	5663.575		-76.44697	
86.7144	5659.057		-77.67035	
86.76851	5654.489		-78.86259	
86.82262	5649.869		-80.02254	
86.87672	5645.196		-81.14917	
86.93083	5640.484		-82.24158	
86.98494	5635.736		-83.29906	
87.03905	5630.958		-84.32104	
87.09315	5626.15		-85.30711	
87.14726	5621.313		-86.25706	
87.20137	5616.442		-87.1708	
87.25547	5611.547		-88.04829	
87.30958	5606.627		-88.88999	
87.36369	5601.684		-89.69611	
87.41779	5596.701		-90.46716	
87.4719	5591.663		-91.20381	
87.52601	5586.553		-91.90688	
87.58012	5581.372		-92.57735	
87.63422	5576.123		-93.21635	
87.68833	5570.807		-93.82518	
87.74244	5565.418		-94.4053	
87.79655	5559.962		-94.95827	
87.85065	5554.441		-95.48565	
87.90475	5548.86		-95.98927	
87.95886	5543.217		-96.47072	
88.01297	5537.522		-96.93158	
88.06708	5531.778		-97.37339	
88.12119	5526.003		-97.79762	
88.17529	5520.207		-98.20561	
88.2294	5514.397		-98.59863	
88.28351	5508.571		-98.97776	
88.33762	5502.734		-99.34392	
88.39172	5496.891		-99.69788	
88.44583	5491.055		-100.0404	
88.49993	5485.233		-100.3718	
88.55404	5479.44		-100.693	
88.60815	5473.682		-101.0041	
88.66225	5467.965		-101.3056	
88.71636	5462.296		-101.5979	
88.77047	5456.685		-101.8811	
88.82458	5451.129		-102.1556	
88.87868	5445.633		-102.4214	
88.93279	5440.186		-102.6788	
88.9869	5434.771		-102.928	
89.04101	5429.375		-103.1695	
89.09511	5423.992		-103.4036	
89.14922	5418.604		-103.6308	
89.20332	5413.211		-103.8519	
89.25743	5407.81		-104.0674	
89.31154	5402.412		-104.2777	
89.36565	5397.019		-104.4836	
89.41975	5391.627		-104.6855	
89.47386	5386.229		-104.884	
89.52797	5380.821		-105.0798	
89.58208	5375.4		-105.2734	
89.63618	5369.96		-105.4654	
89.69029	5364.479		-105.6566	
89.74439	5358.939		-105.8477	
89.7985	5353.336		-106.0395	
89.85261	5347.68		-106.2327	
89.90672	5341.975		-106.4281	
89.96082	5336.232		-106.6264	
90.01493	5330.454		-106.828	
90.06904	5324.651		-107.0337	
90.12315	5318.833		-107.2439	
90.17725	5313.008		-107.4588	
90.23136	5307.18		-107.679	
90.28547	5301.336		-107.9044	
90.33957	5295.474		-108.1352	
90.39368	5289.587		-108.3715	
90.44778	5283.681		-108.613	
90.50189	5277.754		-108.8597	
90.556	5271.819		-109.1111	
90.61011	5265.881		-109.3667	
90.66422	5259.947		-109.626	
90.71832	5254.016		-109.8881	
90.77243	5248.089		-110.1522	
90.82654	5242.165		-110.4173	
90.88065	5236.235		-110.6826	
90.93475	5230.288		-110.9472	
90.98885	5224.317		-111.2101	
91.04296	5218.313		-111.4708	
91.09707	5212.276		-111.7287	
91.15118	5206.204		-111.9832	
91.20528	5200.096		-112.2338	
91.25939	5193.955		-112.4801	
91.3135	5187.792		-112.7218	
91.36761	5181.601		-112.9585	
91.42171	5175.382		-113.1901	
91.47582	5169.138		-113.4165	
91.52993	5162.877		-113.6377	
91.58403	5156.593		-113.8536	
91.63814	5150.279		-114.0646	
91.69225	5143.932		-114.2706	
91.74635	5137.561		-114.4718	
91.80046	5131.173		-114.6683	
91.85457	5124.792		-114.8604	
91.90868	5118.417		-115.048	
91.96278	5112.045		-115.2315	
92.01689	5105.658		-115.4109	
92.071	5099.253		-115.5863	
92.12511	5092.827		-115.7579	
92.17921	5086.385		-115.9257	
92.23331	5079.929		-116.0898	
92.28742	5073.471		-116.2503	
92.34153	5067.024		-116.4073	
92.39564	5060.603		-116.5607	
92.44975	5054.204		-116.6836	
92.50385	5047.83		-116.8051	
92.55796	5041.477		-116.9252	
92.61207	5035.146		-117.0439	
92.66618	5028.833		-117.1614	
92.72028	5022.542		-117.2777	
92.77439	5016.266		-117.3929	
92.82849	5009.994		-117.5071	
92.8826	5003.711		-117.6202	
92.93671	4997.413		-117.7324	
92.99081	4991.096		-117.8436	
93.04492	4984.763		-117.9539	
93.09903	4978.418		-118.0633	
93.15314	4972.073		-118.1719	
93.20724	4965.727		-118.2796	
93.26135	4959.388		-118.3866	
93.31546	4953.051		-118.4928	
93.36957	4946.719		-118.5983	
93.42368	4940.392		-118.7033	
93.47778	4934.088		-118.8076	
93.53188	4927.801		-118.9114	
93.58599	4921.519		-119.0148	
93.6401	4915.212		-119.1177	
93.69421	4908.844		-119.2203	
93.74831	4902.396		-119.3225	
93.80242	4895.883		-119.4245	
93.85653	4889.325		-119.5262	
93.91064	4882.74		-119.6276	
93.96474	4876.129		-119.7289	
94.01885	4869.5		-119.83	
94.07295	4862.871		-119.9309	
94.12706	4856.199		-120.0318	
94.18117	4849.591		-120.1325	
94.23528	4843.022		-120.2332	
94.28938	4836.474		-120.3337	
94.34349	4829.935		-120.4342	
94.3976	4823.399		-120.5346	
94.45171	4816.86		-120.6349	
94.50581	4810.316		-120.7352	
94.55992	4803.766		-120.8353	
94.61403	4797.208		-120.9355	
94.66814	4790.643		-121.0355	
94.72224	4784.073		-121.1355	
94.77634	4777.498		-121.2354	
94.83045	4770.918		-121.3352	
94.88456	4764.336		-121.435	
94.93867	4757.754		-121.5347	
94.99277	4751.175		-121.6343	
