T[Â°C]	350nm [counts / mm]	S.D.	First derivative	S.D. of first derivative
20.00117	3054.833		-41.30617	
20.05512	3052.516		-41.36376	
20.10906	3050.205		-41.4209	
20.16301	3047.901		-41.47756	
20.21696	3045.601		-41.53371	
20.27091	3043.306		-41.58934	
20.32486	3041.017		-41.64442	
20.3788	3038.731		-41.69893	
20.43275	3036.45		-41.75283	
20.4867	3034.172		-41.80611	
20.54065	3031.897		-41.85874	
20.59459	3029.625		-41.9107	
20.64854	3027.356		-41.96197	
20.70249	3025.092		-42.01252	
20.75644	3022.833		-42.06233	
20.81039	3020.583		-42.11138	
20.86433	3018.345		-42.15966	
20.91828	3016.134		-42.20715	
20.97223	3013.969		-42.25383	
21.02618	3011.894		-42.29969	
21.08013	3009.81		-42.34473	
21.13407	3007.707		-42.38893	
21.18802	3005.575		-42.43229	
21.24197	3003.409		-42.47482	
21.29592	3001.201		-42.51652	
21.34986	2998.95		-42.5574	
21.40381	2996.659		-42.59747	
21.45776	2994.341		-42.63675	
21.51171	2992.006		-42.67527	
21.56566	2989.658		-42.71305	
21.6196	2987.301		-42.75012	
21.67355	2984.931		-42.78654	
21.7275	2982.546		-42.82235	
21.78145	2980.146		-42.8576	
21.8354	2977.73		-42.89235	
21.88934	2975.3		-42.92669	
21.94329	2972.851		-42.96069	
21.99724	2970.381		-42.99445	
22.05119	2967.895		-43.02808	
22.10513	2965.404		-43.06172	
22.15908	2962.914		-43.0955	
22.21303	2960.429		-43.12957	
22.26698	2957.955		-43.16406	
22.32093	2955.499		-43.19909	
22.37487	2953.063		-43.23468	
22.42882	2950.643		-43.27073	
22.48277	2948.236		-43.30685	
22.53672	2945.843		-43.34237	
22.59066	2943.459		-43.37635	
22.64461	2941.08		-43.3728	
22.69856	2938.699		-43.36732	
22.75251	2936.318		-43.35996	
22.80646	2933.935		-43.35072	
22.8604	2931.548		-43.33962	
22.91435	2929.156		-43.32665	
22.9683	2926.765		-43.31181	
23.02225	2924.377		-43.29507	
23.07619	2921.997		-43.27645	
23.13014	2919.629		-43.25596	
23.18409	2917.271		-43.23362	
23.23804	2914.92		-43.20949	
23.29199	2912.568		-43.18364	
23.34593	2910.206		-43.15615	
23.39988	2907.828		-43.12719	
23.45383	2905.439		-43.09692	
23.50778	2903.051		-43.06555	
23.56173	2900.677		-43.03328	
23.61567	2898.327		-43.00029	
23.66962	2896.003		-42.9668	
23.72357	2893.706		-42.93298	
23.77752	2891.436		-42.89897	
23.83146	2889.194		-42.86492	
23.88541	2886.98		-42.83097	
23.93936	2884.784		-42.79729	
23.99331	2882.596		-42.76403	
24.04726	2880.412		-42.73136	
24.1012	2878.229		-42.69941	
24.15515	2876.052		-42.66835	
24.2091	2873.878		-42.63828	
24.26305	2871.713		-42.60934	
24.317	2869.561		-42.58162	
24.37094	2867.42		-42.5552	
24.42489	2865.281		-42.53016	
24.47884	2863.134		-42.5065	
24.53279	2860.971		-42.48423	
24.58673	2858.78		-42.46329	
24.64068	2856.55		-42.44359	
24.69463	2854.277		-42.42497	
24.74858	2851.972		-42.40722	
24.80253	2849.644		-42.39007	
24.85647	2847.302		-42.37323	
24.91042	2844.949		-42.35636	
24.96437	2842.588		-42.33907	
25.01832	2840.217		-42.32101	
25.07227	2837.839		-42.30183	
25.12621	2835.459		-42.28125	
25.18016	2833.084		-42.25901	
25.23411	2830.72		-42.23493	
25.28806	2828.369		-42.20889	
25.342	2826.029		-42.18081	
25.39595	2823.696		-42.1507	
25.4499	2821.371		-42.11859	
25.50385	2819.054		-42.08455	
25.55779	2816.748		-42.0487	
25.61174	2814.45		-42.0112	
25.66569	2812.158		-41.97223	
25.71964	2809.875		-41.93199	
25.77359	2807.607		-41.89067	
25.82753	2805.361		-41.84848	
25.88148	2803.136		-41.80563	
25.93543	2800.925		-41.76234	
25.98938	2798.716		-41.71883	
26.04333	2796.493		-41.67532	
26.09727	2794.249		-41.63201	
26.15122	2791.977		-41.58911	
26.20517	2789.675		-41.54682	
26.25912	2787.34		-41.50533	
26.31306	2784.979		-41.46482	
26.36701	2782.595		-41.42545	
26.42096	2780.193		-41.38735	
26.47491	2777.779		-41.35062	
26.52886	2775.362		-41.31533	
26.5828	2772.952		-41.28156	
26.63675	2770.554		-41.24935	
26.6907	2768.171		-41.21877	
26.74465	2765.806		-41.18985	
26.7986	2763.465		-41.16259	
26.85254	2761.159		-41.13698	
26.90649	2758.899		-41.11293	
26.96044	2756.69		-41.09032	
27.01439	2754.535		-41.06901	
27.06833	2752.437		-41.04883	
27.12228	2750.392		-41.02961	
27.17623	2748.395		-41.01115	
27.23018	2746.438		-40.99331	
27.28413	2744.508		-40.97594	
27.33807	2742.591		-40.95891	
27.39202	2740.679		-40.9421	
27.44597	2738.767		-40.9254	
27.49992	2736.851		-40.90871	
27.55387	2734.921		-40.89196	
27.60781	2732.969		-40.87513	
27.66176	2730.987		-40.85824	
27.71571	2728.972		-40.8413	
27.76966	2726.924		-40.82434	
27.8236	2724.844		-40.80745	
27.87755	2722.732		-40.7907	
27.9315	2720.588		-40.7742	
27.98545	2718.415		-40.75805	
28.03939	2716.211		-40.74241	
28.09334	2713.977		-40.72739	
28.14729	2711.71		-40.71315	
28.20124	2709.408		-40.69983	
28.25519	2707.076		-40.68759	
28.30913	2704.725		-40.67655	
28.36308	2702.361		-40.66685	
28.41703	2699.991		-40.65857	
28.47098	2697.62		-40.65174	
28.52493	2695.254		-40.64633	
28.57887	2692.899		-40.64234	
28.63282	2690.56		-40.63974	
28.68677	2688.238		-40.63852	
28.74072	2685.925		-40.63868	
28.79466	2683.617		-40.64017	
28.84861	2681.32		-40.64297	
28.90256	2679.036		-40.64701	
28.95651	2676.769		-40.6522	
29.01046	2674.522		-40.6584	
29.0644	2672.296		-40.66546	
29.11835	2670.093		-40.67319	
29.1723	2667.91		-40.6814	
29.22625	2665.739		-40.68989	
29.2802	2663.569		-40.69843	
29.33414	2661.389		-40.70684	
29.38809	2659.197		-40.71491	
29.44204	2656.992		-40.72243	
29.49599	2654.777		-40.7292	
29.54993	2652.552		-40.73499	
29.60388	2650.32		-40.73958	
29.65783	2648.081		-40.7428	
29.71178	2645.841		-40.74446	
29.76573	2643.602		-40.74445	
29.81967	2641.368		-40.74266	
29.87362	2639.138		-40.73906	
29.92757	2636.918		-40.73367	
29.98152	2634.716		-40.72654	
30.03547	2632.54		-40.71777	
30.08941	2630.389		-40.70748	
30.14336	2628.258		-40.69579	
30.19731	2626.146		-40.68287	
30.25126	2624.049		-40.66893	
30.3052	2621.963		-40.65419	
30.35915	2619.882		-40.6389	
30.4131	2617.8		-40.62333	
30.46705	2615.714		-40.60772	
30.521	2613.627		-40.59231	
30.57494	2611.546		-40.57734	
30.62889	2609.479		-40.56302	
30.68284	2607.427		-40.54952	
30.73679	2605.386		-40.53697	
30.79074	2603.345		-40.52546	
30.84468	2601.298		-40.51506	
30.89863	2599.232		-40.50578	
30.95258	2597.143		-40.49765	
31.00653	2595.029		-40.49063	
31.06047	2592.89		-40.4847	
31.11442	2590.732		-40.47982	
31.16837	2588.552		-40.47594	
31.22232	2586.346		-40.47298	
31.27626	2584.108		-40.47087	
31.33021	2581.835		-40.46951	
31.38416	2579.526		-40.46883	
31.43811	2577.182		-40.46873	
31.49206	2574.809		-40.46906	
31.546	2572.417		-40.46965	
31.59995	2570.021		-40.47032	
31.6539	2567.633		-40.47083	
31.70785	2565.264		-40.47091	
31.7618	2562.922		-40.47025	
31.81574	2560.611		-40.46852	
31.86969	2558.333		-40.46537	
31.92364	2556.087		-40.46044	
31.97759	2553.872		-40.45341	
32.03154	2551.685		-40.44393	
32.08548	2549.523		-40.43172	
32.13943	2547.382		-40.41648	
32.19338	2545.257		-40.39799	
32.24733	2543.145		-40.37604	
32.30127	2541.039		-40.35051	
32.35522	2538.933		-40.32132	
32.40917	2536.823		-40.28849	
32.46312	2534.702		-40.25208	
32.51706	2532.568		-40.21226	
32.57101	2530.424		-40.16921	
32.62496	2528.275		-40.12318	
32.67891	2526.127		-40.07444	
32.73286	2523.983		-40.02327	
32.7868	2521.844		-39.96999	
32.84075	2519.698		-39.91492	
32.8947	2517.535		-39.85835	
32.94865	2515.345		-39.80056	
33.00259	2513.127		-39.74186	
33.05654	2510.881		-39.68257	
33.11049	2508.606		-39.623	
33.16444	2506.31		-39.5635	
33.21839	2504.009		-39.50436	
33.27234	2501.722		-39.44594	
33.32628	2499.467		-39.38859	
33.38023	2497.251		-39.33271	
33.43418	2495.078		-39.27867	
33.48812	2492.943		-39.2269	
33.54207	2490.843		-39.17778	
33.59602	2488.766		-39.13167	
33.64997	2486.705		-39.08889	
33.70392	2484.655		-39.04967	
33.75787	2482.612		-39.01416	
33.81181	2480.573		-38.98241	
33.86576	2478.535		-38.95438	
33.91971	2476.496		-38.92991	
33.97366	2474.458		-38.90877	
34.0276	2472.427		-38.89063	
34.08155	2470.41		-38.87515	
34.1355	2468.412		-38.86201	
34.18945	2466.435		-38.85085	
34.2434	2464.476		-38.84137	
34.29734	2462.532		-38.83325	
34.35129	2460.603		-38.82623	
34.40524	2458.681		-38.82006	
34.45919	2456.757		-38.81455	
34.51313	2454.817		-38.80954	
34.56708	2452.851		-38.8049	
34.62103	2450.85		-38.80053	
34.67498	2448.811		-38.79634	
34.72893	2446.738		-38.79231	
34.78288	2444.638		-38.7884	
34.83682	2442.525		-38.78461	
34.89077	2440.409		-38.7809	
34.94472	2438.304		-38.77725	
34.99866	2436.218		-38.77361	
35.05261	2434.149		-38.76997	
35.10656	2432.094		-38.76628	
35.16051	2430.046		-38.76251	
35.21445	2427.996		-38.75864	
35.2684	2425.931		-38.75465	
35.32235	2423.841		-38.75056	
35.3763	2421.723		-38.74641	
35.43025	2419.584		-38.74229	
35.4842	2417.435		-38.73833	
35.53814	2415.282		-38.73468	
35.59209	2413.126		-38.73152	
35.64604	2410.969		-38.72904	
35.69999	2408.813		-38.72742	
35.75393	2406.662		-38.72688	
35.80788	2404.513		-38.72759	
35.86183	2402.36		-38.72969	
35.91578	2400.195		-38.73324	
35.96973	2398.016		-38.7382	
36.02367	2395.822		-38.74446	
36.07762	2393.615		-38.75183	
36.13157	2391.395		-38.76011	
36.18552	2389.163		-38.76907	
36.23946	2386.918		-38.77845	
36.29341	2384.669		-38.78799	
36.34736	2382.423		-38.79739	
36.40131	2380.187		-38.80637	
36.45526	2377.976		-38.81472	
36.5092	2375.805		-38.82221	
36.56315	2373.687		-38.82872	
36.6171	2371.625		-38.83412	
36.67105	2369.599		-38.83834	
36.72499	2367.589		-38.8413	
36.77894	2365.578		-38.84292	
36.83289	2363.56		-38.84315	
36.88684	2361.531		-38.8419	
36.94079	2359.489		-38.8391	
36.99474	2357.436		-38.83468	
37.04868	2355.381		-38.82859	
37.10263	2353.337		-38.82075	
37.15658	2351.32		-38.81107	
37.21053	2349.338		-38.79945	
37.26447	2347.39		-38.7858	
37.31842	2345.47		-38.77003	
37.37237	2343.567		-38.7521	
37.42632	2341.673		-38.73193	
37.48027	2339.782		-38.70951	
37.53421	2337.88		-38.68483	
37.58816	2335.95		-38.6579	
37.64211	2333.983		-38.62879	
37.69606	2331.975		-38.59759	
37.75	2329.929		-38.56445	
37.80395	2327.847		-38.52958	
37.8579	2325.724		-38.49324	
37.91185	2323.56		-38.45573	
37.96579	2321.361		-38.41739	
38.01974	2319.14		-38.37855	
38.07369	2316.915		-38.33952	
38.12764	2314.703		-38.30059	
38.18159	2312.516		-38.26198	
38.23553	2310.36		-38.22386	
38.28948	2308.231		-38.18636	
38.34343	2306.114		-38.14952	
38.39738	2303.991		-38.11335	
38.45132	2301.851		-38.07781	
38.50527	2299.695		-38.04288	
38.55922	2297.535		-38.00849	
38.61317	2295.38		-37.97464	
38.66712	2293.228		-37.94128	
38.72107	2291.077		-37.90839	
38.77501	2288.93		-37.87596	
38.82896	2286.793		-37.844	
38.88291	2284.673		-37.81255	
38.93686	2282.574		-37.78168	
38.9908	2280.493		-37.7515	
39.04475	2278.426		-37.72209	
39.0987	2276.367		-37.69353	
39.15265	2274.316		-37.66586	
39.2066	2272.27		-37.63899	
39.26054	2270.231		-37.61282	
39.31449	2268.203		-37.58722	
39.36844	2266.19		-37.56202	
39.42239	2264.195		-37.53702	
39.47633	2262.214		-37.51204	
39.53028	2260.237		-37.48686	
39.58423	2258.249		-37.46127	
39.63818	2256.245		-37.43509	
39.69213	2254.237		-37.40817	
39.74607	2252.239		-37.38037	
39.80002	2250.263		-37.35163	
39.85397	2248.311		-37.32195	
39.90792	2246.374		-37.29138	
39.96186	2244.45		-37.2601	
40.01581	2242.537		-37.22832	
40.06976	2240.633		-37.19632	
40.12371	2238.737		-37.16439	
40.17765	2236.854		-37.13284	
40.23161	2234.985		-37.10197	
40.28555	2233.132		-37.07206	
40.3395	2231.289		-37.04336	
40.39345	2229.445		-37.01604	
40.4474	2227.591		-36.99023	
40.50134	2225.718		-36.96602	
40.55529	2223.825		-36.94343	
40.60924	2221.915		-36.92245	
40.66319	2219.986		-36.90305	
40.71713	2218.034		-36.88515	
40.77108	2216.062		-36.86868	
40.82503	2214.072		-36.85359	
40.87898	2212.068		-36.83989	
40.93293	2210.054		-36.82762	
40.98687	2208.033		-36.81686	
41.04082	2206.009		-36.80774	
41.09477	2203.977		-36.80034	
41.14872	2201.934		-36.79474	
41.20266	2199.875		-36.79092	
41.25661	2197.792		-36.78885	
41.31056	2195.685		-36.78843	
41.36451	2193.554		-36.78954	
41.41846	2191.406		-36.792	
41.4724	2189.255		-36.79559	
41.52635	2187.108		-36.80005	
41.5803	2184.971		-36.80505	
41.63425	2182.851		-36.81027	
41.68819	2180.75		-36.81535	
41.74214	2178.681		-36.81995	
41.79609	2176.649		-36.82377	
41.85004	2174.651		-36.82653	
41.90399	2172.686		-36.82798	
41.95794	2170.752		-36.82792	
42.01188	2168.842		-36.82615	
42.06583	2166.948		-36.82254	
42.11978	2165.061		-36.81698	
42.17373	2163.168		-36.80939	
42.22767	2161.261		-36.79978	
42.28162	2159.34		-36.78816	
42.33557	2157.403		-36.77456	
42.38952	2155.456		-36.75902	
42.44347	2153.5		-36.74154	
42.49741	2151.535		-36.72214	
42.55136	2149.563		-36.70084	
42.60531	2147.579		-36.67764	
42.65926	2145.582		-36.65256	
42.7132	2143.575		-36.62558	
42.76715	2141.563		-36.59673	
42.8211	2139.552		-36.56603	
42.87505	2137.543		-36.53354	
42.929	2135.536		-36.49934	
42.98294	2133.531		-36.4636	
43.03689	2131.526		-36.42651	
43.09084	2129.522		-36.38833	
43.14479	2127.523		-36.34936	
43.19873	2125.537		-36.30992	
43.25268	2123.568		-36.27034	
43.30663	2121.618		-36.23093	
43.36058	2119.683		-36.19202	
43.41452	2117.755		-36.15387	
43.46848	2115.824		-36.11673	
43.52242	2113.888		-36.0808	
43.57637	2111.947		-36.04622	
43.63032	2110.004		-36.01312	
43.68427	2108.068		-35.98156	
43.73821	2106.147		-35.95157	
43.79216	2104.245		-35.92316	
43.84611	2102.358		-35.8963	
43.90005	2100.483		-35.8709	
43.954	2098.613		-35.84683	
44.00795	2096.74		-35.82396	
44.0619	2094.856		-35.8021	
44.11585	2092.958		-35.78103	
44.1698	2091.044		-35.76055	
44.22374	2089.112		-35.74046	
44.27769	2087.161		-35.72062	
44.33164	2085.186		-35.70088	
44.38559	2083.182		-35.68112	
44.43953	2081.157		-35.66123	
44.49348	2079.126		-35.64111	
44.54743	2077.095		-35.62069	
44.60138	2075.073		-35.59991	
44.65533	2073.071		-35.57873	
44.70927	2071.102		-35.55708	
44.76322	2069.169		-35.53493	
44.81717	2067.271		-35.51225	
44.87112	2065.405		-35.48898	
44.92506	2063.565		-35.46511	
44.97901	2061.746		-35.4406	
45.03296	2059.942		-35.41545	
45.08691	2058.144		-35.38972	
45.14086	2056.347		-35.36348	
45.19481	2054.544		-35.33686	
45.24875	2052.734		-35.31003	
45.3027	2050.921		-35.28322	
45.35665	2049.107		-35.25669	
45.41059	2047.287		-35.23075	
45.46454	2045.456		-35.20573	
45.51849	2043.607		-35.18197	
45.57244	2041.731		-35.15981	
45.62638	2039.818		-35.13961	
45.68034	2037.867		-35.12166	
45.73428	2035.882		-35.10626	
45.78823	2033.879		-35.09359	
45.84218	2031.872		-35.08377	
45.89613	2029.877		-35.07683	
45.95007	2027.899		-35.07273	
46.00402	2025.936		-35.07135	
46.05797	2023.983		-35.07253	
46.11192	2022.034		-35.07602	
46.16586	2020.084		-35.08158	
46.21981	2018.128		-35.08892	
46.27376	2016.162		-35.09772	
46.32771	2014.187		-35.10767	
46.38166	2012.21		-35.11847	
46.4356	2010.241		-35.12981	
46.48955	2008.287		-35.14138	
46.5435	2006.353		-35.15289	
46.59745	2004.451		-35.16408	
46.65139	2002.594		-35.17469	
46.70534	2000.789		-35.1845	
46.75929	1999.037		-35.19328	
46.81324	1997.328		-35.2008	
46.86719	1995.648		-35.20683	
46.92113	1993.981		-35.21117	
46.97508	1992.311		-35.2136	
47.02903	1990.63		-35.21393	
47.08298	1988.922		-35.21198	
47.13692	1987.177		-35.20757	
47.19087	1985.382		-35.20053	
47.24482	1983.54		-35.19073	
47.29877	1981.653		-35.17807	
47.35272	1979.728		-35.16254	
47.40667	1977.777		-35.14419	
47.46061	1975.814		-35.12317	
47.51456	1973.856		-35.09969	
47.56851	1971.913		-35.07405	
47.62246	1969.983		-35.04655	
47.6764	1968.059		-35.01756	
47.73035	1966.132		-34.98742	
47.7843	1964.193		-34.95646	
47.83825	1962.228		-34.92497	
47.8922	1960.227		-34.89322	
47.94614	1958.184		-34.86138	
48.00009	1956.102		-34.82959	
48.05404	1953.993		-34.79794	
48.10799	1951.874		-34.76645	
48.16193	1949.765		-34.73511	
48.21588	1947.675		-34.70388	
48.26983	1945.617		-34.6727	
48.32378	1943.601		-34.64151	
48.37773	1941.631		-34.61021	
48.43167	1939.708		-34.5787	
48.48562	1937.827		-34.54686	
48.53957	1935.978		-34.51454	
48.59352	1934.152		-34.48162	
48.64746	1932.342		-34.44801	
48.70141	1930.545		-34.41358	
48.75536	1928.752		-34.37825	
48.80931	1926.96		-34.34197	
48.86325	1925.163		-34.3047	
48.91721	1923.356		-34.26646	
48.97115	1921.541		-34.22732	
49.0251	1919.722		-34.18737	
49.07905	1917.904		-34.14676	
49.133	1916.093		-34.10566	
49.18694	1914.294		-34.06425	
49.24089	1912.511		-34.02269	
49.29484	1910.747		-33.98117	
49.34879	1909.001		-33.93984	
49.40273	1907.262		-33.89888	
49.45668	1905.521		-33.85851	
49.51063	1903.767		-33.81892	
49.56458	1901.99		-33.78036	
49.61853	1900.185		-33.74307	
49.67247	1898.354		-33.70728	
49.72642	1896.513		-33.67323	
49.78037	1894.678		-33.64114	
49.83432	1892.863		-33.61124	
49.88826	1891.073		-33.58372	
49.94221	1889.306		-33.55875	
49.99616	1887.557		-33.53646	
50.05011	1885.817		-33.51695	
50.10406	1884.084		-33.50027	
50.158	1882.352		-33.48639	
50.21195	1880.622		-33.47523	
50.2659	1878.893		-33.46667	
50.31985	1877.163		-33.46051	
50.37379	1875.436		-33.4565	
50.42774	1873.708		-33.45437	
50.48169	1871.976		-33.45383	
50.53564	1870.236		-33.45456	
50.58959	1868.485		-33.45628	
50.64354	1866.725		-33.45869	
50.69748	1864.957		-33.46151	
50.75143	1863.182		-33.46446	
50.80538	1861.402		-33.4673	
50.85933	1859.617		-33.46981	
50.91327	1857.824		-33.47181	
50.96722	1856.026		-33.47313	
51.02117	1854.222		-33.47364	
51.07512	1852.407		-33.47324	
51.12907	1850.575		-33.47185	
51.18301	1848.719		-33.46939	
51.23696	1846.839		-33.46583	
51.29091	1844.941		-33.46113	
51.34486	1843.032		-33.45525	
51.3988	1841.122		-33.44815	
51.45275	1839.216		-33.4398	
51.5067	1837.323		-33.43016	
51.56065	1835.441		-33.41921	
51.61459	1833.567		-33.40694	
51.66854	1831.697		-33.39335	
51.72249	1829.829		-33.37847	
51.77644	1827.964		-33.36234	
51.83039	1826.104		-33.34498	
51.88433	1824.251		-33.32647	
51.93828	1822.402		-33.30688	
51.99223	1820.553		-33.28629	
52.04618	1818.703		-33.26479	
52.10012	1816.85		-33.2425	
52.15407	1814.993		-33.21951	
52.20802	1813.131		-33.19595	
52.26197	1811.265		-33.1719	
52.31592	1809.402		-33.14746	
52.36987	1807.548		-33.1227	
52.42381	1805.71		-33.09766	
52.47776	1803.893		-33.07238	
52.53171	1802.1		-33.04691	
52.58566	1800.331		-33.02128	
52.6396	1798.583		-32.99557	
52.69355	1796.851		-32.96984	
52.7475	1795.135		-32.94416	
52.80145	1793.434		-32.91861	
52.8554	1791.746		-32.89325	
52.90934	1790.064		-32.86813	
52.96329	1788.385		-32.84331	
53.01724	1786.699		-32.81882	
53.07119	1784.998		-32.79468	
53.12513	1783.277		-32.7709	
53.17908	1781.536		-32.74751	
53.23303	1779.78		-32.72452	
53.28698	1778.018		-32.70198	
53.34093	1776.257		-32.67992	
53.39487	1774.506		-32.65838	
53.44882	1772.771		-32.63739	
53.50277	1771.056		-32.61698	
53.55672	1769.361		-32.59716	
53.61066	1767.686		-32.57797	
53.66461	1766.026		-32.55941	
53.71856	1764.378		-32.5415	
53.77251	1762.734		-32.52425	
53.82646	1761.085		-32.50764	
53.88041	1759.424		-32.49165	
53.93435	1757.744		-32.47623	
53.9883	1756.043		-32.46133	
54.04225	1754.328		-32.4469	
54.0962	1752.598		-32.43288	
54.15014	1750.851		-32.41921	
54.20409	1749.086		-32.40587	
54.25804	1747.307		-32.39286	
54.31199	1745.518		-32.38016	
54.36594	1743.731		-32.36777	
54.41988	1741.952		-32.35566	
54.47383	1740.183		-32.34379	
54.52778	1738.424		-32.33208	
54.58173	1736.67		-32.32045	
54.63567	1734.912		-32.30883	
54.68962	1733.142		-32.29713	
54.74357	1731.351		-32.28524	
54.79752	1729.537		-32.27304	
54.85146	1727.702		-32.26045	
54.90541	1725.848		-32.24731	
54.95936	1723.981		-32.23352	
55.01331	1722.107		-32.21894	
55.06726	1720.231		-32.20344	
55.1212	1718.361		-32.18691	
55.17515	1716.503		-32.16927	
55.2291	1714.663		-32.15045	
55.28305	1712.845		-32.13042	
55.33699	1711.051		-32.10918	
55.39094	1709.285		-32.08674	
55.44489	1707.547		-32.06314	
55.49884	1705.834		-32.03842	
55.55279	1704.14		-32.01263	
55.60674	1702.46		-31.98585	
55.66068	1700.793		-31.95814	
55.71463	1699.135		-31.92962	
55.76858	1697.479		-31.90041	
55.82253	1695.814		-31.87064	
55.87647	1694.13		-31.84048	
55.93042	1692.425		-31.81009	
55.98437	1690.707		-31.77965	
56.03832	1688.982		-31.74938	
56.09227	1687.259		-31.71949	
56.14621	1685.542		-31.6902	
56.20016	1683.834		-31.66175	
56.25411	1682.137		-31.63431	
56.30806	1680.452		-31.60805	
56.362	1678.782		-31.5831	
56.41595	1677.126		-31.55953	
56.4699	1675.479		-31.53737	
56.52385	1673.833		-31.5166	
56.5778	1672.182		-31.49718	
56.63174	1670.522		-31.47901	
56.68569	1668.85		-31.46198	
56.73964	1667.165		-31.44596	
56.79359	1665.468		-31.43082	
56.84753	1663.761		-31.41645	
56.90148	1662.053		-31.40274	
56.95543	1660.353		-31.38958	
57.00938	1658.672		-31.37689	
57.06332	1657.013		-31.36459	
57.11728	1655.377		-31.35262	
57.17122	1653.763		-31.34093	
57.22517	1652.163		-31.32946	
57.27912	1650.572		-31.31813	
57.33307	1648.988		-31.30686	
57.38701	1647.407		-31.29553	
57.44096	1645.821		-31.28406	
57.49491	1644.227		-31.27234	
57.54885	1642.619		-31.26031	
57.6028	1640.993		-31.24791	
57.65675	1639.344		-31.23512	
57.7107	1637.674		-31.22198	
57.76465	1635.985		-31.20851	
57.8186	1634.282		-31.1948	
57.87254	1632.571		-31.18095	
57.92649	1630.856		-31.16708	
57.98044	1629.137		-31.15332	
58.03439	1627.41		-31.1398	
58.08833	1625.673		-31.12663	
58.14228	1623.921		-31.11396	
58.19623	1622.155		-31.10187	
58.25018	1620.373		-31.09044	
58.30413	1618.573		-31.07968	
58.35807	1616.76		-31.06956	
58.41202	1614.94		-31.05999	
58.46597	1613.117		-31.05085	
58.51992	1611.294		-31.04195	
58.57386	1609.477		-31.0331	
58.62781	1607.672		-31.02403	
58.68176	1605.884		-31.0145	
58.73571	1604.114		-31.00423	
58.78966	1602.364		-30.99297	
58.84361	1600.637		-30.98048	
58.89755	1598.932		-30.96653	
58.9515	1597.251		-30.95092	
59.00545	1595.598		-30.93346	
59.05939	1593.977		-30.91395	
59.11334	1592.388		-30.89222	
59.16729	1590.825		-30.86806	
59.22124	1589.28		-30.84127	
59.27519	1587.745		-30.81165	
59.32914	1586.21		-30.77897	
59.38308	1584.664		-30.74304	
59.43703	1583.099		-30.70371	
59.49098	1581.52		-30.66086	
59.54493	1579.928		-30.61445	
59.59887	1578.327		-30.56449	
59.65282	1576.715		-30.511	
59.70677	1575.094		-30.45411	
59.76072	1573.471		-30.39397	
59.81467	1571.851		-30.3308	
59.86861	1570.242		-30.26489	
59.92256	1568.644		-30.19656	
59.97651	1567.054		-30.12615	
60.03046	1565.46		-30.05401	
60.0844	1563.85		-29.98052	
60.13835	1562.213		-29.90601	
60.1923	1560.544		-29.83083	
60.24625	1558.841		-29.75527	
60.30019	1557.107		-29.67963	
60.35414	1555.35		-29.60415	
60.40809	1553.585		-29.52902	
60.46204	1551.827		-29.45438	
60.51599	1550.09		-29.38032	
60.56993	1548.385		-29.30689	
60.62388	1546.72		-29.23412	
60.67783	1545.094		-29.16201	
60.73178	1543.506		-29.09056	
60.78572	1541.947		-29.01975	
60.83967	1540.405		-28.94957	
60.89362	1538.871		-28.87997	
60.94757	1537.337		-28.81091	
61.00152	1535.798		-28.74233	
61.05547	1534.252		-28.67409	
61.10941	1532.697		-28.60605	
61.16336	1531.132		-28.53801	
61.21731	1529.56		-28.46974	
61.27126	1527.985		-28.40096	
61.3252	1526.414		-28.33142	
61.37915	1524.854		-28.26086	
61.4331	1523.31		-28.18904	
61.48705	1521.789		-28.11576	
61.541	1520.294		-28.04085	
61.59494	1518.823		-27.96411	
61.64889	1517.37		-27.88538	
61.70284	1515.929		-27.80448	
61.75679	1514.495		-27.72124	
61.81073	1513.067		-27.6355	
61.86468	1511.641		-27.54714	
61.91863	1510.217		-27.45601	
61.97258	1508.795		-27.36198	
62.02653	1507.373		-27.26493	
62.08047	1505.95		-27.16474	
62.13442	1504.525		-27.06129	
62.18837	1503.099		-26.95445	
62.24232	1501.675		-26.84411	
62.29626	1500.252		-26.73021	
62.35021	1498.83		-26.61266	
62.40416	1497.404		-26.49136	
62.45811	1495.976		-26.36617	
62.51205	1494.547		-26.23687	
62.56601	1493.121		-26.10321	
62.61995	1491.703		-25.96491	
62.6739	1490.296		-25.82165	
62.72785	1488.897		-25.67308	
62.7818	1487.499		-25.51889	
62.83574	1486.094		-25.35873	
62.88969	1484.676		-25.19225	
62.94364	1483.245		-25.01911	
62.99759	1481.805		-24.83897	
63.05153	1480.361		-24.65149	
63.10548	1478.917		-24.4563	
63.15943	1477.476		-24.2531	
63.21338	1476.04		-24.04153	
63.26733	1474.607		-23.82124	
63.32127	1473.179		-23.59188	
63.37522	1471.759		-23.3531	
63.42917	1470.348		-23.10456	
63.48312	1468.946		-22.84593	
63.53706	1467.553		-22.57689	
63.59101	1466.169		-22.29709	
63.64496	1464.8		-22.00614	
63.69891	1463.453		-21.7037	
63.75286	1462.133		-21.38935	
63.8068	1460.846		-21.06267	
63.86075	1459.594		-20.72323	
63.9147	1458.375		-20.37057	
63.96865	1457.178		-20.00422	
64.0226	1455.991		-19.6237	
64.07655	1454.804		-19.2286	
64.13049	1453.614		-18.81842	
64.18444	1452.422		-18.39273	
64.23839	1451.237		-17.95112	
64.29234	1450.066		-17.49315	
64.34628	1448.916		-17.01843	
64.40023	1447.794		-16.52653	
64.45418	1446.71		-16.01699	
64.50813	1445.673		-15.48933	
64.56207	1444.689		-14.94304	
64.61602	1443.762		-14.37758	
64.66997	1442.892		-13.7924	
64.72392	1442.076		-13.18695	
64.77786	1441.304		-12.56065	
64.83181	1440.561		-11.91291	
64.88576	1439.831		-11.24311	
64.9397	1439.107		-10.55062	
64.99365	1438.389		-9.83481	
65.04761	1437.684		-9.094935	
65.10155	1437.001		-8.330591	
65.1555	1436.351		-7.541077	
65.20945	1435.741		-6.725775	
65.2634	1435.181		-5.884103	
65.31734	1434.675		-5.015457	
65.37129	1434.231		-4.119212	
65.42524	1433.852		-3.194727	
65.47919	1433.539		-2.241342	
65.53313	1433.286		-1.25836	
65.58708	1433.083		-0.2450452	
65.64103	1432.914		0.7993773	
65.69498	1432.766		1.875731	
65.74892	1432.629		2.984826	
65.80287	1432.504		4.127536	
65.85682	1432.403		5.304738	
65.91077	1432.341		6.517315	
65.96471	1432.329		7.766158	
66.01866	1432.374		9.052145	
66.07261	1432.482		10.37614	
66.12656	1432.663		11.73917	
66.18051	1432.925		13.14164	
66.23446	1433.267		14.58452	
66.28841	1433.688		16.06861	
66.34235	1434.185		17.59469	
66.3963	1434.752		19.16355	
66.45025	1435.387		20.77601	
66.5042	1436.089		22.43291	
66.55814	1436.856		24.13507	
66.61209	1437.691		25.88327	
66.66604	1438.599		27.67837	
66.71999	1439.592		29.5211	
66.77393	1440.68		31.41228	
66.82788	1441.876		33.35255	
66.88183	1443.188		35.34269	
66.93578	1444.617		37.3834	
66.98972	1446.167		39.47532	
67.04367	1447.838		41.61905	
67.09762	1449.628		43.81516	
67.15157	1451.537		46.06415	
67.20552	1453.562		48.3668	
67.25947	1455.697		50.72287	
67.31342	1457.939		53.13305	
67.36736	1460.288		55.59766	
67.42131	1462.752		58.11697	
67.47526	1465.337		60.69122	
67.52921	1468.05		63.32055	
67.58315	1470.903		66.00507	
67.6371	1473.908		68.74479	
67.69105	1477.072		71.53985	
67.745	1480.399		74.39014	
67.79894	1483.889		77.29559	
67.85289	1487.541		80.25603	
67.90684	1491.36		83.27129	
67.96078	1495.353		86.34099	
68.01473	1499.524		89.46481	
68.06868	1503.88		92.64231	
68.12263	1508.424		95.87303	
68.17657	1513.157		99.15644	
68.23052	1518.078		102.4919	
68.28448	1523.186		105.8793	
68.33842	1528.478		109.317	
68.39237	1533.954		112.8045	
68.44632	1539.622		116.3411	
68.50027	1545.492		119.9257	
68.55421	1551.571		123.5575	
68.60816	1557.864		127.2355	
68.66211	1564.372		130.9585	
68.71606	1571.088		134.7253	
68.77	1578.011		138.5348	
68.82395	1585.142		142.3857	
68.8779	1592.483		146.2768	
68.93185	1600.039		150.2065	
68.98579	1607.814		154.1734	
69.03974	1615.813		158.1759	
69.09369	1624.04		162.2123	
69.14764	1632.499		166.2809	
69.20158	1641.191		170.3798	
69.25553	1650.115		174.5069	
69.30948	1659.276		178.6599	
69.36343	1668.686		182.8369	
69.41738	1678.348		187.0339	
69.47133	1688.269		191.2486	
69.52528	1698.45		195.4779	
69.57922	1708.895		199.7181	
69.63317	1719.603		203.9656	
69.68712	1730.576		208.2163	
69.74107	1741.811		212.466	
69.79501	1753.304		216.7099	
69.84896	1765.05		220.943	
69.90291	1777.044		225.16	
69.95686	1789.285		229.3552	
70.0108	1801.774		233.5224	
70.06475	1814.514		237.6552	
70.1187	1827.508		241.7471	
70.17265	1840.765		245.7909	
70.22659	1854.292		249.7795	
70.28054	1868.09		253.7055	
70.33449	1882.151		257.5611	
70.38844	1896.466		261.3382	
70.44238	1911.031		265.0288	
70.49634	1925.84		268.6251	
70.55029	1940.886		272.1176	
70.60423	1956.167		275.4982	
70.65818	1971.691		278.7585	
70.71213	1987.469		281.8901	
70.76608	2003.512		284.8847	
70.82002	2019.82		287.7339	
70.87397	2036.39		290.4299	
70.92792	2053.216		292.9648	
70.98186	2070.29		295.3311	
71.03581	2087.607		297.5218	
71.08976	2105.167		299.5303	
71.14371	2122.966		301.3503	
71.19765	2140.996		302.9764	
71.2516	2159.247		304.4034	
71.30555	2177.711		305.6265	
71.3595	2196.379		306.6417	
71.41344	2215.241		307.4453	
71.46739	2234.29		308.0346	
71.52134	2253.523		308.407	
71.57529	2272.944		308.561	
71.62924	2292.545		308.4955	
71.68319	2312.317		308.2099	
71.73714	2332.236		307.7047	
71.79108	2352.269		306.9803	
71.84503	2372.372		306.0383	
71.89898	2392.502		304.8802	
71.95293	2412.619		303.5087	
72.00687	2432.691		301.9261	
72.06082	2452.693		300.1357	
72.11477	2472.599		298.1412	
72.16872	2492.388		295.9469	
72.22266	2512.033		293.5568	
72.27661	2531.501		290.9763	
72.33056	2550.76		288.2104	
72.38451	2569.778		285.2646	
72.43845	2588.526		282.1446	
72.4924	2606.964		278.8565	
72.54635	2625.051		275.4066	
72.6003	2642.747		271.8015	
72.65425	2660.017		268.0473	
72.7082	2676.832		264.1521	
72.76215	2693.174		260.1226	
72.81609	2709.034		255.9662	
72.87004	2724.4		251.6904	
72.92399	2739.26		247.3031	
72.97794	2753.604		242.8122	
73.03188	2767.43		238.2258	
73.08583	2780.735		233.5522	
73.13978	2793.521		228.7998	
73.19373	2805.796		223.9772	
73.24767	2817.575		219.0931	
73.30162	2828.869		214.1563	
73.35557	2839.683		209.1759	
73.40952	2850.02		204.1609	
73.46346	2859.883		199.1206	
73.51741	2869.275		194.0641	
73.57136	2878.208		189.0006	
73.62531	2886.701		183.9396	
73.67925	2894.787		178.8902	
73.73321	2902.502		173.8611	
73.78716	2909.878		168.8626	
73.8411	2916.936		163.9031	
73.89505	2923.686		158.9912	
73.949	2930.129		154.1355	
74.00294	2936.276		149.3439	
74.05689	2942.147		144.6243	
74.11084	2947.77		139.9839	
74.16479	2953.18		135.4294	
74.21873	2958.4		130.9674	
74.27268	2963.453		126.6036	
74.32663	2968.357		122.3433	
74.38058	2973.121		118.1913	
74.43452	2977.742		114.152	
74.48847	2982.218		110.2287	
74.54242	2986.548		106.4244	
74.59637	2990.73		102.7417	
74.65031	2994.771		99.18206	
74.70426	2998.677		95.7468	
74.75821	3002.458		92.43647	
74.81216	3006.124		89.25066	
74.86611	3009.686		86.18978	
74.92006	3013.155		83.25234	
74.97401	3016.541		80.43686	
75.02795	3019.848		77.74138	
75.0819	3023.074		75.16349	
75.13585	3026.216		72.7004	
75.1898	3029.274		70.34893	
75.24374	3032.246		68.10551	
75.29769	3035.13		65.96661	
75.35164	3037.927		63.92821	
75.40559	3040.638		61.98627	
75.45953	3043.263		60.13665	
75.51348	3045.804		58.37529	
75.56743	3048.268		56.69781	
75.62138	3050.659		55.10016	
75.67532	3052.985		53.57823	
75.72927	3055.258		52.12803	
75.78322	3057.497		50.74569	
75.83717	3059.718		49.42747	
75.89111	3061.925		48.16979	
75.94507	3064.115		46.96899	
75.99902	3066.28		45.82205	
76.05296	3068.408		44.72554	
76.10691	3070.492		43.67631	
76.16086	3072.528		42.67131	
76.21481	3074.519		41.70763	
76.26875	3076.48		40.7825	
76.3227	3078.423		39.89328	
76.37665	3080.352		39.03764	
76.4306	3082.277		38.21328	
76.48454	3084.202		37.41811	
76.53849	3086.121		36.65012	
76.59244	3088.024		35.90744	
76.64639	3089.902		35.18823	
76.70033	3091.741		34.49082	
76.75428	3093.534		33.81367	
76.80823	3095.274		33.15537	
76.86217	3096.964		32.51468	
76.91612	3098.611		31.89049	
76.97007	3100.219		31.28186	
77.02402	3101.792		30.68786	
77.07797	3103.333		30.10793	
77.13192	3104.85		29.54135	
77.18587	3106.346		28.98759	
77.23981	3107.817		28.4462	
77.29376	3109.268		27.91681	
77.34771	3110.697		27.39912	
77.40166	3112.098		26.89292	
77.4556	3113.466		26.39807	
77.50955	3114.801		25.91449	
77.5635	3116.104		25.44217	
77.61745	3117.375		24.98114	
77.67139	3118.61		24.5315	
77.72534	3119.81		24.0934	
77.77929	3120.982		23.66703	
77.83324	3122.137		23.25264	
77.88718	3123.285		22.85049	
77.94113	3124.438		22.46085	
77.99508	3125.607		22.08396	
78.04903	3126.805		21.72003	
78.10298	3128.025		21.36919	
78.15693	3129.257		21.03166	
78.21088	3130.494		20.70748	
78.26482	3131.721		20.39666	
78.31877	3132.927		20.09916	
78.37272	3134.101		19.81488	
78.42667	3135.234		19.54364	
78.48061	3136.314		19.28522	
78.53456	3137.326		19.03928	
78.58851	3138.266		18.80544	
78.64246	3139.13		18.58316	
78.6964	3139.918		18.37182	
78.75035	3140.637		18.17082	
78.8043	3141.295		17.97955	
78.85825	3141.909		17.79741	
78.91219	3142.495		17.62393	
78.96614	3143.071		17.45871	
79.02009	3143.651		17.30143	
79.07404	3144.242		17.15188	
79.12798	3144.843		17.00999	
79.18194	3145.445		16.87581	
79.23589	3146.039		16.74958	
79.28983	3146.62		16.63159	
79.34378	3147.183		16.52226	
79.39773	3147.73		16.42208	
79.45168	3148.27		16.33161	
79.50562	3148.816		16.25146	
79.55957	3149.381		16.18229	
79.61352	3149.978		16.12477	
79.66747	3150.619		16.07961	
79.72141	3151.325		16.0475	
79.77536	3152.113		16.02911	
79.82931	3152.983		16.02506	
79.88326	3153.929		16.03594	
79.9372	3154.94		16.06223	
79.99115	3156.002		16.10435	
80.0451	3157.096		16.16265	
80.09904	3158.2		16.23731	
80.15299	3159.293		16.32845	
80.20694	3160.358		16.43605	
80.26089	3161.386		16.56001	
80.31484	3162.381		16.70007	
80.36879	3163.354		16.85575	
80.42274	3164.315		17.02646	
80.47668	3165.271		17.21139	
80.53063	3166.233		17.40952	
80.58458	3167.206		17.61963	
80.63853	3168.193		17.84026	
80.69247	3169.189		18.06981	
80.74642	3170.19		18.30655	
80.80037	3171.186		18.54855	
80.85432	3172.158		18.79387	
80.90826	3173.088		19.04047	
80.96221	3173.963		19.28634	
81.01616	3174.782		19.52946	
81.07011	3175.552		19.76789	
81.12405	3176.282		19.99973	
81.178	3176.971		20.22323	
81.23195	3177.631		20.43671	
81.2859	3178.282		20.63865	
81.33984	3178.95		20.82762	
81.3938	3179.66		21.00234	
81.44775	3180.433		21.1616	
81.50169	3181.285		21.30437	
81.55564	3182.216		21.42979	
81.60959	3183.212		21.5372	
81.66354	3184.271		21.62612	
81.71748	3185.393		21.6962	
81.77143	3186.58		21.74727	
81.82538	3187.829		21.77918	
81.87933	3189.139		21.79194	
81.93327	3190.511		21.78561	
81.98722	3191.943		21.76034	
82.04117	3193.436		21.71632	
82.09512	3194.987		21.65387	
82.14906	3196.604		21.57324	
82.20301	3198.287		21.47473	
82.25696	3200.033		21.3586	
82.31091	3201.835		21.22511	
82.36485	3203.68		21.07448	
82.4188	3205.55		20.90691	
82.47276	3207.427		20.72251	
82.5267	3209.292		20.52142	
82.58065	3211.128		20.3036	
82.6346	3212.914		20.06899	
82.68855	3214.629		19.81743	
82.74249	3216.268		19.54864	
82.79644	3217.833		19.26226	
82.85039	3219.335		18.95778	
82.90434	3220.786		18.63463	
82.95828	3222.197		18.29203	
83.01223	3223.579		17.92924	
83.06618	3224.933		17.54538	
83.12012	3226.255		17.13955	
83.17407	3227.53		16.71081	
83.22802	3228.742		16.25832	
83.28197	3229.884		15.78118	
83.33591	3230.951		15.27862	
83.38986	3231.94		14.74993	
83.44381	3232.852		14.19453	
83.49776	3233.694		13.612	
83.55171	3234.467		13.00197	
83.60566	3235.168		12.36454	
83.65961	3235.8		11.69972	
83.71355	3236.366		11.00779	
83.7675	3236.873		10.28916	
83.82145	3237.324		9.54434	
83.8754	3237.723		8.77398	
83.92934	3238.066		7.978874	
83.98329	3238.349		7.160016	
84.03724	3238.564		6.31853	
84.09119	3238.711		5.455752	
84.14513	3238.796		4.573133	
84.19908	3238.831		3.672201	
84.25303	3238.822		2.754515	
84.30698	3238.773		1.82172	
84.36092	3238.689		0.8754709	
84.41487	3238.577		-0.08252318	
84.46882	3238.446		-1.050517	
84.52277	3238.319		-2.026723	
84.57671	3238.218		-3.009351	
84.63067	3238.146		-3.996746	
84.68462	3238.1		-4.986855	
84.73856	3238.064		-5.978063	
84.79251	3238.022		-6.968663	
84.84646	3237.954		-7.956995	
84.90041	3237.851		-8.941492	
84.95435	3237.704		-9.920697	
85.0083	3237.509		-10.8933	
85.06225	3237.266		-11.85818	
85.1162	3236.974		-12.81439	
85.17014	3236.628		-13.76118	
85.22409	3236.219		-14.698	
85.27804	3235.746		-15.62451	
85.33199	3235.202		-16.54051	
85.38593	3234.578		-17.44596	
85.43988	3233.866		-18.34091	
85.49383	3233.049		-19.22544	
85.54778	3232.108		-20.09971	
85.60172	3231.029		-20.96387	
85.65567	3229.802		-21.81813	
85.70962	3228.431		-22.66268	
85.76357	3226.933		-23.49787	
85.81752	3225.328		-24.32376	
85.87147	3223.636		-25.14077	
85.92542	3221.869		-25.94924	
85.97936	3220.038		-26.74948	
86.03331	3218.148		-27.54179	
86.08726	3216.21		-28.3264	
86.1412	3214.228		-29.10354	
86.19515	3212.209		-29.87333	
86.2491	3210.154		-30.6359	
86.30305	3208.06		-31.39128	
86.35699	3205.914		-32.13944	
86.41094	3203.702		-32.88022	
86.46489	3201.417		-33.61347	
86.51884	3199.076		-34.33887	
86.57278	3196.698		-35.05611	
86.62673	3194.309		-35.76477	
86.68068	3191.933		-36.46445	
86.73463	3189.587		-37.15466	
86.78857	3187.279		-37.83486	
86.84253	3185.004		-38.50457	
86.89648	3182.754		-39.16295	
86.95042	3180.514		-39.80944	
87.00437	3178.267		-40.44339	
87.05832	3176.003		-41.06417	
87.11227	3173.71		-41.67118	
87.16621	3171.38		-42.26391	
87.22016	3169.01		-42.84193	
87.27411	3166.601		-43.40487	
87.32806	3164.166		-43.95255	
87.382	3161.726		-44.48484	
87.43595	3159.304		-45.00179	
87.4899	3156.916		-45.50351	
87.54385	3154.572		-45.9902	
87.59779	3152.265		-46.46218	
87.65174	3149.979		-46.91979	
87.70569	3147.694		-47.36344	
87.75964	3145.385		-47.79359	
87.81358	3143.03		-48.21072	
87.86753	3140.612		-48.61534	
87.92149	3138.122		-49.00803	
87.97543	3135.566		-49.38922	
88.02938	3132.957		-49.75946	
88.08333	3130.307		-50.1193	
88.13728	3127.629		-50.46928	
88.19122	3124.937		-50.80996	
88.24517	3122.247		-51.1419	
88.29912	3119.565		-51.46566	
88.35307	3116.882		-51.78174	
88.40701	3114.18		-52.09061	
88.46096	3111.431		-52.39268	
88.51491	3108.609		-52.68827	
88.56886	3105.696		-52.9777	
88.6228	3102.683		-53.26117	
88.67675	3099.572		-53.53883	
88.7307	3096.373		-53.81075	
88.78465	3093.104		-54.07698	
88.83859	3089.794		-54.33748	
88.89254	3086.468		-54.5922	
88.94649	3083.148		-54.84105	
89.00044	3079.85		-55.08401	
89.05439	3076.587		-55.32096	
89.10834	3073.365		-55.55191	
89.16228	3070.183		-55.77683	
89.21623	3067.031		-55.99562	
89.27018	3063.897		-56.20818	
89.32413	3060.758		-56.41434	
89.37807	3057.591		-56.61391	
89.43202	3054.381		-56.80667	
89.48597	3051.126		-56.9924	
89.53992	3047.827		-57.1709	
89.59386	3044.498		-57.34202	
89.64781	3041.158		-57.50566	
89.70176	3037.829		-57.66176	
89.75571	3034.521		-57.81039	
89.80965	3031.239		-57.95165	
89.8636	3027.986		-58.08569	
89.91755	3024.762		-58.21271	
89.9715	3021.565		-58.33292	
90.02544	3018.389		-58.44653	
90.07939	3015.226		-58.55374	
90.13335	3012.067		-58.65481	
90.18729	3008.903		-58.74999	
90.24124	3005.727		-58.8396	
90.29519	3002.536		-58.92399	
90.34914	2999.332		-59.00354	
90.40308	2996.123		-59.07869	
90.45703	2992.918		-59.14993	
90.51098	2989.729		-59.21778	
90.56493	2986.572		-59.28285	
90.61887	2983.454		-59.3457	
90.67282	2980.371		-59.40691	
90.72677	2977.312		-59.46702	
90.78072	2974.268		-59.52657	
90.83466	2971.236		-59.586	
90.88861	2968.213		-59.64576	
90.94256	2965.198		-59.7062	
90.99651	2962.183		-59.76768	
91.05045	2959.158		-59.83054	
91.1044	2956.111		-59.89507	
91.15835	2953.035		-59.96159	
91.2123	2949.932		-60.03035	
91.26625	2946.802		-60.10157	
91.3202	2943.641		-60.17537	
91.37415	2940.444		-60.25179	
91.42809	2937.213		-60.33081	
91.48204	2933.952		-60.41232	
91.53599	2930.667		-60.49621	
91.58994	2927.359		-60.58228	
91.64388	2924.033		-60.67033	
91.69783	2920.69		-60.76013	
91.75178	2917.339		-60.85142	
91.80573	2913.99		-60.94391	
91.85967	2910.652		-61.03732	
91.91362	2907.327		-61.13134	
91.96757	2904.016		-61.22567	
92.02151	2900.717		-61.32001	
92.07546	2897.43		-61.41404	
92.12941	2894.155		-61.50745	
92.18336	2890.887		-61.59991	
92.2373	2887.619		-61.69109	
92.29126	2884.339		-61.78065	
92.34521	2881.035		-61.86821	
92.39915	2877.697		-61.95347	
92.4531	2874.323		-62.00354	
92.50705	2870.913		-62.04798	
92.561	2867.484		-62.08855	
92.61494	2864.047		-62.12683	
92.66889	2860.612		-62.16394	
92.72284	2857.172		-62.20058	
92.77679	2853.721		-62.23711	
92.83073	2850.257		-62.27373	
92.88468	2846.785		-62.3105	
92.93863	2843.304		-62.34742	
92.99258	2839.81		-62.38445	
93.04652	2836.297		-62.42151	
93.10047	2832.762		-62.45855	
93.15442	2829.205		-62.49551	
93.20837	2825.635		-62.53229	
93.26231	2822.058		-62.56885	
93.31626	2818.483		-62.60511	
93.37022	2814.917		-62.64103	
93.42416	2811.374		-62.67653	
93.47811	2807.859		-62.71156	
93.53206	2804.376		-62.74607	
93.58601	2800.925		-62.78001	
93.63995	2797.502		-62.81334	
93.6939	2794.1		-62.846	
93.74785	2790.714		-62.87794	
93.8018	2787.332		-62.90912	
93.85574	2783.956		-62.93949	
93.90969	2780.589		-62.96902	
93.96364	2777.237		-62.99766	
94.01759	2773.896		-63.0254	
94.07153	2770.57		-63.05219	
94.12548	2767.215		-63.07803	
94.17943	2763.839		-63.10289	
94.23338	2760.45		-63.12676	
94.28732	2757.053		-63.14963	
94.34127	2753.651		-63.17149	
94.39522	2750.245		-63.19233	
94.44917	2746.834		-63.21216	
94.50312	2743.422		-63.23098	
94.55707	2740.007		-63.24879	
94.61102	2736.592		-63.26561	
94.66496	2733.177		-63.28144	
94.71891	2729.761		-63.29629	
94.77286	2726.346		-63.31018	
94.82681	2722.932		-63.32314	
94.88075	2719.518		-63.33518	
94.9347	2716.101		-63.34632	
94.98865	2712.682		-63.3566	
