T[Â°C]	330nm [counts / mm]	S.D.	First derivative	S.D. of first derivative
19.99919	7974.094		-123.5218	
20.05318	7967.575		-123.2141	
20.10717	7961.044		-122.9068	
20.16116	7954.501		-122.5998	
20.21515	7947.949		-122.2932	
20.26914	7941.39		-121.987	
20.32313	7934.828		-121.6814	
20.37712	7928.263		-121.3762	
20.43111	7921.701		-121.0716	
20.4851	7915.142		-120.7677	
20.53909	7908.59		-120.4645	
20.59308	7902.044		-120.162	
20.64708	7895.504		-119.8604	
20.70107	7888.968		-119.5596	
20.75506	7882.431		-119.2598	
20.80905	7875.884		-118.9609	
20.86304	7869.312		-118.663	
20.91703	7862.676		-118.3662	
20.97102	7855.909		-118.0705	
21.02501	7849.077		-117.7759	
21.079	7842.257		-117.4825	
21.13299	7835.493		-117.1903	
21.18698	7828.816		-116.8993	
21.24097	7822.249		-116.6094	
21.29496	7815.797		-116.3207	
21.34895	7809.465		-116.0332	
21.40294	7803.244		-115.7469	
21.45693	7797.109		-115.4616	
21.51092	7791.027		-115.1774	
21.56491	7784.969		-114.8941	
21.6189	7778.925		-114.6117	
21.67289	7772.893		-114.3301	
21.72688	7766.87		-114.0492	
21.78087	7760.864		-113.7688	
21.83487	7754.889		-113.4888	
21.88885	7748.959		-113.209	
21.94285	7743.082		-112.9293	
21.99684	7737.262		-112.6494	
22.05083	7731.496		-112.3692	
22.10482	7725.77		-112.0882	
22.15881	7720.062		-111.8063	
22.2128	7714.355		-111.523	
22.26679	7708.64		-111.238	
22.32078	7702.904		-110.9508	
22.37477	7697.132		-110.6611	
22.42876	7691.315		-110.3685	
22.48275	7685.445		-110.073	
22.53674	7679.527		-109.7752	
22.59073	7673.574		-109.4764	
22.64472	7667.607		-109.2612	
22.69871	7661.648		-109.0569	
22.7527	7655.706		-108.8641	
22.80669	7649.774		-108.6832	
22.86068	7643.847		-108.5145	
22.91467	7637.925		-108.358	
22.96866	7632.01		-108.2138	
23.02266	7626.094		-108.0817	
23.07664	7620.179		-107.9614	
23.13064	7614.274		-107.8528	
23.18463	7608.399		-107.7554	
23.23862	7602.565		-107.669	
23.29261	7596.781		-107.5933	
23.3466	7591.055		-107.5278	
23.40059	7585.396		-107.4723	
23.45458	7579.8		-107.4264	
23.50857	7574.26		-107.3898	
23.56256	7568.767		-107.362	
23.61655	7563.313		-107.3426	
23.67054	7557.881		-107.3311	
23.72453	7552.448		-107.3269	
23.77852	7546.991		-107.3295	
23.83251	7541.503		-107.338	
23.8865	7535.985		-107.3519	
23.94049	7530.439		-107.3704	
23.99448	7524.87		-107.3929	
24.04847	7519.273		-107.4187	
24.10246	7513.646		-107.4471	
24.15645	7507.987		-107.4776	
24.21045	7502.306		-107.5097	
24.26443	7496.609		-107.5428	
24.31843	7490.893		-107.5765	
24.37242	7485.142		-107.6104	
24.42641	7479.343		-107.6439	
24.4804	7473.491		-107.6766	
24.53439	7467.581		-107.708	
24.58838	7461.608		-107.7374	
24.64237	7455.582		-107.7642	
24.69636	7449.522		-107.788	
24.75035	7443.445		-107.8079	
24.80434	7437.352		-107.8233	
24.85833	7431.237		-107.8336	
24.91232	7425.108		-107.838	
24.96631	7418.988		-107.8358	
25.0203	7412.904		-107.8262	
25.07429	7406.87		-107.8085	
25.12828	7400.892		-107.7819	
25.18227	7394.972		-107.7458	
25.23626	7389.104		-107.6996	
25.29025	7383.288		-107.6427	
25.34424	7377.521		-107.5747	
25.39824	7371.787		-107.4952	
25.45222	7366.068		-107.4043	
25.50622	7360.36		-107.3021	
25.56021	7354.661		-107.1888	
25.6142	7348.958		-107.0652	
25.66819	7343.232		-106.9317	
25.72218	7337.452		-106.7894	
25.77617	7331.597		-106.6392	
25.83016	7325.665		-106.482	
25.88415	7319.669		-106.3191	
25.93814	7313.627		-106.1514	
25.99213	7307.553		-105.9801	
26.04612	7301.458		-105.8063	
26.10011	7295.349		-105.6309	
26.1541	7289.238		-105.4549	
26.20809	7283.142		-105.2793	
26.26208	7277.071		-105.1049	
26.31607	7271.025		-104.9324	
26.37006	7265.006		-104.7624	
26.42405	7259.021		-104.5955	
26.47804	7253.071		-104.4322	
26.53203	7247.15		-104.2727	
26.58603	7241.259		-104.1173	
26.64001	7235.411		-103.9661	
26.69401	7229.627		-103.8195	
26.748	7223.928		-103.6774	
26.80199	7218.324		-103.5402	
26.85598	7212.815		-103.408	
26.90997	7207.401		-103.2808	
26.96396	7202.088		-103.1587	
27.01795	7196.883		-103.0418	
27.07194	7191.791		-102.93	
27.12593	7186.802		-102.823	
27.17992	7181.896		-102.7207	
27.23391	7177.046		-102.6225	
27.2879	7172.226		-102.5279	
27.34189	7167.405		-102.4363	
27.39588	7162.549		-102.3472	
27.44987	7157.633		-102.2601	
27.50386	7152.649		-102.1745	
27.55785	7147.601		-102.0904	
27.61184	7142.493		-102.0078	
27.66583	7137.333		-101.9266	
27.71982	7132.136		-101.8473	
27.77382	7126.908		-101.7702	
27.8278	7121.649		-101.6957	
27.8818	7116.355		-101.6242	
27.93579	7111.021		-101.5561	
27.98978	7105.642		-101.492	
28.04377	7100.201		-101.4321	
28.09776	7094.684		-101.3767	
28.15175	7089.092		-101.326	
28.20574	7083.439		-101.2801	
28.25973	7077.741		-101.2387	
28.31372	7072.015		-101.2015	
28.36771	7066.271		-101.1684	
28.4217	7060.511		-101.1388	
28.47569	7054.741		-101.1123	
28.52968	7048.975		-101.0884	
28.58367	7043.223		-101.0663	
28.63766	7037.487		-101.0456	
28.69165	7031.765		-101.0257	
28.74564	7026.052		-101.0061	
28.79963	7020.355		-100.9864	
28.85362	7014.678		-100.9662	
28.90761	7009.018		-100.945	
28.96161	7003.375		-100.9226	
29.01559	6997.755		-100.8987	
29.06959	6992.163		-100.8731	
29.12358	6986.601		-100.8455	
29.17757	6981.064		-100.8159	
29.23156	6975.536		-100.784	
29.28555	6969.997		-100.7496	
29.33954	6964.439		-100.7125	
29.39353	6958.862		-100.6724	
29.44752	6953.266		-100.6293	
29.50151	6947.654		-100.5831	
29.5555	6942.028		-100.5339	
29.60949	6936.396		-100.4818	
29.66348	6930.775		-100.427	
29.71747	6925.185		-100.37	
29.77146	6919.646		-100.311	
29.82545	6914.17		-100.2506	
29.87944	6908.762		-100.1892	
29.93343	6903.425		-100.1273	
29.98742	6898.146		-100.0654	
30.04141	6892.894		-100.0039	
30.0954	6887.633		-99.9431	
30.14939	6882.33		-99.88329	
30.20338	6876.971		-99.82455	
30.25738	6871.564		-99.76683	
30.31137	6866.137		-99.71001	
30.36536	6860.721		-99.65388	
30.41935	6855.353		-99.5982	
30.47334	6850.07		-99.54266	
30.52733	6844.899		-99.48697	
30.58132	6839.856		-99.43085	
30.63531	6834.938		-99.37406	
30.6893	6830.13		-99.31641	
30.74329	6825.406		-99.25779	
30.79728	6820.726		-99.19814	
30.85127	6816.038		-99.1375	
30.90526	6811.288		-99.076	
30.95925	6806.426		-99.01381	
31.01324	6801.423		-98.95124	
31.06723	6796.272		-98.88865	
31.12122	6790.993		-98.82645	
31.17521	6785.612		-98.76509	
31.2292	6780.158		-98.70509	
31.28319	6774.669		-98.647	
31.33718	6769.182		-98.59139	
31.39117	6763.73		-98.53886	
31.44517	6758.325		-98.48997	
31.49916	6752.964		-98.44518	
31.55315	6747.621		-98.40492	
31.60714	6742.27		-98.3695	
31.66113	6736.879		-98.33906	
31.71512	6731.422		-98.31364	
31.76911	6725.879		-98.2931	
31.8231	6720.239		-98.27721	
31.87709	6714.505		-98.26564	
31.93108	6708.698		-98.25794	
31.98507	6702.856		-98.25359	
32.03906	6697.023		-98.25191	
32.09305	6691.235		-98.25217	
32.14704	6685.516		-98.2536	
32.20103	6679.875		-98.25539	
32.25502	6674.306		-98.25668	
32.30901	6668.803		-98.25666	
32.363	6663.362		-98.25443	
32.41699	6657.979		-98.24906	
32.47099	6652.647		-98.23959	
32.52497	6647.355		-98.22504	
32.57896	6642.094		-98.20438	
32.63295	6636.854		-98.17667	
32.68695	6631.631		-98.14105	
32.74094	6626.43		-98.09682	
32.79493	6621.262		-98.04346	
32.84892	6616.136		-97.98072	
32.90291	6611.057		-97.90859	
32.9569	6606.026		-97.8273	
33.01089	6601.043		-97.73725	
33.06488	6596.1		-97.63907	
33.11887	6591.179		-97.53353	
33.17286	6586.254		-97.42156	
33.22685	6581.304		-97.30423	
33.28084	6576.315		-97.18267	
33.33483	6571.277		-97.05814	
33.38882	6566.178		-96.93186	
33.44281	6561.01		-96.80508	
33.4968	6555.769		-96.67901	
33.55079	6550.455		-96.5548	
33.60478	6545.087		-96.43356	
33.65878	6539.686		-96.31626	
33.71276	6534.271		-96.20381	
33.76675	6528.855		-96.09692	
33.82074	6523.445		-95.99619	
33.87474	6518.038		-95.90207	
33.92873	6512.638		-95.81496	
33.98272	6507.245		-95.73513	
34.03671	6501.864		-95.66267	
34.0907	6496.497		-95.59761	
34.14469	6491.148		-95.53991	
34.19868	6485.828		-95.48952	
34.25267	6480.542		-95.4463	
34.30666	6475.299		-95.41006	
34.36065	6470.102		-95.38048	
34.41464	6464.951		-95.35712	
34.46863	6459.853		-95.33943	
34.52262	6454.819		-95.32676	
34.57661	6449.86		-95.31832	
34.6306	6444.992		-95.31325	
34.68459	6440.21		-95.31059	
34.73858	6435.494		-95.30939	
34.79257	6430.812		-95.3087	
34.84657	6426.128		-95.30768	
34.90055	6421.412		-95.3056	
34.95454	6416.64		-95.30189	
35.00853	6411.795		-95.29608	
35.06253	6406.871		-95.28789	
35.11652	6401.872		-95.27715	
35.17051	6396.804		-95.26387	
35.2245	6391.674		-95.24815	
35.27849	6386.505		-95.23019	
35.33248	6381.315		-95.21024	
35.38647	6376.117		-95.18852	
35.44046	6370.911		-95.16525	
35.49445	6365.693		-95.14063	
35.54844	6360.463		-95.11479	
35.60243	6355.216		-95.08787	
35.65642	6349.95		-95.05992	
35.71041	6344.668		-95.03098	
35.7644	6339.367		-95.00099	
35.81839	6334.043		-94.96986	
35.87238	6328.703		-94.93747	
35.92637	6323.357		-94.90372	
35.98036	6318.02		-94.86852	
36.03436	6312.7		-94.8318	
36.08834	6307.408		-94.79357	
36.14233	6302.149		-94.75388	
36.19632	6296.934		-94.71281	
36.25032	6291.768		-94.67044	
36.30431	6286.662		-94.62685	
36.3583	6281.616		-94.58206	
36.41229	6276.623		-94.53606	
36.46628	6271.646		-94.4888	
36.52027	6266.642		-94.44018	
36.57426	6261.59		-94.39004	
36.62825	6256.485		-94.33818	
36.68224	6251.322		-94.28433	
36.73623	6246.096		-94.22818	
36.79022	6240.819		-94.16936	
36.84421	6235.513		-94.10748	
36.8982	6230.208		-94.04222	
36.95219	6224.922		-93.97329	
37.00618	6219.669		-93.90046	
37.06017	6214.454		-93.82364	
37.11416	6209.283		-93.74282	
37.16815	6204.149		-93.6581	
37.22215	6199.051		-93.56966	
37.27613	6193.99		-93.47771	
37.33012	6188.957		-93.38253	
37.38411	6183.938		-93.28445	
37.43811	6178.919		-93.1838	
37.4921	6173.89		-93.08097	
37.54609	6168.844		-92.97635	
37.60008	6163.789		-92.87035	
37.65407	6158.735		-92.7634	
37.70806	6153.695		-92.65585	
37.76205	6148.677		-92.54813	
37.81604	6143.698		-92.44057	
37.87003	6138.775		-92.33354	
37.92402	6133.921		-92.22739	
37.97801	6129.143		-92.12245	
38.032	6124.439		-92.01907	
38.08599	6119.798		-91.91766	
38.13998	6115.196		-91.81859	
38.19397	6110.597		-91.72221	
38.24796	6105.966		-91.62888	
38.30195	6101.28		-91.53892	
38.35594	6096.533		-91.45264	
38.40993	6091.717		-91.3704	
38.46392	6086.825		-91.29253	
38.51791	6081.856		-91.21931	
38.5719	6076.83		-91.15099	
38.6259	6071.768		-91.08771	
38.67989	6066.689		-91.02954	
38.73388	6061.612		-90.97643	
38.78787	6056.548		-90.92825	
38.84186	6051.506		-90.88473	
38.89585	6046.495		-90.84555	
38.94984	6041.517		-90.81026	
39.00383	6036.572		-90.77831	
39.05782	6031.659		-90.7491	
39.11181	6026.766		-90.72199	
39.1658	6021.882		-90.69633	
39.21979	6016.997		-90.67139	
39.27378	6012.11		-90.64649	
39.32777	6007.223		-90.6209	
39.38176	6002.34		-90.59397	
39.43575	5997.462		-90.56508	
39.48974	5992.591		-90.53362	
39.54373	5987.743		-90.49903	
39.59772	5982.926		-90.4608	
39.65171	5978.147		-90.41846	
39.7057	5973.404		-90.37164	
39.75969	5968.69		-90.32001	
39.81369	5963.997		-90.26334	
39.86768	5959.305		-90.20144	
39.92167	5954.607		-90.13416	
39.97566	5949.901		-90.06139	
40.02965	5945.178		-89.98315	
40.08364	5940.422		-89.89952	
40.13763	5935.623		-89.81066	
40.19162	5930.77		-89.71685	
40.24561	5925.86		-89.61842	
40.2996	5920.892		-89.51583	
40.35359	5915.867		-89.40959	
40.40758	5910.801		-89.30039	
40.46157	5905.704		-89.18894	
40.51556	5900.589		-89.07605	
40.56955	5895.461		-88.96252	
40.62354	5890.321		-88.84919	
40.67753	5885.177		-88.73682	
40.73152	5880.046		-88.62616	
40.78551	5874.946		-88.51787	
40.8395	5869.889		-88.41255	
40.89349	5864.876		-88.31069	
40.94749	5859.899		-88.2126	
41.00148	5854.95		-88.11845	
41.05547	5850.028		-88.02821	
41.10946	5845.135		-87.94178	
41.16345	5840.269		-87.85891	
41.21744	5835.439		-87.77927	
41.27143	5830.66		-87.70248	
41.32542	5825.941		-87.62811	
41.37941	5821.284		-87.55573	
41.4334	5816.688		-87.48492	
41.48739	5812.148		-87.41531	
41.54138	5807.661		-87.34653	
41.59537	5803.215		-87.27827	
41.64936	5798.794		-87.21029	
41.70335	5794.386		-87.14245	
41.75734	5789.982		-87.07467	
41.81133	5785.57		-87.00696	
41.86532	5781.141		-86.93936	
41.91931	5776.691		-86.87193	
41.9733	5772.222		-86.80471	
42.02729	5767.739		-86.73776	
42.08128	5763.25		-86.67119	
42.13528	5758.766		-86.60511	
42.18927	5754.3		-86.53967	
42.24326	5749.853		-86.47505	
42.29725	5745.413		-86.41145	
42.35124	5740.974		-86.34904	
42.40523	5736.527		-86.28808	
42.45922	5732.069		-86.22879	
42.51321	5727.593		-86.17142	
42.5672	5723.083		-86.11624	
42.62119	5718.525		-86.06349	
42.67518	5713.906		-86.01337	
42.72917	5709.221		-85.96603	
42.78316	5704.48		-85.92154	
42.83715	5699.705		-85.87992	
42.89114	5694.915		-85.8411	
42.94513	5690.127		-85.80495	
42.99912	5685.355		-85.77129	
43.05311	5680.602		-85.73981	
43.1071	5675.863		-85.7102	
43.16109	5671.131		-85.68205	
43.21508	5666.405		-85.65495	
43.26907	5661.675		-85.62839	
43.32307	5656.929		-85.60183	
43.37706	5652.161		-85.57468	
43.43105	5647.365		-85.54632	
43.48503	5642.545		-85.51614	
43.53903	5637.708		-85.48363	
43.59302	5632.866		-85.4484	
43.64701	5628.036		-85.41019	
43.701	5623.229		-85.36885	
43.75499	5618.459		-85.32439	
43.80898	5613.74		-85.27693	
43.86297	5609.079		-85.22667	
43.91696	5604.472		-85.17385	
43.97095	5599.915		-85.1188	
44.02494	5595.391		-85.06182	
44.07893	5590.887		-85.00324	
44.13292	5586.39		-84.94341	
44.18691	5581.884		-84.88262	
44.2409	5577.343		-84.82114	
44.29489	5572.751		-84.75912	
44.34888	5568.099		-84.69668	
44.40287	5563.385		-84.63383	
44.45686	5558.625		-84.57054	
44.51086	5553.847		-84.5068	
44.56485	5549.083		-84.44259	
44.61884	5544.356		-84.37792	
44.67282	5539.672		-84.31281	
44.72682	5535.039		-84.24721	
44.78081	5530.46		-84.18111	
44.8348	5525.934		-84.11443	
44.88879	5521.451		-84.04716	
44.94278	5517.003		-83.97926	
44.99677	5512.585		-83.9108	
45.05076	5508.189		-83.84183	
45.10475	5503.801		-83.77246	
45.15874	5499.416		-83.70281	
45.21273	5495.029		-83.63304	
45.26672	5490.65		-83.56329	
45.32071	5486.298		-83.49372	
45.3747	5481.991		-83.42449	
45.42869	5477.735		-83.3558	
45.48268	5473.528		-83.2879	
45.53667	5469.358		-83.22105	
45.59066	5465.215		-83.15566	
45.64465	5461.083		-83.09222	
45.69865	5456.939		-83.03124	
45.75264	5452.764		-82.97333	
45.80663	5448.546		-82.91907	
45.86061	5444.277		-82.86904	
45.91461	5439.954		-82.8238	
45.9686	5435.574		-82.78388	
46.02259	5431.125		-82.74978	
46.07658	5426.597		-82.72192	
46.13057	5421.995		-82.70063	
46.18456	5417.323		-82.68617	
46.23855	5412.592		-82.67862	
46.29254	5407.821		-82.67791	
46.34653	5403.027		-82.68378	
46.40052	5398.222		-82.69583	
46.45451	5393.419		-82.71345	
46.5085	5388.637		-82.73588	
46.56249	5383.887		-82.76225	
46.61648	5379.173		-82.79157	
46.67047	5374.491		-82.82278	
46.72446	5369.839		-82.85468	
46.77845	5365.226		-82.88601	
46.83244	5360.66		-82.91541	
46.88644	5356.153		-82.94157	
46.94043	5351.712		-82.96314	
46.99442	5347.344		-82.97889	
47.0484	5343.042		-82.98766	
47.1024	5338.788		-82.98837	
47.15639	5334.554		-82.98	
47.21038	5330.322		-82.96161	
47.26437	5326.083		-82.93242	
47.31836	5321.838		-82.89179	
47.37235	5317.586		-82.83923	
47.42634	5313.331		-82.77444	
47.48033	5309.07		-82.69735	
47.53432	5304.803		-82.60808	
47.58831	5300.524		-82.50689	
47.6423	5296.225		-82.39429	
47.69629	5291.888		-82.27094	
47.75028	5287.502		-82.1377	
47.80427	5283.054		-81.99558	
47.85826	5278.543		-81.8457	
47.91225	5273.982		-81.68938	
47.96624	5269.374		-81.52797	
48.02023	5264.721		-81.36294	
48.07423	5260.025		-81.19579	
48.12822	5255.288		-81.02805	
48.18221	5250.502		-80.86119	
48.23619	5245.663		-80.69667	
48.29019	5240.776		-80.53585	
48.34418	5235.864		-80.38001	
48.39817	5230.951		-80.23031	
48.45216	5226.069		-80.08772	
48.50615	5221.247		-79.95303	
48.56014	5216.509		-79.82677	
48.61413	5211.867		-79.70925	
48.66812	5207.324		-79.60059	
48.72211	5202.875		-79.50067	
48.7761	5198.506		-79.40923	
48.83009	5194.206		-79.32577	
48.88408	5189.966		-79.24969	
48.93807	5185.783		-79.1803	
48.99206	5181.66		-79.11678	
49.04605	5177.6		-79.0583	
49.10004	5173.597		-79.004	
49.15403	5169.635		-78.95303	
49.20802	5165.699		-78.90454	
49.26202	5161.779		-78.85773	
49.31601	5157.875		-78.81191	
49.37	5153.997		-78.76653	
49.42398	5150.157		-78.72111	
49.47798	5146.36		-78.67534	
49.53197	5142.601		-78.62902	
49.58596	5138.873		-78.58204	
49.63995	5135.164		-78.53439	
49.69394	5131.46		-78.48614	
49.74793	5127.748		-78.43752	
49.80192	5124.005		-78.38884	
49.85591	5120.225		-78.34056	
49.9099	5116.4		-78.29321	
49.96389	5112.521		-78.24745	
50.01788	5108.583		-78.20397	
50.07187	5104.584		-78.16348	
50.12586	5100.53		-78.12672	
50.17985	5096.424		-78.09439	
50.23384	5092.264		-78.06717	
50.28783	5088.053		-78.04565	
50.34182	5083.793		-78.03041	
50.39581	5079.49		-78.02188	
50.44981	5075.144		-78.02036	
50.5038	5070.758		-78.02594	
50.55779	5066.329		-78.03857	
50.61177	5061.854		-78.05797	
50.66577	5057.345		-78.08366	
50.71976	5052.807		-78.11501	
50.77375	5048.244		-78.15121	
50.82774	5043.666		-78.19138	
50.88173	5039.077		-78.2345	
50.93572	5034.483		-78.27943	
50.98971	5029.888		-78.32496	
51.0437	5025.307		-78.36977	
51.09769	5020.757		-78.41255	
51.15168	5016.248		-78.45193	
51.20567	5011.776		-78.48662	
51.25966	5007.34		-78.51537	
51.31365	5002.935		-78.53705	
51.36764	4998.564		-78.55068	
51.42163	4994.231		-78.55546	
51.47562	4989.941		-78.55078	
51.52961	4985.695		-78.53616	
51.5836	4981.486		-78.51128	
51.6376	4977.303		-78.47598	
51.69159	4973.135		-78.43027	
51.74557	4968.971		-78.37423	
51.79956	4964.808		-78.30814	
51.85356	4960.649		-78.2324	
51.90755	4956.491		-78.14761	
51.96154	4952.325		-78.05447	
52.01553	4948.142		-77.95379	
52.06952	4943.932		-77.84652	
52.12351	4939.69		-77.73361	
52.1775	4935.414		-77.6161	
52.23149	4931.101		-77.49502	
52.28548	4926.768		-77.37144	
52.33947	4922.433		-77.24641	
52.39346	4918.119		-77.1209	
52.44745	4913.831		-76.99587	
52.50144	4909.564		-76.87216	
52.55543	4905.314		-76.7505	
52.60942	4901.08		-76.63152	
52.66341	4896.869		-76.5158	
52.7174	4892.686		-76.40379	
52.77139	4888.531		-76.29581	
52.82539	4884.407		-76.19215	
52.87938	4880.313		-76.09295	
52.93336	4876.253		-75.99823	
52.98735	4872.227		-75.90791	
53.04135	4868.239		-75.82173	
53.09534	4864.286		-75.73937	
53.14933	4860.358		-75.66041	
53.20332	4856.451		-75.58434	
53.25731	4852.566		-75.51068	
53.3113	4848.699		-75.43896	
53.36529	4844.842		-75.36878	
53.41928	4840.993		-75.29981	
53.47327	4837.154		-75.23185	
53.52726	4833.335		-75.16475	
53.58125	4829.542		-75.0985	
53.63524	4825.772		-75.03313	
53.68923	4822.02		-74.96883	
53.74322	4818.269		-74.90578	
53.79721	4814.512		-74.84421	
53.8512	4810.738		-74.78447	
53.90519	4806.934		-74.72695	
53.95918	4803.086		-74.67211	
54.01318	4799.18		-74.62043	
54.06717	4795.212		-74.57242	
54.12115	4791.184		-74.52853	
54.17514	4787.092		-74.4892	
54.22914	4782.936		-74.45471	
54.28313	4778.728		-74.42532	
54.33712	4774.49		-74.40112	
54.39111	4770.245		-74.38213	
54.4451	4766.005		-74.36823	
54.49909	4761.773		-74.35913	
54.55308	4757.546		-74.35442	
54.60707	4753.318		-74.35353	
54.66106	4749.086		-74.35576	
54.71505	4744.851		-74.36033	
54.76904	4740.614		-74.36635	
54.82303	4736.38		-74.37289	
54.87702	4732.153		-74.37892	
54.93101	4727.938		-74.38334	
54.985	4723.747		-74.38494	
55.03899	4719.59		-74.38251	
55.09298	4715.481		-74.37476	
55.14697	4711.432		-74.36046	
55.20097	4707.438		-74.3384	
55.25496	4703.494		-74.30747	
55.30894	4699.591		-74.26664	
55.36293	4695.721		-74.21503	
55.41693	4691.875		-74.15202	
55.47092	4688.047		-74.07715	
55.52491	4684.23		-73.99017	
55.5789	4680.422		-73.89105	
55.63289	4676.622		-73.78004	
55.68688	4672.828		-73.65755	
55.74087	4669.038		-73.5242	
55.79486	4665.248		-73.38083	
55.84885	4661.447		-73.22849	
55.90284	4657.619		-73.06835	
55.95683	4653.741		-72.90176	
56.01082	4649.794		-72.73018	
56.06481	4645.774		-72.55518	
56.1188	4641.684		-72.37834	
56.17279	4637.525		-72.20125	
56.22678	4633.303		-72.02544	
56.28077	4629.033		-71.85228	
56.33476	4624.742		-71.68307	
56.38876	4620.454		-71.51894	
56.44275	4616.194		-71.36092	
56.49673	4611.972		-71.20981	
56.55072	4607.789		-71.06625	
56.60472	4603.64		-70.93069	
56.65871	4599.523		-70.80348	
56.7127	4595.429		-70.68469	
56.76669	4591.36		-70.57429	
56.82068	4587.326		-70.47205	
56.87467	4583.331		-70.3776	
56.92866	4579.379		-70.29037	
56.98265	4575.468		-70.20963	
57.03664	4571.602		-70.13447	
57.09063	4567.798		-70.06391	
57.14462	4564.075		-69.99691	
57.19861	4560.452		-69.93241	
57.2526	4556.943		-69.8694	
57.30659	4553.548		-69.80685	
57.36058	4550.255		-69.74383	
57.41457	4547.046		-69.6795	
57.46856	4543.899		-69.61312	
57.52255	4540.793		-69.54411	
57.57655	4537.699		-69.472	
57.63054	4534.593		-69.39655	
57.68452	4531.458		-69.31765	
57.73851	4528.286		-69.23533	
57.79251	4525.077		-69.14976	
57.8465	4521.831		-69.06132	
57.90049	4518.542		-68.9705	
57.95448	4515.192		-68.87795	
58.00847	4511.765		-68.78443	
58.06246	4508.254		-68.69083	
58.11645	4504.658		-68.59813	
58.17044	4500.967		-68.50734	
58.22443	4497.177		-68.4195	
58.27842	4493.295		-68.33558	
58.33241	4489.34		-68.25644	
58.3864	4485.331		-68.18282	
58.44039	4481.288		-68.11532	
58.49438	4477.226		-68.05437	
58.54837	4473.157		-68.00024	
58.60236	4469.088		-67.95313	
58.65635	4465.021		-67.91303	
58.71034	4460.956		-67.87977	
58.76434	4456.901		-67.85298	
58.81833	4452.869		-67.83212	
58.87231	4448.874		-67.81641	
58.9263	4444.926		-67.80487	
58.9803	4441.02		-67.79633	
59.03429	4437.148		-67.78936	
59.08828	4433.306		-67.78242	
59.14227	4429.487		-67.77386	
59.19626	4425.693		-67.76202	
59.25025	4421.923		-67.74525	
59.30424	4418.179		-67.72193	
59.35823	4414.464		-67.69054	
59.41222	4410.792		-67.64959	
59.46621	4407.173		-67.59776	
59.5202	4403.615		-67.53384	
59.57419	4400.116		-67.45686	
59.62818	4396.664		-67.36606	
59.68217	4393.241		-67.26092	
59.73616	4389.824		-67.14108	
59.79015	4386.397		-67.00645	
59.84414	4382.951		-66.85706	
59.89813	4379.48		-66.69313	
59.95213	4375.977		-66.51508	
60.00611	4372.444		-66.32351	
60.0601	4368.884		-66.11915	
60.1141	4365.296		-65.90282	
60.16809	4361.679		-65.67558	
60.22208	4358.03		-65.43846	
60.27607	4354.362		-65.19262	
60.33006	4350.691		-64.93919	
60.38405	4347.033		-64.67935	
60.43804	4343.401		-64.41413	
60.49203	4339.808		-64.14454	
60.54602	4336.256		-63.87149	
60.60001	4332.738		-63.59591	
60.654	4329.235		-63.3186	
60.70799	4325.724		-63.04025	
60.76198	4322.185		-62.76149	
60.81597	4318.606		-62.48277	
60.86996	4314.988		-62.20438	
60.92395	4311.339		-61.92641	
60.97794	4307.675		-61.64882	
61.03193	4304.019		-61.37133	
61.08592	4300.387		-61.09346	
61.13992	4296.795		-60.81459	
61.1939	4293.264		-60.53398	
61.24789	4289.81		-60.25078	
61.30189	4286.44		-59.96406	
61.35588	4283.161		-59.67289	
61.40987	4279.971		-59.37622	
61.46386	4276.867		-59.07303	
61.51785	4273.845		-58.76226	
61.57184	4270.895		-58.44302	
61.62583	4268.004		-58.11439	
61.67982	4265.156		-57.77561	
61.73381	4262.328		-57.42599	
61.7878	4259.497		-57.06502	
61.84179	4256.645		-56.69217	
61.89578	4253.768		-56.30706	
61.94977	4250.873		-55.90941	
62.00376	4247.964		-55.49896	
62.05775	4245.053		-55.07553	
62.11174	4242.148		-54.63889	
62.16573	4239.251		-54.18893	
62.21972	4236.354		-53.72544	
62.27371	4233.456		-53.24824	
62.32771	4230.556		-52.75709	
62.38169	4227.65		-52.25182	
62.43568	4224.737		-51.73212	
62.48968	4221.817		-51.1976	
62.54367	4218.886		-50.64793	
62.59766	4215.95		-50.08257	
62.65165	4213.016		-49.50101	
62.70564	4210.087		-48.9026	
62.75963	4207.161		-48.28676	
62.81362	4204.235		-47.65277	
62.86761	4201.315		-46.99988	
62.9216	4198.41		-46.32729	
62.97559	4195.538		-45.63425	
63.02958	4192.714		-44.91983	
63.08357	4189.948		-44.18305	
63.13756	4187.244		-43.42295	
63.19155	4184.604		-42.63827	
63.24554	4182.019		-41.8278	
63.29953	4179.482		-40.99015	
63.35352	4176.991		-40.12404	
63.40751	4174.55		-39.22808	
63.4615	4172.163		-38.30077	
63.5155	4169.834		-37.34072	
63.56948	4167.565		-36.34661	
63.62347	4165.36		-35.31702	
63.67747	4163.224		-34.25063	
63.73146	4161.154		-33.14639	
63.78545	4159.135		-32.00306	
63.83944	4157.158		-30.81975	
63.89343	4155.216		-29.59542	
63.94742	4153.309		-28.3295	
64.00141	4151.436		-27.02116	
64.0554	4149.595		-25.67007	
64.10939	4147.789		-24.2753	
64.16338	4146.02		-22.83665	
64.21737	4144.29		-21.35319	
64.27136	4142.608		-19.82447	
64.32535	4140.987		-18.25004	
64.37934	4139.446		-16.62868	
64.43333	4138.004		-14.95978	
64.48732	4136.671		-13.24268	
64.54131	4135.458		-11.47587	
64.59531	4134.377		-9.658464	
64.64929	4133.429		-7.7895	
64.70329	4132.607		-5.867145	
64.75727	4131.899		-3.890468	
64.81126	4131.293		-1.857551	
64.86526	4130.774		0.2328144	
64.91924	4130.329		2.38184	
64.97324	4129.956		4.591708	
65.02723	4129.664		6.86378	
65.08121	4129.469		9.199469	
65.13521	4129.396		11.60129	
65.1892	4129.464		14.07089	
65.24319	4129.695		16.61001	
65.29718	4130.106		19.22154	
65.35117	4130.706		21.90758	
65.40516	4131.492		24.67007	
65.45915	4132.458		27.51237	
65.51314	4133.587		30.43627	
65.56713	4134.856		33.44528	
65.62112	4136.252		36.54175	
65.67511	4137.766		39.72801	
65.7291	4139.396		43.00776	
65.7831	4141.141		46.38328	
65.83708	4143.003		49.85675	
65.89108	4144.986		53.43167	
65.94507	4147.101		57.11016	
65.99905	4149.363		60.89391	
66.05305	4151.794		64.78634	
66.10703	4154.405		68.78854	
66.16103	4157.211		72.90381	
66.21502	4160.223		77.13372	
66.269	4163.444		81.47984	
66.323	4166.874		85.94569	
66.37699	4170.509		90.533	
66.43098	4174.339		95.24361	
66.48497	4178.362		100.0814	
66.53896	4182.58		105.0485	
66.59295	4186.995		110.1471	
66.64694	4191.61		115.3816	
66.70093	4196.431		120.7538	
66.75492	4201.479		126.2684	
66.80891	4206.777		131.9282	
66.8629	4212.354		137.7358	
66.91689	4218.245		143.6965	
66.97089	4224.471		149.8133	
67.02487	4231.044		156.0892	
67.07887	4237.975		162.5303	
67.13286	4245.257		169.14	
67.18684	4252.883		175.9219	
67.24084	4260.857		182.8829	
67.29482	4269.176		190.0261	
67.34882	4277.843		197.3587	
67.40281	4286.86		204.8852	
67.45679	4296.243		212.6103	
67.51079	4306.013		220.5417	
67.56478	4316.193		228.6843	
67.61877	4326.8		237.0425	
67.67276	4337.856		245.6243	
67.72675	4349.381		254.4338	
67.78074	4361.388		263.4747	
67.83473	4373.889		272.7538	
67.88872	4386.887		282.2724	
67.94271	4400.4		292.0363	
67.9967	4414.436		302.0464	
68.05069	4428.992		312.3029	
68.10468	4444.064		322.809	
68.15868	4459.647		333.5628	
68.21266	4475.741		344.5613	
68.26665	4492.356		355.8049	
68.32065	4509.498		367.2885	
68.37463	4527.17		379.0058	
68.42863	4545.391		390.9544	
68.48261	4564.184		403.1243	
68.53661	4583.581		415.5114	
68.5906	4603.607		428.1054	
68.64458	4624.278		440.895	
68.69858	4645.607		453.8736	
68.75257	4667.598		467.0281	
68.80656	4690.252		480.3446	
68.86055	4713.592		493.8141	
68.91454	4737.633		507.4213	
68.96853	4762.384		521.1498	
69.02252	4787.862		534.9886	
69.07651	4814.076		548.9184	
69.1305	4841.054		562.9266	
69.18449	4868.829		576.9945	
69.23848	4897.437		591.1026	
69.29247	4926.919		605.2368	
69.34647	4957.299		619.3762	
69.40045	4988.598		633.4999	
69.45444	5020.859		647.5919	
69.50844	5054.116		661.6301	
69.56242	5088.411		675.5921	
69.61642	5123.806		689.4607	
69.6704	5160.341		703.2105	
69.7244	5198.066		716.8235	
69.77839	5237.01		730.2756	
69.83237	5277.189		743.5418	
69.88637	5318.635		756.6027	
69.94036	5361.354		769.4323	
69.99435	5405.346		782.0044	
70.04834	5450.612		794.2978	
70.10233	5497.131		806.2852	
70.15632	5544.867		817.9391	
70.21031	5593.8		829.2368	
70.2643	5643.87		840.1484	
70.31829	5695.031		850.6508	
70.37228	5747.194		860.7157	
70.42627	5800.272		870.3156	
70.48026	5854.205		879.4269	
70.53426	5908.922		888.0228	
70.58824	5964.346		896.0771	
70.64223	6020.417		903.568	
70.69623	6077.05		910.4709	
70.75021	6134.162		916.763	
70.80421	6191.708		922.4251	
70.85819	6249.624		927.4364	
70.91219	6307.883		931.7806	
70.96618	6366.447		935.441	
71.02016	6425.283		938.4031	
71.07416	6484.372		940.6558	
71.12815	6543.671		942.1884	
71.18214	6603.135		942.9929	
71.23613	6662.748		943.0638	
71.29012	6722.472		942.3973	
71.34411	6782.281		940.9922	
71.3981	6842.179		938.8489	
71.45209	6902.124		935.971	
71.50608	6962.1		932.3632	
71.56007	7022.068		928.0334	
71.61406	7081.98		922.992	
71.66805	7141.789		917.2496	
71.72205	7201.404		910.8207	
71.77603	7260.722		903.7222	
71.83002	7319.659		895.9697	
71.88402	7378.1		887.5833	
71.938	7435.917		878.5849	
71.992	7493.01		868.9941	
72.04598	7549.27		858.8368	
72.09998	7604.626		848.1341	
72.15397	7658.978		836.9124	
72.20795	7712.23		825.199	
72.26195	7764.315		813.0169	
72.31594	7815.141		800.3945	
72.36993	7864.607		787.3607	
72.42392	7912.641		773.9391	
72.47791	7959.161		760.1592	
72.5319	8004.105		746.0503	
72.58589	8047.457		731.6362	
72.63988	8089.191		716.9483	
72.69387	8129.318		702.0099	
72.74786	8167.852		686.8506	
72.80185	8204.823		671.4996	
72.85584	8240.283		655.9798	
72.90984	8274.271		640.3202	
72.96382	8306.841		624.5497	
73.01781	8338.056		608.6902	
73.07181	8367.963		592.7701	
73.12579	8396.604		576.8176	
73.17979	8424.028		560.8535	
73.23377	8450.254		544.9076	
73.28777	8475.314		529.0004	
73.34176	8499.22		513.1585	
73.39574	8521.974		497.4084	
73.44974	8543.6		481.769	
73.50373	8564.124		466.2655	
73.55772	8583.583		450.9224	
73.61171	8602.032		435.7566	
73.6657	8619.536		420.791	
73.71969	8636.162		406.0475	
73.77368	8651.982		391.5403	
73.82767	8667.062		377.2912	
73.88166	8681.461		363.3124	
73.93565	8695.212		349.6208	
73.98964	8708.356		336.232	
74.04363	8720.942		323.1542	
74.09763	8732.99		310.4	
74.15161	8744.51		297.9803	
74.2056	8755.519		285.8991	
74.2596	8766.039		274.1643	
74.31358	8776.1		262.7818	
74.36758	8785.732		251.7513	
74.42156	8794.963		241.0774	
74.47556	8803.815		230.7568	
74.52955	8812.322		220.7891	
74.58353	8820.514		211.1726	
74.63753	8828.414		201.8999	
74.69152	8836.028		192.9664	
74.74551	8843.37		184.3663	
74.7995	8850.458		176.0892	
74.85349	8857.312		168.1276	
74.90748	8863.955		160.4729	
74.96147	8870.405		153.1128	
75.01546	8876.649		146.0387	
75.06945	8882.671		139.2377	
75.12344	8888.442		132.6994	
75.17743	8893.948		126.4136	
75.23142	8899.182		120.3672	
75.28542	8904.141		114.5499	
75.3394	8908.816		108.9518	
75.39339	8913.228		103.5606	
75.44739	8917.397		98.36687	
75.50137	8921.339		93.36134	
75.55537	8925.054		88.53306	
75.60935	8928.558		83.87437	
75.66335	8931.882		79.37538	
75.71734	8935.057		75.02869	
75.77132	8938.102		70.82723	
75.82532	8941.037		66.7626	
75.87931	8943.877		62.82858	
75.9333	8946.625		59.0192	
75.98729	8949.277		55.32723	
76.04128	8951.813		51.74736	
76.09527	8954.205		48.2745	
76.14926	8956.439		44.90234	
76.20325	8958.515		41.62675	
76.25724	8960.428		38.44193	
76.31123	8962.169		35.34362	
76.36522	8963.73		32.32769	
76.41921	8965.102		29.38883	
76.47321	8966.284		26.52317	
76.52719	8967.286		23.72686	
76.58118	8968.131		20.99498	
76.63518	8968.831		18.324	
76.68916	8969.387		15.71054	
76.74316	8969.797		13.15033	
76.79714	8970.052		10.64077	
76.85114	8970.147		8.178053	
76.90513	8970.084		5.759723	
76.95911	8969.857		3.383567	
77.01311	8969.45		1.046696	
77.0671	8968.851		-1.252466	
77.12109	8968.051		-3.5152	
77.17508	8967.046		-5.743444	
77.22907	8965.837		-7.937844	
77.28306	8964.431		-10.09874	
77.33705	8962.848		-12.22706	
77.39104	8961.133		-14.3222	
77.44503	8959.33		-16.38444	
77.49902	8957.474		-18.41282	
77.55301	8955.578		-20.40609	
77.607	8953.658		-22.3635	
77.661	8951.729		-24.28322	
77.71498	8949.797		-26.16324	
77.76897	8947.856		-28.00222	
77.82297	8945.918		-29.79786	
77.87695	8943.997		-31.54782	
77.93095	8942.097		-33.25045	
77.98493	8940.21		-34.90316	
78.03893	8938.319		-36.50435	
78.09292	8936.404		-38.05185	
78.1469	8934.459		-39.54366	
78.2009	8932.483		-40.97878	
78.25489	8930.477		-42.35589	
78.30888	8928.438		-43.6741	
78.36287	8926.363		-44.93349	
78.41686	8924.248		-46.13396	
78.47085	8922.073		-47.27581	
78.52484	8919.827		-48.36021	
78.57883	8917.493		-49.38805	
78.63282	8915.045		-50.36108	
78.68681	8912.452		-51.28085	
78.7408	8909.692		-52.14909	
78.79479	8906.734		-52.96807	
78.84879	8903.559		-53.73988	
78.90277	8900.158		-54.46675	
78.95676	8896.535		-55.15131	
79.01076	8892.703		-55.79588	
79.06474	8888.683		-56.40277	
79.11874	8884.496		-56.97447	
79.17272	8880.175		-57.51303	
79.22672	8875.749		-58.02064	
79.28071	8871.246		-58.499	
79.33469	8866.689		-58.94956	
79.38869	8862.092		-59.37365	
79.44268	8857.462		-59.77211	
79.49667	8852.812		-60.1454	
79.55066	8848.169		-60.4938	
79.60465	8843.562		-60.81711	
79.65864	8839.013		-61.1149	
79.71263	8834.531		-61.38667	
79.76662	8830.138		-61.63163	
79.82061	8825.86		-61.84903	
79.8746	8821.744		-62.03801	
79.92859	8817.827		-62.19769	
79.98258	8814.138		-62.32733	
80.03658	8810.682		-62.4262	
80.09056	8807.454		-62.49374	
80.14455	8804.436		-62.52961	
80.19855	8801.593		-62.53382	
80.25253	8798.881		-62.50669	
80.30653	8796.238		-62.44893	
80.36051	8793.618		-62.36165	
80.41451	8790.985		-62.24629	
80.4685	8788.316		-62.10466	
80.52248	8785.584		-61.93895	
80.57648	8782.768		-61.75161	
80.63047	8779.863		-61.54551	
80.68446	8776.892		-61.32369	
80.73845	8773.872		-61.08936	
80.79244	8770.818		-60.84594	
80.84643	8767.737		-60.59705	
80.90042	8764.624		-60.34634	
80.95441	8761.482		-60.09771	
81.0084	8758.319		-59.85499	
81.06239	8755.115		-59.62207	
81.11638	8751.833		-59.40273	
81.17037	8748.451		-59.20049	
81.22437	8744.989		-59.01874	
81.27835	8741.499		-58.86055	
81.33234	8738.028		-58.72859	
81.38634	8734.588		-58.62523	
81.44032	8731.165		-58.55236	
81.49432	8727.753		-58.5114	
81.5483	8724.372		-58.50328	
81.60229	8721.058		-58.52842	
81.65629	8717.842		-58.5868	
81.71027	8714.74		-58.67795	
81.76427	8711.751		-58.80106	
81.81826	8708.877		-58.95494	
81.87225	8706.128		-59.13813	
81.92624	8703.495		-59.34896	
81.98023	8700.948		-59.58554	
82.03422	8698.456		-59.84591	
82.08821	8696.001		-60.12823	
82.1422	8693.573		-60.43062	
82.19619	8691.152		-60.75153	
82.25018	8688.711		-61.08948	
82.30417	8686.211		-61.44326	
82.35816	8683.627		-61.81213	
82.41216	8680.945		-62.19558	
82.46614	8678.166		-62.59343	
82.52013	8675.295		-63.00609	
82.57413	8672.345		-63.43412	
82.62811	8669.326		-63.87843	
82.68211	8666.251		-64.34038	
82.73609	8663.12		-64.82133	
82.79008	8659.928		-65.32313	
82.84408	8656.657		-65.84756	
82.89806	8653.291		-66.39656	
82.95206	8649.829		-66.97246	
83.00605	8646.284		-67.57745	
83.06004	8642.646		-68.21377	
83.11403	8638.887		-68.88385	
83.16802	8634.988		-69.58985	
83.22201	8630.959		-70.33381	
83.276	8626.839		-71.11806	
83.32999	8622.671		-71.9443	
83.38398	8618.484		-72.81453	
83.43797	8614.291		-73.73008	
83.49196	8610.09		-74.69196	
83.54595	8605.876		-75.7012	
83.59995	8601.646		-76.75793	
83.65393	8597.398		-77.86181	
83.70792	8593.131		-79.0126	
83.76192	8588.834		-80.20918	
83.8159	8584.504		-81.45	
83.8699	8580.138		-82.73361	
83.92388	8575.74		-84.05732	
83.97787	8571.317		-85.41878	
84.03187	8566.888		-86.81478	
84.08585	8562.474		-88.2419	
84.13985	8558.102		-89.69717	
84.19384	8553.796		-91.17699	
84.24783	8549.554		-92.6777	
84.30182	8545.364		-94.19637	
84.35581	8541.193		-95.72958	
84.4098	8537.005		-97.27408	
84.46379	8532.768		-98.82745	
84.51778	8528.464		-100.3866	
84.57177	8524.071		-101.9496	
84.62576	8519.568		-103.514	
84.67975	8514.938		-105.0776	
84.73374	8510.166		-106.6391	
84.78773	8505.253		-108.1968	
84.84172	8500.206		-109.7493	
84.89571	8495.041		-111.2958	
84.94971	8489.76		-112.8354	
85.00369	8484.352		-114.3672	
85.05769	8478.789		-115.8914	
85.11168	8473.026		-117.4073	
85.16566	8467.021		-118.9145	
85.21966	8460.75		-120.4133	
85.27364	8454.208		-121.9033	
85.32764	8447.394		-123.3849	
85.38163	8440.33		-124.8582	
85.43562	8433.037		-126.323	
85.48961	8425.531		-127.7799	
85.5436	8417.807		-129.2287	
85.59759	8409.877		-130.6695	
85.65158	8401.766		-132.1026	
85.70557	8393.52		-133.528	
85.75956	8385.161		-134.9456	
85.81355	8376.698		-136.3559	
85.86754	8368.127		-137.7582	
85.92153	8359.462		-139.1525	
85.97552	8350.711		-140.5378	
86.02951	8341.894		-141.9128	
86.0835	8333.024		-143.2765	
86.1375	8324.139		-144.6272	
86.19148	8315.251		-145.9632	
86.24548	8306.375		-147.2828	
86.29947	8297.508		-148.5843	
86.35345	8288.651		-149.8655	
86.40745	8279.797		-151.1251	
86.46143	8270.965		-152.3609	
86.51543	8262.162		-153.5717	
86.56942	8253.403		-154.7558	
86.62341	8244.687		-155.9115	
86.6774	8236.012		-157.0379	
86.73139	8227.371		-158.1337	
86.78538	8218.753		-159.1978	
86.83937	8210.139		-160.2298	
86.89336	8201.525		-161.2291	
86.94735	8192.92		-162.1955	
87.00134	8184.337		-163.1293	
87.05533	8175.785		-164.0305	
87.10932	8167.271		-164.9001	
87.16331	8158.806		-165.7386	
87.2173	8150.383		-166.5468	
87.27129	8141.97		-167.326	
87.32529	8133.531		-168.0774	
87.37927	8125.021		-168.8021	
87.43327	8116.404		-169.5017	
87.48726	8107.66		-170.1775	
87.54124	8098.776		-170.8307	
87.59524	8089.753		-171.4631	
87.64922	8080.63		-172.0759	
87.70322	8071.44		-172.6707	
87.75721	8062.215		-173.2489	
87.8112	8052.96		-173.8122	
87.86519	8043.667		-174.362	
87.91918	8034.324		-174.8996	
87.97317	8024.924		-175.4261	
88.02716	8015.461		-175.9426	
88.08115	8005.93		-176.4498	
88.13514	7996.32		-176.948	
88.18913	7986.607		-177.4378	
88.24312	7976.773		-177.919	
88.29711	7966.802		-178.3915	
88.3511	7956.7		-178.8547	
88.40509	7946.483		-179.308	
88.45908	7936.18		-179.7507	
88.51308	7925.828		-180.1818	
88.56706	7915.472		-180.6003	
88.62106	7905.137		-181.0052	
88.67505	7894.854		-181.3954	
88.72903	7884.634		-181.7698	
88.78303	7874.477		-182.1271	
88.83701	7864.365		-182.4662	
88.89101	7854.271		-182.786	
88.945	7844.148		-183.0857	
88.99899	7833.961		-183.3643	
89.05298	7823.676		-183.621	
89.10697	7813.293		-183.8551	
89.16096	7802.826		-184.066	
89.21495	7792.311		-184.2535	
89.26894	7781.797		-184.4171	
89.32293	7771.33		-184.5567	
89.37692	7760.918		-184.6725	
89.43091	7750.583		-184.7646	
89.4849	7740.317		-184.8331	
89.53889	7730.119		-184.8785	
89.59288	7719.976		-184.901	
89.64687	7709.876		-184.9012	
89.70087	7699.794		-184.8797	
89.75485	7689.703		-184.837	
89.80885	7679.558		-184.774	
89.86284	7669.35		-184.6916	
89.91682	7659.072		-184.5908	
89.97082	7648.741		-184.4726	
90.0248	7638.389		-184.3384	
90.0788	7628.065		-184.1895	
90.13279	7617.81		-184.0274	
90.18678	7607.657		-183.8538	
90.24077	7597.61		-183.6704	
90.29476	7587.68		-183.4788	
90.34875	7577.854		-183.281	
90.40274	7568.113		-183.0784	
90.45673	7558.428		-182.8727	
90.51072	7548.776		-182.6656	
90.56471	7539.126		-182.4583	
90.6187	7529.467		-182.2521	
90.67269	7519.789		-182.048	
90.72668	7510.104		-181.8471	
90.78067	7500.434		-181.6501	
90.83466	7490.795		-181.4576	
90.88866	7481.191		-181.2702	
90.94264	7471.622		-181.0886	
90.99664	7462.087		-180.9132	
91.05063	7452.592		-180.7445	
91.10461	7443.129		-180.583	
91.15861	7433.683		-180.4292	
91.21259	7424.254		-180.2833	
91.26659	7414.838		-180.1456	
91.32058	7405.422		-180.0163	
91.37457	7395.978		-179.8957	
91.42856	7386.467		-179.7838	
91.48255	7376.87		-179.6808	
91.53654	7367.194		-179.5866	
91.59053	7357.464		-179.5014	
91.64452	7347.712		-179.4251	
91.69851	7337.972		-179.3579	
91.7525	7328.271		-179.2995	
91.80649	7318.637		-179.2498	
91.86048	7309.074		-179.2086	
91.91447	7299.567		-179.1755	
91.96846	7290.11		-179.1501	
92.02245	7280.691		-179.132	
92.07645	7271.319		-179.1207	
92.13043	7261.993		-179.1158	
92.18443	7252.688		-179.117	
92.23842	7243.368		-179.1238	
92.2924	7234		-179.1359	
92.3464	7224.555		-179.1528	
92.40038	7215.021		-179.1743	
92.45438	7205.395		-179.2138	
92.50837	7195.692		-179.2494	
92.56236	7185.928		-179.2826	
92.61635	7176.126		-179.3145	
92.67034	7166.297		-179.3459	
92.72433	7156.451		-179.3776	
92.77832	7146.583		-179.4098	
92.83231	7136.698		-179.4427	
92.8863	7126.786		-179.4765	
92.94029	7116.849		-179.511	
92.99428	7106.891		-179.5463	
93.04827	7096.919		-179.5824	
93.10226	7086.928		-179.6191	
93.15625	7076.926		-179.6564	
93.21024	7066.906		-179.6941	
93.26424	7056.891		-179.7323	
93.31822	7046.891		-179.7708	
93.37222	7036.926		-179.8095	
93.42621	7027.01		-179.8484	
93.48019	7017.17		-179.8874	
93.53419	7007.411		-179.9265	
93.58817	6997.724		-179.9655	
93.64217	6988.091		-180.0044	
93.69616	6978.503		-180.0431	
93.75014	6968.962		-180.0816	
93.80414	6959.469		-180.1198	
93.85813	6950.005		-180.1577	
93.91212	6940.55		-180.1951	
93.96611	6931.052		-180.2322	
94.0201	6921.478		-180.2687	
94.07409	6911.598		-180.3047	
94.12808	6901.664		-180.3401	
94.18207	6891.729		-180.3749	
94.23606	6881.798		-180.409	
94.29005	6871.873		-180.4425	
94.34404	6861.949		-180.4753	
94.39803	6852.021		-180.5074	
94.45203	6842.087		-180.5388	
94.50601	6832.145		-180.5694	
94.56001	6822.19		-180.5993	
94.614	6812.222		-180.6284	
94.66798	6802.242		-180.6568	
94.72198	6792.246		-180.6844	
94.77596	6782.235		-180.7113	
94.82996	6772.207		-180.7374	
94.88395	6762.161		-180.7627	
94.93793	6752.102		-180.7874	
94.99193	6742.027		-180.8113	
