T[Â°C]	350nm [counts / mm]	S.D.
19.99919	6921.415	
19.9994	6918.937	
20.00044	6916.458	
20.008	6910.909	
20.0128	6917.806	
20.02967	6915.185	
20.03757	6928.887	
20.05957	6917.139	
20.06995	6926.332	
20.09787	6906.943	
20.11041	6910.103	
20.14507	6917.628	
20.15979	6911.007	
20.19788	6896.201	
20.2153	6927.918	
20.26067	6890.459	
20.2798	6908.751	
20.33064	6906.431	
20.35186	6891.866	
20.40723	6909.645	
20.43079	6881.077	
20.49107	6903.346	
20.51505	6881.673	
20.57579	6865.381	
20.60302	6879.124	
20.6721	6851.807	
20.69985	6869.157	
20.76996	6842.589	
20.79866	6851.489	
20.86924	6834.124	
20.89949	6814.008	
20.97628	6829.019	
21.00718	6834.811	
21.08265	6807.244	
21.11396	6816.239	
21.19124	6811.26	
21.22335	6804.54	
21.29976	6797.798	
21.33131	6796.553	
21.41056	6785.112	
21.44345	6785.896	
21.52214	6766.415	
21.55393	6771.429	
21.63	6744.763	
21.66107	6737.358	
21.73985	6760.68	
21.77107	6743.442	
21.84835	6735.157	
21.88076	6740.121	
21.95784	6730.992	
21.98969	6733.245	
22.06899	6703.675	
22.10065	6718.704	
22.17671	6699.758	
22.20739	6707.682	
22.28637	6705.076	
22.31809	6686.955	
22.3957	6694.484	
22.42774	6678.851	
22.50638	6668.945	
22.53846	6673.729	
22.61428	6661.783	
22.64538	6655.794	
22.72333	6653.339	
22.75545	6648.762	
22.83447	6647.339	
22.86537	6643.248	
22.94252	6631.136	
22.97478	6618.47	
23.05329	6601.838	
23.08461	6625.004	
23.16217	6597.778	
23.19315	6609.406	
23.27024	6601.731	
23.30321	6595.637	
23.38072	6589.088	
23.41262	6584.111	
23.49135	6578.632	
23.52343	6568.218	
23.60043	6553.26	
23.63117	6557.664	
23.70907	6558.705	
23.74145	6554.522	
23.81894	6545.073	
23.84977	6551.45	
23.92682	6539.008	
23.95806	6543.162	
24.03798	6533.564	
24.07041	6516.831	
24.14768	6529.517	
24.17896	6519.33	
24.25632	6516.33	
24.28835	6509.088	
24.36605	6489.387	
24.398	6495.555	
24.47654	6484.411	
24.50834	6483.998	
24.58418	6467.789	
24.61597	6464.818	
24.69513	6474.332	
24.72625	6465.13	
24.80529	6449.843	
24.83704	6453.096	
24.91355	6442.52	
24.94502	6429.714	
25.02288	6431.891	
25.05419	6435.137	
25.1335	6421.28	
25.16584	6435.813	
25.24313	6403.839	
25.27386	6409.688	
25.35179	6403.41	
25.38347	6390.235	
25.46201	6380.499	
25.49427	6385.332	
25.57223	6376.875	
25.60319	6373.118	
25.67925	6364.458	
25.71101	6358.433	
25.78955	6353.048	
25.8219	6359.298	
25.90086	6342.106	
25.93199	6342.706	
26.00863	6339.364	
26.04041	6323.078	
26.1187	6322.245	
26.15001	6327.963	
26.22814	6324.717	
26.26006	6307.421	
26.33939	6309.089	
26.37113	6312.996	
26.44611	6289.476	
26.4803	6293.332	
26.55711	6278.958	
26.58904	6271.252	
26.66665	6258.08	
26.69772	6267.907	
26.77397	6255.148	
26.80507	6257.678	
26.88478	6250.645	
26.91732	6257.25	
26.99409	6236.148	
27.02492	6239.427	
27.10392	6243.186	
27.13506	6226.673	
27.21277	6219.242	
27.24535	6228.66	
27.32368	6204.204	
27.35414	6200.161	
27.43185	6214.133	
27.46294	6197.018	
27.54167	6196.806	
27.57306	6190.124	
27.65194	6186.217	
27.68336	6183.633	
27.7622	6174.532	
27.7933	6157.963	
27.87159	6176.523	
27.90401	6158.333	
27.9812	6140.121	
28.01225	6152.734	
28.08936	6136.751	
28.12301	6138.308	
28.20252	6129.929	
28.23366	6127.975	
28.30861	6117.525	
28.33973	6123.608	
28.41818	6107.722	
28.4502	6110.064	
28.52872	6092.2	
28.56	6094.531	
28.63674	6091.679	
28.66855	6083.352	
28.74642	6073.451	
28.77817	6087.298	
28.85559	6056.657	
28.88686	6059.929	
28.96555	6050.606	
28.99704	6048.041	
29.07593	6049.738	
29.10788	6049.499	
29.18362	6038.994	
29.21481	6036.175	
29.29361	6030.592	
29.32515	6017.279	
29.40343	6019.254	
29.43506	6022.593	
29.51197	6014.752	
29.54361	6002.354	
29.62243	6009.304	
29.6543	5998.431	
29.73149	5989.473	
29.76238	5995.078	
29.84085	5971.234	
29.87256	5983.091	
29.9502	5964.698	
29.98227	5964.617	
30.05931	5945.132	
30.09097	5947.048	
30.16768	5945.304	
30.19963	5933.034	
30.27793	5933.59	
30.30957	5932.866	
30.38692	5905.373	
30.41857	5934.136	
30.49753	5912.138	
30.52922	5920.338	
30.60682	5902.852	
30.63855	5907.634	
30.71693	5894.997	
30.74867	5895.448	
30.8267	5880.406	
30.85855	5880.67	
30.93632	5858.904	
30.96868	5868.396	
31.0442	5874.569	
31.07558	5855.621	
31.15466	5857.853	
31.18647	5849.536	
31.26389	5845.492	
31.29542	5846.021	
31.37285	5841.041	
31.40446	5838.186	
31.48192	5831.523	
31.51373	5830.033	
31.5903	5818.822	
31.62257	5802.593	
31.70175	5805.173	
31.73325	5807.32	
31.8115	5778.263	
31.84315	5799.293	
31.91972	5769.355	
31.95268	5780.864	
32.0295	5769.521	
32.06158	5766.366	
32.13903	5764.157	
32.17109	5761.783	
32.24774	5747.087	
32.28068	5755.82	
32.35772	5740.701	
32.38932	5739.11	
32.46818	5731.207	
32.49949	5743.852	
32.5778	5723.903	
32.60931	5724.095	
32.6861	5712.94	
32.71777	5704.198	
32.79566	5699.304	
32.82786	5693.949	
32.90558	5691.173	
32.93707	5683.085	
33.01547	5674.032	
33.04636	5674.041	
33.12321	5671.484	
33.15496	5658.255	
33.23534	5668.855	
33.26705	5658.131	
33.34455	5661.884	
33.37559	5649.278	
33.4531	5642.617	
33.48573	5635.405	
33.56203	5636.598	
33.59388	5631.021	
33.67213	5630.267	
33.70562	5616.755	
33.78021	5627.052	
33.81113	5612.06	
33.89038	5602.428	
33.92264	5589.38	
34.00169	5588.298	
34.03267	5583.208	
34.1091	5570.466	
34.14013	5571.197	
34.21831	5575.657	
34.25008	5572.61	
34.32938	5568.341	
34.36165	5551.721	
34.43818	5553.698	
34.47005	5548.953	
34.54787	5542.224	
34.57925	5542.995	
34.65776	5544.362	
34.68894	5538.844	
34.7666	5526.023	
34.79824	5517.372	
34.87506	5522.424	
34.90619	5509.387	
34.98483	5508.249	
35.01614	5508.148	
35.09247	5504.991	
35.12418	5491.365	
35.2039	5490.477	
35.23611	5481.588	
35.31246	5481.394	
35.34408	5481.246	
35.42323	5455.969	
35.45527	5471.479	
35.53313	5463.076	
35.56441	5449.021	
35.64138	5446.89	
35.67283	5438.945	
35.75108	5445.336	
35.78279	5430.294	
35.86001	5425.043	
35.89223	5422.558	
35.97134	5427.032	
36.00209	5408.438	
36.07894	5416.237	
36.1104	5404.069	
36.18856	5399.37	
36.2209	5385.067	
36.2995	5390.83	
36.33052	5375.361	
36.4072	5380.363	
36.43931	5362.049	
36.5169	5374.342	
36.54919	5370.3	
36.62744	5358.535	
36.65917	5360.965	
36.73602	5347.671	
36.76773	5341.948	
36.84565	5328.831	
36.8773	5341.411	
36.95509	5333.396	
36.98784	5334.539	
37.06364	5322.307	
37.09545	5319.186	
37.17566	5310.262	
37.2081	5302.799	
37.28559	5300.648	
37.31651	5285.066	
37.39329	5282.364	
37.42484	5277.141	
37.50245	5275.633	
37.53436	5261.795	
37.61195	5270.054	
37.64402	5257.24	
37.72243	5262.644	
37.75323	5261.302	
37.83197	5249.382	
37.86398	5246.521	
37.9397	5240.799	
37.9711	5243.863	
38.04948	5241.158	
38.08092	5240.212	
38.15879	5234.874	
38.19081	5226.005	
38.26963	5218.841	
38.30118	5209.366	
38.37837	5206.368	
38.40975	5194.612	
38.48764	5192.881	
38.51945	5198.546	
38.59752	5194.604	
38.62912	5185.926	
38.70723	5177.894	
38.73853	5180.686	
38.81425	5164.022	
38.84669	5171.882	
38.92481	5158.676	
38.95678	5153.922	
39.03395	5157.488	
39.06558	5150.12	
39.1452	5139.729	
39.17626	5126.283	
39.25269	5134.598	
39.28442	5122.189	
39.36296	5124.03	
39.39636	5117.482	
39.47276	5108.999	
39.50422	5107.864	
39.58423	5101.203	
39.61495	5095.887	
39.69091	5094.614	
39.72405	5098.147	
39.80169	5083.944	
39.83267	5077.926	
39.91126	5077.772	
39.94236	5062.51	
40.02028	5068.825	
40.05522	5050.218	
40.13439	5056.631	
40.16481	5059.92	
40.24208	5047.088	
40.27453	5033.273	
40.35199	5047.561	
40.38531	5029.74	
40.46318	5023.842	
40.49436	5013.358	
40.57115	5027.844	
40.60309	5011.818	
40.68072	5014.587	
40.71263	5002.665	
40.79006	5007.2	
40.82187	5006.13	
40.90084	4996.512	
40.93218	4984.622	
41.00916	4981.779	
41.04123	4968.837	
41.11969	4977.1	
41.15055	4954.039	
41.22676	4962.686	
41.25797	4954.781	
41.33833	4938.812	
41.36987	4937.741	
41.44706	4942.48	
41.47809	4929.206	
41.55511	4934.065	
41.58714	4932.971	
41.66574	4935.084	
41.69687	4910.499	
41.77623	4920.961	
41.80814	4906.84	
41.88564	4913.479	
41.9166	4898.386	
41.994	4904.944	
42.02541	4891.7	
42.10374	4896.717	
42.13511	4889.864	
42.215	4885.604	
42.2466	4881.318	
42.32285	4877.961	
42.35548	4867.707	
42.43197	4873.325	
42.46384	4852.561	
42.54304	4860.697	
42.57499	4843.767	
42.65239	4838.335	
42.6834	4843.287	
42.7604	4829.334	
42.79195	4831.371	
42.87167	4826.036	
42.90263	4818.659	
42.98163	4828.174	
43.01309	4835.831	
43.08954	4804.122	
43.12109	4799.059	
43.19878	4802.651	
43.2308	4790.22	
43.30832	4783.125	
43.34027	4782.354	
43.41765	4787.924	
43.44909	4770.295	
43.52629	4778.784	
43.55841	4760.123	
43.63727	4760.392	
43.66952	4756.958	
43.74642	4745.87	
43.77769	4738.951	
43.85479	4745.229	
43.88636	4743.104	
43.96424	4744.734	
43.99615	4731.221	
44.07524	4722.95	
44.10626	4718.978	
44.18395	4714.93	
44.21557	4701.409	
44.29204	4708.203	
44.32401	4703.113	
44.40157	4689.771	
44.43325	4701.337	
44.5115	4692.802	
44.544	4687.826	
44.62046	4695.336	
44.65086	4686.683	
44.72999	4682.163	
44.76226	4668.389	
44.84046	4672.87	
44.87213	4662.705	
44.95155	4649.418	
44.98201	4643.299	
45.05876	4641.93	
45.09005	4638.57	
45.16743	4643.431	
45.19914	4625.053	
45.27641	4627.718	
45.30828	4619.79	
45.38701	4630.757	
45.41858	4609.132	
45.49652	4616.317	
45.52797	4617.628	
45.60546	4611.719	
45.63713	4599.726	
45.715	4605.939	
45.74646	4586.294	
45.82567	4596.684	
45.8575	4585.786	
45.93497	4580.701	
45.96666	4573.423	
46.04465	4576.587	
46.07638	4550.675	
46.15483	4569.002	
46.18576	4557.377	
46.26357	4554.689	
46.29509	4549.5	
46.3722	4549.846	
46.40401	4545.759	
46.483	4528.334	
46.515	4537.743	
46.59151	4536.118	
46.62308	4529.119	
46.70139	4540.367	
46.73335	4510.508	
46.81161	4518.789	
46.84173	4508.422	
46.91871	4504.194	
46.95066	4486.467	
47.03004	4484.336	
47.06186	4490.536	
47.14025	4486.592	
47.17181	4477.921	
47.24836	4475.195	
47.27954	4469.412	
47.35859	4466.777	
47.39058	4454.021	
47.46805	4455.152	
47.49925	4453.261	
47.57776	4445.438	
47.60943	4437.063	
47.68661	4450.375	
47.71778	4429.571	
47.79494	4427.757	
47.82667	4419.187	
47.90521	4426.397	
47.9372	4423.304	
48.0171	4409.914	
48.05035	4400.237	
48.12462	4409.784	
48.15599	4388.157	
48.23502	4398.237	
48.26613	4393.83	
48.34315	4391.608	
48.37523	4379.161	
48.45373	4383.975	
48.48517	4371.911	
48.5631	4365.549	
48.59736	4363.523	
48.67654	4350.931	
48.70853	4339.296	
48.78693	4348.493	
48.81736	4346.703	
48.89498	4343.753	
48.9267	4336.42	
49.00451	4329.817	
49.03759	4337.552	
49.113	4321.533	
49.14463	4312.462	
49.22396	4323.251	
49.25547	4317.649	
49.33231	4323.797	
49.36339	4305.315	
49.44234	4303.701	
49.47351	4295.832	
49.55218	4295.775	
49.58553	4284.871	
49.66037	4290.114	
49.69185	4283.998	
49.77118	4286.301	
49.80293	4272.064	
49.8821	4275.205	
49.91267	4260.158	
49.988	4275.886	
50.02186	4246.818	
50.09931	4255.726	
50.13206	4235.567	
50.20806	4254.28	
50.23922	4251.327	
50.31667	4242.275	
50.3494	4235.641	
50.42632	4233.551	
50.45724	4224.654	
50.53499	4231.149	
50.56717	4215.027	
50.64717	4216.013	
50.68052	4207.543	
50.75796	4215.829	
50.78997	4201.644	
50.86857	4200.506	
50.90009	4199.244	
50.97855	4184.861	
51.01016	4181.565	
51.08688	4191.843	
51.11926	4167.497	
51.19791	4180.183	
51.2296	4164.741	
51.30628	4163.954	
51.33775	4158.172	
51.41572	4153.372	
51.44703	4141.087	
51.52516	4145.87	
51.558	4133.499	
51.63491	4136.17	
51.66713	4130.995	
51.74241	4135.408	
51.7734	4123.281	
51.85398	4120.198	
51.88604	4108.98	
51.96304	4116.949	
51.99468	4109.462	
52.07307	4107.544	
52.10627	4103.701	
52.1825	4100.085	
52.21397	4090.599	
52.29107	4099.355	
52.32478	4081.04	
52.39954	4084.069	
52.43045	4077.003	
52.50758	4074.672	
52.53967	4067.234	
52.62036	4064.681	
52.65146	4056.74	
52.72715	4054.336	
52.7584	4046.737	
52.83699	4049.692	
52.86933	4043.322	
52.94845	4032.732	
52.97968	4029.184	
53.05614	4042.477	
53.08778	4024.025	
53.16757	4035.988	
53.19855	4028.527	
53.27687	4021.751	
53.30853	4010.781	
53.38489	4012.561	
53.41691	4001.953	
53.49489	4005.496	
53.52661	3990.824	
53.60456	3999.246	
53.63551	3988.667	
53.71191	3992.566	
53.74701	3979.654	
53.82312	3972.206	
53.85542	3971.379	
53.93369	3977.391	
53.96486	3964.806	
54.04409	3970.841	
54.07563	3945.378	
54.15187	3960.025	
54.18382	3948.469	
54.26151	3945.892	
54.29346	3942.834	
54.37151	3951.453	
54.40238	3938.531	
54.48099	3938.001	
54.5129	3932.654	
54.59082	3931.301	
54.6222	3910.957	
54.70035	3919.709	
54.73211	3910.781	
54.80976	3906.284	
54.84121	3904.259	
54.91808	3893.587	
54.95029	3893.409	
55.02878	3895.829	
55.0602	3875.413	
55.13731	3894.535	
55.1687	3872.365	
55.2492	3881.805	
55.28099	3869.76	
55.35854	3863.706	
55.38901	3862.243	
55.46681	3867.029	
55.49867	3862.053	
55.57573	3862.481	
55.60789	3839.835	
55.68581	3849.038	
55.71773	3837.775	
55.79741	3836.937	
55.82851	3827.743	
55.90486	3822.295	
55.93653	3818.676	
56.01521	3821.415	
56.04677	3802.555	
56.1245	3814.901	
56.15593	3806.741	
56.23386	3809.305	
56.26588	3796.601	
56.34432	3806.055	
56.37507	3795.488	
56.45264	3796.131	
56.48478	3779.939	
56.56485	3791.558	
56.59581	3776.13	
56.67181	3774.983	
56.70381	3761.311	
56.78149	3767.089	
56.81462	3745.292	
56.89366	3757.342	
56.9255	3746.786	
57.00267	3757.367	
57.03418	3743.54	
57.11166	3744.719	
57.14284	3732.476	
57.22229	3734.584	
57.25546	3730.412	
57.32988	3735	
57.36147	3728.897	
57.44049	3726.625	
57.47164	3711.75	
57.5479	3714.574	
57.57978	3702.241	
57.65791	3717.194	
57.69049	3702.321	
57.76912	3703.563	
57.80137	3705.339	
57.8784	3705.484	
57.91219	3676.76	
57.99028	3692.634	
58.02496	3679.135	
58.10455	3694.465	
58.13702	3672.484	
58.21343	3667.336	
58.24877	3666.266	
58.328	3668.92	
58.35968	3666.55	
58.43678	3654.972	
58.47222	3652.115	
58.54935	3641.542	
58.58253	3644.444	
58.65974	3647.755	
58.69275	3639.41	
58.76951	3633.774	
58.80239	3612.978	
58.8786	3630.938	
58.91031	3611.774	
58.98743	3623.218	
59.01942	3610.964	
59.09784	3618.602	
59.12874	3605.029	
59.20787	3601.92	
59.24032	3593.684	
59.31878	3597.743	
59.34933	3592.49	
59.429	3602.51	
59.45997	3574.198	
59.5379	3586.461	
59.57072	3582.297	
59.6513	3585.556	
59.68163	3567.418	
59.76277	3573.908	
59.7949	3552.583	
59.87468	3567.502	
59.90572	3552.036	
59.98528	3554.481	
60.01757	3537.823	
60.09788	3547.662	
60.12945	3532.96	
60.20901	3546.616	
60.24023	3539.512	
60.31874	3538.171	
60.35033	3527.144	
60.43127	3535.779	
60.46298	3521.605	
60.54528	3525.321	
60.57747	3513.955	
60.65443	3510.589	
60.68516	3496.622	
60.76566	3513.665	
60.79754	3485.813	
60.87914	3504.172	
60.91129	3487.378	
60.9895	3491.463	
61.02177	3480.319	
61.10528	3484.924	
61.1364	3483.135	
61.2166	3490.291	
61.2486	3474.553	
61.32737	3479.568	
61.35848	3467.771	
61.4392	3473.225	
61.47094	3469.801	
61.54989	3453.833	
61.5815	3453.326	
61.66005	3461.467	
61.69191	3441.136	
61.76865	3439.379	
61.79996	3436.375	
61.87916	3445.726	
61.91167	3422.974	
61.9883	3441.074	
62.02227	3422.641	
62.09857	3433.907	
62.12986	3415.162	
62.20667	3427.348	
62.23941	3421.657	
62.31732	3420.496	
62.34917	3411.279	
62.42642	3412.729	
62.4575	3411.424	
62.53624	3412.103	
62.56669	3404.929	
62.64557	3397.633	
62.67798	3400.952	
62.75446	3408.631	
62.78562	3392.633	
62.86434	3393.352	
62.89608	3382.943	
62.97345	3389.737	
63.00732	3380.046	
63.08303	3378.932	
63.11436	3369.97	
63.19299	3373.35	
63.22463	3361.732	
63.30537	3375.594	
63.33951	3360.59	
63.41531	3364.361	
63.44753	3352.195	
63.52559	3359.645	
63.56004	3350.662	
63.63849	3356.9	
63.66985	3338.936	
63.74856	3355.407	
63.78005	3345.498	
63.85841	3341.586	
63.89057	3337.204	
63.96684	3346.564	
63.99855	3337	
64.07623	3338.326	
64.10821	3330.836	
64.18758	3338.362	
64.21896	3324.541	
64.2967	3337.82	
64.32774	3320.34	
64.40537	3332.667	
64.43709	3320.986	
64.51468	3318.273	
64.54638	3321.976	
64.62347	3325.819	
64.65719	3304.17	
64.73526	3325.724	
64.76593	3306.265	
64.84378	3310.835	
64.87608	3299.136	
64.95791	3314.365	
64.98956	3304.834	
65.06645	3325.898	
65.09811	3306.599	
65.17648	3314.699	
65.20858	3305.177	
65.28667	3305.565	
65.31804	3306.074	
65.39529	3310.272	
65.42693	3306.242	
65.50449	3313.829	
65.53615	3303.908	
65.61539	3321.667	
65.64675	3312.432	
65.72359	3325.498	
65.75877	3311.1	
65.83817	3310.758	
65.8695	3310.138	
65.94777	3321.838	
65.97946	3308.708	
66.05852	3332.136	
66.09035	3317.086	
66.16627	3337.567	
66.19732	3316.402	
66.27438	3340.101	
66.30681	3328.422	
66.38759	3345.222	
66.4185	3332.08	
66.49493	3351.709	
66.52603	3337.879	
66.60322	3362.315	
66.63555	3353.002	
66.7152	3362.919	
66.74669	3348.65	
66.82434	3372.867	
66.85618	3373.795	
66.93274	3377.806	
66.96519	3366.252	
67.04578	3384.355	
67.0764	3394.794	
67.15282	3399.836	
67.18462	3398.314	
67.26265	3422.463	
67.29436	3403.997	
67.37263	3428.959	
67.4042	3428.212	
67.48241	3445.109	
67.51408	3449.068	
67.59258	3461.317	
67.62334	3454.033	
67.7013	3483.529	
67.73344	3480.081	
67.8111	3497.825	
67.84308	3494.578	
67.91971	3526.353	
67.95076	3516.074	
68.03015	3539.943	
68.06226	3535.885	
68.13976	3559.565	
68.17046	3565.737	
68.249	3595.777	
68.28101	3579.358	
68.35786	3623.509	
68.38978	3617.739	
68.46724	3662.063	
68.49859	3646.504	
68.57695	3682.549	
68.60878	3681.398	
68.68905	3720.965	
68.72124	3720.323	
68.80073	3762.817	
68.83181	3759.111	
68.91062	3789.22	
68.94229	3786.275	
69.02095	3828.218	
69.05342	3829.744	
69.12843	3876.017	
69.16157	3883.243	
69.23685	3922.796	
69.26943	3927.566	
69.34619	3971.381	
69.3782	3972.813	
69.45813	4028.724	
69.48887	4024.907	
69.56647	4081.311	
69.60032	4075.39	
69.67462	4130.563	
69.70629	4132.751	
69.7868	4203.517	
69.81861	4196.43	
69.89625	4255.213	
69.92799	4271.132	
70.00456	4320.973	
70.03664	4338.038	
70.11395	4404.548	
70.14455	4400.15	
70.22307	4473.845	
70.25634	4480.681	
70.33402	4556.238	
70.3656	4561.444	
70.44569	4643.083	
70.47778	4657.128	
70.55671	4732.505	
70.58835	4737.041	
70.66707	4818.402	
70.69866	4836.481	
70.77518	4915.441	
70.80622	4927.905	
70.88389	5001.367	
70.91637	5020.529	
70.99541	5105.265	
71.0267	5111.917	
71.10549	5199.013	
71.13769	5191.681	
71.21394	5286.217	
71.2473	5279.515	
71.32534	5362.213	
71.35709	5379.216	
71.43658	5457.735	
71.4679	5458.13	
71.5461	5534.988	
71.5814	5559.658	
71.66066	5638.767	
71.6923	5658.974	
71.76988	5728.776	
71.80137	5752.603	
71.87962	5837.808	
71.91401	5860.829	
71.99068	5942.066	
72.02312	5940.346	
72.10237	6017.969	
72.1333	6035.364	
72.21091	6113.172	
72.2457	6121.117	
72.32095	6190.444	
72.35173	6182.857	
72.43135	6277.542	
72.46255	6262.882	
72.53976	6342.675	
72.57472	6329.41	
72.65663	6413.964	
72.68793	6392.088	
72.76286	6464.329	
72.79351	6455.433	
72.87302	6526.531	
72.90615	6516.487	
72.9822	6578.773	
73.0142	6551.474	
73.08988	6608.519	
73.12157	6611.121	
73.20354	6660.066	
73.23484	6629.385	
73.30947	6693.492	
73.34166	6671.336	
73.42005	6720.664	
73.45166	6702.632	
73.52982	6738.683	
73.56612	6721.269	
73.64312	6793.385	
73.6753	6776.832	
73.75455	6817.577	
73.78707	6783.687	
73.86245	6839.406	
73.89438	6804.086	
73.97192	6847.813	
74.00415	6844.822	
74.0827	6867.335	
74.11402	6842.821	
74.19275	6900.031	
74.22384	6850.603	
74.30011	6888.91	
74.33179	6882.826	
74.41275	6910.93	
74.44855	6879.059	
74.52465	6936.34	
74.55582	6899.188	
74.63294	6949.457	
74.66606	6923.444	
74.74374	6947.205	
74.77517	6931.4	
74.8545	6959.368	
74.88595	6956.959	
74.96323	6969.624	
74.99402	6943.827	
75.0731	6988.409	
75.10578	6977.006	
75.18391	7000.605	
75.21486	6973.04	
75.29353	6997.908	
75.32545	6970.91	
75.40625	7021.646	
75.43835	6988.12	
75.51637	7024.748	
75.54792	6999.452	
75.62639	7036.484	
75.65728	7005.848	
75.73502	7039.219	
75.76612	7011.869	
75.84783	7056.344	
75.87991	7007.981	
75.95612	7045.037	
75.98754	7008.643	
76.06913	7054.567	
76.10125	7027.454	
76.17925	7067.791	
76.21122	7015.548	
76.29337	7075.421	
76.32526	7028.384	
76.40291	7070.625	
76.43472	7027.958	
76.51633	7067.278	
76.54858	7035.304	
76.62454	7069.384	
76.65578	7048.309	
76.73567	7084.8	
76.76653	7064.983	
76.84364	7074.025	
76.87872	7038.501	
76.9573	7069.994	
76.98905	7048.256	
77.06728	7088.876	
77.1011	7031.562	
77.17644	7067.029	
77.20731	7039.046	
77.288	7066.438	
77.32341	7047.189	
77.39994	7071.07	
77.43257	7050.618	
77.50951	7070.427	
77.54255	7044.251	
77.61823	7082.519	
77.65011	7044.868	
77.72829	7064.381	
77.76283	7033.92	
77.84375	7078.184	
77.87481	7031.313	
77.95165	7072.885	
77.9866	7030.673	
78.06451	7064.532	
78.09682	7033.967	
78.17524	7063.09	
78.20975	7032.066	
78.28669	7061.813	
78.31867	7030.056	
78.39836	7065.184	
78.43049	7023.49	
78.50999	7075.237	
78.54014	7028.557	
78.61696	7043.153	
78.64776	7024.612	
78.72839	7072.312	
78.76058	7017.974	
78.84016	7047.098	
78.87133	7020.927	
78.95349	7041.5	
78.98562	6995.974	
79.06227	7052.077	
79.0938	7019.766	
79.17449	7046.213	
79.20705	7006.358	
79.28594	7036.248	
79.31775	7003.312	
79.3983	7045.246	
79.43152	6978.383	
79.50891	7029.505	
79.54079	6979.667	
79.62299	7043.248	
79.65456	6974.856	
79.73074	7013.98	
79.76233	6967.576	
79.84517	7012.389	
79.87699	6966.516	
79.95409	7011.733	
79.98593	6978.098	
80.06433	7016.384	
80.0999	6964.606	
80.17793	6994.147	
80.20935	6967.654	
80.28963	6982.112	
80.32172	6962.065	
80.40247	7008.191	
80.43375	6975.551	
80.5098	6994.954	
80.54145	6952.052	
80.62104	6996.112	
80.65694	6953.149	
80.73446	7011.07	
80.7656	6957.449	
80.84315	6997.293	
80.87431	6953.305	
80.95494	6983.388	
80.98647	6966.873	
81.0665	6984.324	
81.09868	6949.386	
81.17556	6967.347	
81.21057	6935.622	
81.28802	6982.622	
81.31959	6955.256	
81.39642	6983.139	
81.42817	6933.819	
81.51292	6995.106	
81.54462	6943.907	
81.62172	6984.108	
81.65397	6941.241	
81.73151	6987.416	
81.76243	6918.605	
81.84341	6990.336	
81.87568	6938.069	
81.95209	6968.441	
81.98484	6916.961	
82.06377	6983.324	
82.09489	6950.527	
82.17648	6981.932	
82.20777	6927.964	
82.28632	6956.303	
82.31811	6933.777	
82.39576	6974.631	
82.43053	6926.518	
82.50777	6967.943	
82.54063	6930.598	
82.61969	6972.529	
82.64984	6926.72	
82.72904	6983.729	
82.76323	6918.177	
82.84169	6965.719	
82.87379	6910.636	
82.95004	6964.045	
82.98161	6923.359	
83.06264	6952.572	
83.09421	6922.797	
83.17236	6969.886	
83.20413	6914.44	
83.28429	6959.112	
83.31933	6926.81	
83.39584	6960.729	
83.42817	6919.445	
83.50622	6954.347	
83.53901	6911.999	
83.61481	6948.093	
83.64536	6903.795	
83.72426	6943.702	
83.75678	6911.769	
83.83566	6947.875	
83.8671	6901.274	
83.94668	6942.335	
83.97875	6908.256	
84.05718	6949.357	
84.08854	6901.688	
84.16712	6941.392	
84.20294	6888.134	
84.28251	6932.966	
84.31282	6898.273	
84.38998	6916.118	
84.42194	6876.612	
84.50444	6923.89	
84.53657	6885.611	
84.61257	6913.795	
84.64452	6871.586	
84.72209	6897.983	
84.757	6868.917	
84.83578	6891.727	
84.86743	6864.977	
84.94527	6899.768	
84.97652	6851.27	
85.05491	6904.233	
85.08675	6839.579	
85.1646	6883.4	
85.19676	6834.924	
85.27449	6863.447	
85.30505	6826.608	
85.38315	6861.901	
85.41521	6810.508	
85.49372	6846.292	
85.52519	6795.8	
85.60275	6845.85	
85.63504	6789.871	
85.71161	6829.154	
85.74281	6778.809	
85.82194	6805.378	
85.85319	6776.466	
85.93225	6796.835	
85.96416	6746.746	
86.04218	6784.032	
86.07478	6753.381	
86.15194	6775.977	
86.18279	6738.669	
86.26099	6762.819	
86.29222	6726.896	
86.37053	6743.195	
86.40196	6711.054	
86.47922	6749.139	
86.51154	6696.509	
86.58987	6727.359	
86.62148	6672.263	
86.69968	6699.876	
86.73119	6661.533	
86.81004	6704.15	
86.84199	6648.502	
86.91933	6691.542	
86.95089	6629.932	
87.02866	6679.476	
87.0597	6631.395	
87.13913	6651.744	
87.17084	6606.218	
87.248	6648.404	
87.27907	6590.909	
87.35755	6640.97	
87.38947	6591.16	
87.46722	6609.951	
87.49883	6564.359	
87.5778	6611.732	
87.60973	6547.911	
87.68639	6589.748	
87.71758	6527.568	
87.7941	6577.688	
87.82542	6530.63	
87.90475	6561.271	
87.93716	6509.738	
88.01399	6556.311	
88.04531	6510.371	
88.12415	6510.51	
88.15553	6486.756	
88.23241	6495.758	
88.26386	6451.929	
88.34203	6489.468	
88.37636	6440.712	
88.45318	6473	
88.48686	6434.14	
88.56257	6463.25	
88.5939	6419.42	
88.673	6432.619	
88.70459	6406.146	
88.7815	6421.843	
88.81297	6386.583	
88.89124	6423.234	
88.92524	6365.816	
89.00217	6377.643	
89.03437	6331.108	
89.11067	6357.172	
89.1405	6323.981	
89.22005	6354.186	
89.25248	6307.973	
89.33116	6353.075	
89.36317	6296.373	
89.44029	6344.015	
89.47139	6292.782	
89.54874	6310.329	
89.58061	6262.232	
89.65907	6314.479	
89.69006	6249.502	
89.76752	6288.969	
89.79977	6220.168	
89.87881	6269.971	
89.90985	6221.835	
89.98692	6244.392	
90.01807	6199.679	
90.0963	6243.087	
90.12778	6200.624	
90.20455	6227.201	
90.23691	6159.497	
90.31906	6205.114	
90.35005	6146.159	
90.42287	6206.318	
90.45447	6143.551	
90.53559	6159.823	
90.56757	6114.49	
90.64563	6152.055	
90.67722	6111.67	
90.75315	6141.542	
90.78569	6096.578	
90.86375	6131.69	
90.89572	6079.098	
90.97472	6118.961	
91.00703	6060.463	
91.08282	6100.162	
91.11423	6044.23	
91.19243	6090.731	
91.22337	6044.191	
91.30174	6071.369	
91.33329	6005.703	
91.41023	6049.373	
91.44193	5994.176	
91.52052	6034.201	
91.55363	5988.599	
91.63011	6022.826	
91.66201	5968.952	
91.74049	5985.99	
91.77339	5944.071	
91.85166	5986.862	
91.88242	5941.208	
91.95879	5978.637	
91.99035	5906.145	
92.06815	5948.151	
92.09976	5902.2	
92.17995	5933.019	
92.21184	5885.111	
92.28742	5917.894	
92.31878	5865.14	
92.39876	5910.138	
92.43028	5861.662	
92.50887	5893.817	
92.54078	5838.175	
92.6165	5868.4	
92.6478	5830.898	
92.72784	5858.13	
92.75941	5803.784	
92.83555	5854.262	
92.86722	5788.995	
92.94509	5836.54	
92.9765	5783.43	
93.05655	5815.716	
93.08829	5761.234	
93.16549	5786.477	
93.19717	5746.183	
93.27472	5769.426	
93.30677	5734.516	
93.3848	5760.387	
93.41618	5723.782	
93.49306	5754.364	
93.52451	5709.53	
93.60494	5733.79	
93.63651	5683.264	
93.71384	5714.8	
93.74606	5669.825	
93.82365	5712.47	
93.85475	5663.713	
93.93015	5706.098	
93.96145	5639.089	
94.03935	5681.126	
94.07009	5627.247	
94.1423	5678.944	
94.17146	5603.149	
94.24327	5654.221	
94.27229	5600.821	
94.34097	5638.34	
94.36784	5580.263	
94.43397	5621.902	
94.45955	5567.023	
94.52191	5608.653	
94.5461	5561.709	
94.60359	5600.128	
94.6259	5544.788	
94.67738	5575.908	
94.69772	5542.917	
94.74695	5585.375	
94.76561	5550.179	
94.8086	5569.825	
94.82476	5531.488	
94.86204	5583.395	
94.87585	5526.031	
94.9073	5557.062	
94.91919	5511.105	
94.94404	5555.114	
94.95251	5509.117	
94.97031	5522.968	
94.97853	5493.771	
94.99193	5523.853	
