T[Â°C]	330nm [counts / mm]	S.D.
20.0008	3344.11	
20.001	3354.994	
20.0078	3355.753	
20.00834	3350.016	
20.02061	3349.542	
20.02195	3354.213	
20.04863	3344.048	
20.05041	3347.556	
20.08459	3348.739	
20.08696	3335.329	
20.12776	3339.126	
20.13056	3336.633	
20.17821	3342.525	
20.18145	3340.606	
20.238	3337.501	
20.24147	3331.955	
20.30539	3323.578	
20.30943	3338.328	
20.38002	3321.069	
20.38461	3328.182	
20.45823	3319.645	
20.46458	3324.31	
20.54378	3328.828	
20.54896	3310.253	
20.63464	3319.073	
20.64041	3309.243	
20.73085	3315.522	
20.73671	3312.196	
20.8322	3314.727	
20.83781	3303.237	
20.93788	3301.529	
20.94388	3297.448	
21.04154	3299.28	
21.04765	3299.907	
21.14954	3302.138	
21.1557	3294.031	
21.26102	3287.163	
21.26704	3281.828	
21.36979	3289.385	
21.37674	3286.562	
21.47992	3296.904	
21.48613	3283.759	
21.58982	3279.928	
21.59764	3281.402	
21.69991	3261.677	
21.70602	3271.437	
21.80735	3261.609	
21.81424	3245.644	
21.91625	3256.976	
21.92292	3251.981	
22.02752	3246.092	
22.03381	3257.48	
22.13627	3240.643	
22.14253	3242.902	
22.24628	3245.527	
22.25235	3243.269	
22.35764	3237.369	
22.36404	3237.527	
22.46738	3234.843	
22.47392	3233.078	
22.57495	3231.967	
22.58128	3226.025	
22.68413	3217.557	
22.69057	3216.558	
22.79331	3211.115	
22.80049	3218.95	
22.903	3218.119	
22.90964	3211.852	
23.01427	3201.958	
23.02052	3201.574	
23.12444	3196.326	
23.13075	3198.181	
23.23256	3191.589	
23.24029	3199.129	
23.34058	3191.729	
23.34685	3189.517	
23.45166	3174.347	
23.45788	3180.46	
23.56017	3182.953	
23.56661	3182.11	
23.66867	3183.312	
23.67496	3178.771	
23.78057	3178.805	
23.78689	3169.219	
23.88857	3167.732	
23.89525	3174.234	
23.99899	3165.885	
24.0062	3164.338	
24.10973	3158.73	
24.11587	3165.056	
24.21728	3158.97	
24.22414	3155.916	
24.32767	3150.533	
24.33356	3147.92	
24.43665	3142.873	
24.4448	3145.018	
24.54546	3143.761	
24.55215	3138.323	
24.65658	3139.77	
24.66286	3127.098	
24.76653	3133.622	
24.77263	3130.598	
24.87591	3116.288	
24.88213	3134.943	
24.98663	3123.288	
24.99285	3123.745	
25.09378	3116.387	
25.10035	3110.773	
25.20275	3107.096	
25.20912	3107.976	
25.31368	3103.014	
25.31997	3101.748	
25.42401	3100.568	
25.4303	3089.757	
25.53339	3097.714	
25.53967	3098.394	
25.64287	3099.637	
25.64896	3095.168	
25.75202	3082.691	
25.75843	3078.125	
25.85981	3082.483	
25.86595	3076.327	
25.97245	3078.886	
25.97877	3074.773	
26.07988	3078.906	
26.08654	3066.989	
26.18819	3056.063	
26.19465	3059.702	
26.29974	3061.803	
26.30643	3055.535	
26.40703	3056.057	
26.413	3040.91	
26.51674	3046.92	
26.52556	3048.232	
26.6262	3040.875	
26.63255	3040.34	
26.738	3035.577	
26.74404	3035.179	
26.84416	3035.631	
26.85066	3029.479	
26.95524	3028.109	
26.96283	3029.071	
27.06576	3027.351	
27.07218	3029.134	
27.17242	3022.579	
27.17886	3027.479	
27.28589	3018.006	
27.29277	3017.607	
27.39372	3012.524	
27.40275	3011.44	
27.50377	3018.133	
27.51014	3007.385	
27.61245	2999.767	
27.61907	3007.379	
27.72242	2998.384	
27.72935	2993.29	
27.83033	3003.684	
27.83649	2990.132	
27.94142	2992.705	
27.94763	2996.8	
28.05005	2986.651	
28.05671	2993.609	
28.15932	2982.065	
28.16603	2984.943	
28.26991	2976.551	
28.27632	2975.456	
28.37634	2969.342	
28.38272	2979.344	
28.4883	2968.945	
28.49466	2972.597	
28.59677	2955.879	
28.60332	2960.095	
28.70567	2959.319	
28.71178	2956.049	
28.81653	2947.733	
28.82289	2948.877	
28.9255	2939.035	
28.93192	2943.911	
29.03625	2936.73	
29.04296	2945.7	
29.14585	2937.052	
29.15198	2939.826	
29.25317	2939.792	
29.25948	2931.778	
29.36277	2931.954	
29.37119	2918.747	
29.47413	2924.847	
29.48057	2931.679	
29.58143	2919.479	
29.5879	2913.327	
29.69104	2917.739	
29.69714	2919.762	
29.80087	2911.085	
29.80697	2907.793	
29.91421	2892.435	
29.92078	2896.791	
30.01956	2901.383	
30.02558	2886.334	
30.12843	2890.892	
30.13461	2881.93	
30.23812	2891.099	
30.24439	2893.469	
30.34854	2890.168	
30.35516	2894.191	
30.45775	2885.76	
30.46413	2881.48	
30.56739	2877.775	
30.57331	2874.787	
30.67684	2863.562	
30.68318	2870.338	
30.78498	2865.151	
30.79251	2866.811	
30.89461	2861.143	
30.90095	2861.986	
31.00399	2854.18	
31.0102	2854.114	
31.11518	2856.997	
31.12393	2854.076	
31.2232	2859	
31.2295	2852.986	
31.33248	2850.265	
31.33921	2857.492	
31.44402	2837.604	
31.45135	2842.146	
31.55169	2828.111	
31.5581	2831.551	
31.66167	2834.901	
31.66819	2831.133	
31.7705	2828.945	
31.77984	2825.057	
31.88139	2815.89	
31.88779	2820.216	
31.99162	2812.872	
31.99817	2809.424	
32.09966	2810.894	
32.10591	2802.666	
32.21027	2804.884	
32.21783	2811.4	
32.3187	2802.161	
32.32536	2800.826	
32.42997	2799.998	
32.43599	2793.476	
32.5371	2795.345	
32.54587	2794.499	
32.6476	2784.551	
32.65388	2786.145	
32.75632	2787.182	
32.76279	2784.78	
32.86715	2787.195	
32.87355	2786.637	
32.97748	2769.042	
32.9836	2774.742	
33.08547	2768.325	
33.09183	2768.414	
33.19574	2768.226	
33.202	2757.604	
33.30472	2760.023	
33.31121	2763.113	
33.41337	2759.132	
33.41948	2757.988	
33.52179	2756.268	
33.52837	2757.678	
33.63301	2747.06	
33.63983	2750.579	
33.74235	2740.005	
33.74888	2744.571	
33.85226	2741.556	
33.85873	2741.916	
33.96154	2739.698	
33.96758	2741.837	
34.07137	2727.766	
34.07798	2724.553	
34.18095	2728.528	
34.18721	2726.015	
34.28846	2729.058	
34.29506	2716.438	
34.40142	2721.894	
34.40743	2731.333	
34.50886	2719.669	
34.51538	2717.713	
34.61716	2708.616	
34.62317	2704.613	
34.72736	2704.624	
34.73406	2700.258	
34.83788	2703.672	
34.84509	2699.247	
34.94551	2702.299	
34.95189	2700.242	
35.05677	2686.416	
35.06331	2686.271	
35.16658	2694.996	
35.17341	2686.528	
35.2737	2678.002	
35.28019	2687.95	
35.38492	2677.832	
35.39103	2678.496	
35.4931	2680.14	
35.49937	2671.853	
35.60196	2673.314	
35.60859	2671.389	
35.71255	2667.77	
35.71899	2668.385	
35.82247	2661.111	
35.8287	2661.67	
35.9304	2655.449	
35.93689	2653.81	
36.03987	2654.666	
36.04892	2658.472	
36.15016	2653.008	
36.15649	2641.822	
36.2589	2643.46	
36.26555	2649.246	
36.36952	2641.565	
36.3757	2635.379	
36.47911	2630.767	
36.48536	2631.713	
36.58712	2630.016	
36.59526	2618.233	
36.69686	2624.171	
36.70312	2611.859	
36.80532	2621.45	
36.81171	2626.231	
36.9157	2617.586	
36.92195	2619.872	
37.02566	2608.005	
37.03246	2606.477	
37.13558	2607.557	
37.14354	2614.649	
37.24456	2605.053	
37.25103	2601.016	
37.35445	2592.899	
37.36129	2604.879	
37.46401	2593.304	
37.47203	2586.162	
37.57263	2592.794	
37.57854	2587.785	
37.6822	2585.621	
37.68852	2580.499	
37.79155	2586.771	
37.79788	2579.011	
37.90327	2584.374	
37.91005	2585.693	
38.01178	2574.24	
38.01822	2570.935	
38.12022	2564.511	
38.12625	2582.943	
38.22813	2569.58	
38.23423	2571.403	
38.33882	2555.131	
38.34542	2561.612	
38.44899	2560.234	
38.45663	2545.975	
38.5575	2552.234	
38.56405	2547.537	
38.66564	2539.535	
38.67472	2548.785	
38.77655	2538.995	
38.78301	2542.422	
38.8869	2538.432	
38.89325	2539.92	
38.99433	2532.403	
39.00058	2538.371	
39.10539	2530.313	
39.11264	2530.823	
39.21333	2525.731	
39.21955	2522.654	
39.3226	2524.565	
39.32886	2529.589	
39.43316	2520.894	
39.43974	2508.953	
39.54205	2518.814	
39.54802	2513.635	
39.65081	2507.332	
39.6596	2507.344	
39.76187	2504.343	
39.76942	2496.074	
39.86918	2500.138	
39.87764	2497.824	
39.98033	2495.339	
39.9867	2496.704	
40.09103	2496.846	
40.09757	2492.586	
40.19643	2484.389	
40.20257	2491.521	
40.3079	2478.448	
40.31544	2486.036	
40.41879	2478.885	
40.42519	2482.279	
40.52671	2477.426	
40.53308	2475.014	
40.63742	2474.431	
40.64369	2474.342	
40.748	2469.564	
40.75422	2462.37	
40.85458	2471.406	
40.86214	2463.818	
40.96585	2465.288	
40.9722	2463.356	
41.077	2458.219	
41.08336	2459.512	
41.18437	2451.398	
41.19034	2454.892	
41.29268	2455.473	
41.30205	2450.409	
41.40179	2448.761	
41.40808	2445.49	
41.51209	2437.07	
41.51846	2444.723	
41.62188	2434.722	
41.62802	2431.992	
41.73347	2427.741	
41.74217	2421.344	
41.84542	2425.418	
41.85192	2422.005	
41.95247	2422.854	
41.95881	2424.685	
42.06102	2414.555	
42.06704	2420.699	
42.17325	2411.353	
42.17957	2415.424	
42.28285	2418.821	
42.28877	2405.084	
42.39124	2406.764	
42.39766	2410.371	
42.50149	2394.655	
42.50797	2400.344	
42.60936	2400.164	
42.61572	2402.697	
42.71949	2394.648	
42.72849	2389.618	
42.82858	2392.528	
42.83482	2389.79	
42.93812	2383.87	
42.94446	2391.393	
43.04681	2380.868	
43.05302	2376.203	
43.16063	2373.4	
43.16698	2376.716	
43.26991	2384.433	
43.27606	2370.088	
43.38053	2374.95	
43.38655	2376.795	
43.4881	2366.295	
43.49434	2363.639	
43.59873	2361.859	
43.60566	2352.691	
43.70991	2358.966	
43.71627	2364.023	
43.81753	2344.138	
43.82377	2352.274	
43.9278	2346.308	
43.93402	2348.198	
44.03621	2340.36	
44.04347	2346.125	
44.14777	2342.57	
44.154	2340.159	
44.25606	2339.085	
44.26243	2336.806	
44.3655	2344.807	
44.37181	2332.923	
44.47655	2326.853	
44.48304	2328.357	
44.58404	2330.738	
44.59047	2315.433	
44.69267	2325.999	
44.69883	2317.846	
44.80343	2314.559	
44.8098	2316.033	
44.91326	2320.092	
44.91953	2311.935	
45.02085	2310.295	
45.02732	2301.961	
45.13126	2307.701	
45.13769	2302.017	
45.24021	2303.787	
45.2466	2304.036	
45.3503	2293.469	
45.35658	2294.759	
45.46048	2297.316	
45.46722	2290.576	
45.56851	2293.627	
45.57489	2287.864	
45.67902	2288.366	
45.68522	2281.36	
45.78694	2278.708	
45.79317	2281.42	
45.89719	2285.778	
45.90356	2270.385	
46.00651	2279.853	
46.01274	2274.345	
46.11618	2263.698	
46.12249	2274.299	
46.22507	2257.983	
46.23145	2266.672	
46.33399	2260.102	
46.34006	2261.621	
46.4425	2252.605	
46.44915	2246.861	
46.5526	2252.873	
46.55888	2250.19	
46.6618	2252.464	
46.6681	2245.275	
46.77044	2249.202	
46.77672	2247.734	
46.88229	2241.414	
46.88882	2238.193	
46.99109	2243.759	
46.99758	2234.242	
47.09917	2241.594	
47.10585	2232.519	
47.21095	2231.979	
47.2179	2226.102	
47.31848	2227.408	
47.32475	2229.093	
47.4287	2231.466	
47.43457	2219.932	
47.53791	2223.379	
47.54414	2220.94	
47.64849	2212.23	
47.65479	2217.492	
47.75634	2206.318	
47.76453	2213.867	
47.86691	2207.254	
47.8736	2206.298	
47.97612	2207.885	
47.98299	2196.992	
48.08949	2206.2	
48.09567	2204.161	
48.19811	2197.948	
48.20443	2195.989	
48.30764	2194.45	
48.31608	2186.43	
48.41537	2186.802	
48.42154	2187.613	
48.52621	2184.264	
48.5326	2188.907	
48.63745	2178.002	
48.64349	2179.773	
48.74493	2167.884	
48.75393	2174.191	
48.85351	2173.837	
48.86214	2167.562	
48.96494	2170.542	
48.97119	2167	
49.07312	2162.599	
49.07975	2163.506	
49.18347	2154.021	
49.18973	2155.489	
49.29319	2156.976	
49.29948	2164.032	
49.40099	2157.932	
49.40726	2153.579	
49.51216	2153.921	
49.51901	2148.161	
49.62022	2146.019	
49.62646	2145.328	
49.72904	2141.507	
49.73539	2140.76	
49.83965	2129.834	
49.846	2131.563	
49.94767	2128.665	
49.9556	2125.812	
50.0604	2128.979	
50.06679	2130.481	
50.16889	2126.063	
50.17495	2127.182	
50.279	2120.378	
50.28525	2122.747	
50.38766	2115.426	
50.39421	2121.73	
50.49605	2121.603	
50.50408	2108.079	
50.60682	2113.112	
50.61336	2110.439	
50.71687	2105.003	
50.72337	2106.927	
50.82537	2098.297	
50.83164	2101.076	
50.93309	2107.713	
50.93967	2096.772	
51.04303	2100.175	
51.05056	2096.868	
51.1546	2100.013	
51.16131	2100.798	
51.26574	2090.237	
51.27203	2088.464	
51.37173	2091.085	
51.37759	2086.159	
51.48315	2080.302	
51.48932	2079.065	
51.59137	2076.402	
51.59798	2083.664	
51.70277	2071.336	
51.70983	2073.496	
51.81139	2069.905	
51.81774	2074.038	
51.92087	2070.97	
51.92743	2068.26	
52.02933	2068.343	
52.03551	2058.169	
52.14136	2061.323	
52.14771	2057.677	
52.24963	2053.892	
52.25617	2053.453	
52.36021	2052.997	
52.36647	2059.583	
52.46816	2044.547	
52.47425	2050.732	
52.5785	2050.298	
52.58485	2043.182	
52.68998	2037.662	
52.6963	2040.207	
52.79706	2034.838	
52.80299	2033.673	
52.9047	2036.571	
52.9112	2031.654	
53.01601	2033.09	
53.02198	2025.671	
53.12556	2022.453	
53.13209	2029.002	
53.23411	2020.573	
53.24037	2017.996	
53.34348	2022.855	
53.3498	2013.694	
53.45304	2012.256	
53.45921	2017.097	
53.56508	2013.595	
53.57127	2011.143	
53.67357	2008.546	
53.6805	2008.513	
53.78239	2004.669	
53.78866	2007.123	
53.89127	1994.385	
53.89749	1999.756	
54.00204	1994.797	
54.00862	1992.527	
54.11057	1987.536	
54.1168	1992.162	
54.22009	1984.383	
54.22655	1986.201	
54.33146	1986.334	
54.33769	1987.738	
54.4398	1990.118	
54.44613	1980.555	
54.5504	1978.029	
54.55677	1974.44	
54.65925	1978.111	
54.66587	1982.572	
54.76965	1966.002	
54.77565	1970.451	
54.88161	1967.954	
54.88843	1964.159	
54.9889	1957.6	
54.99519	1955.231	
55.09805	1961.273	
55.10435	1957.833	
55.2107	1953.878	
55.21762	1957.535	
55.31758	1956.723	
55.32383	1944.524	
55.42609	1949.33	
55.43223	1947.216	
55.53763	1945.74	
55.5442	1947.32	
55.64537	1938.954	
55.65151	1940.21	
55.75674	1939.078	
55.76316	1939.159	
55.86706	1934.971	
55.87363	1934.024	
55.9741	1928.196	
55.98048	1934.851	
56.0848	1931.014	
56.09321	1930.001	
56.19439	1925.685	
56.20116	1925.488	
56.30402	1922.331	
56.31065	1918.203	
56.41342	1916.034	
56.42006	1914.868	
56.52501	1908.742	
56.53192	1911.752	
56.63253	1906.968	
56.63841	1905.673	
56.7402	1906.142	
56.74677	1901.47	
56.85172	1905.906	
56.85825	1903.851	
56.96151	1899.276	
56.96753	1893.498	
57.06962	1890.556	
57.07568	1897.121	
57.1802	1887.997	
57.18703	1890.456	
57.29081	1888.548	
57.29678	1880.182	
57.39974	1887.149	
57.40605	1885.044	
57.50881	1876.538	
57.51541	1880.91	
57.61844	1872.517	
57.62468	1881.269	
57.72922	1875.163	
57.73563	1873.947	
57.83832	1873.629	
57.84462	1863.955	
57.95118	1872.257	
57.95774	1866.788	
58.05956	1867.635	
58.06577	1862.848	
58.16993	1861.338	
58.17635	1865.648	
58.2804	1862.075	
58.2873	1855.085	
58.38873	1854.639	
58.39556	1855.13	
58.4992	1846.064	
58.50795	1854.102	
58.60857	1842.684	
58.61491	1846.231	
58.7192	1837.378	
58.72548	1842.003	
58.82698	1840.652	
58.83319	1829.451	
58.93755	1834.286	
58.94427	1832.435	
59.04876	1830.726	
59.05481	1825.018	
59.15713	1830.381	
59.16363	1825.962	
59.26516	1830.258	
59.27419	1826.87	
59.37935	1818.458	
59.38779	1825.463	
59.48804	1824.26	
59.49458	1813.608	
59.59958	1815.776	
59.6074	1817.589	
59.70903	1816.726	
59.71489	1810.104	
59.81884	1805.156	
59.82494	1810.251	
59.92717	1812.748	
59.93341	1808.05	
60.03908	1806.19	
60.04675	1801.339	
60.1466	1797.981	
60.1552	1798.02	
60.2552	1793.366	
60.26123	1794.966	
60.36502	1786.699	
60.37173	1792.655	
60.476	1790.797	
60.48225	1783.22	
60.58441	1784.883	
60.59088	1785.377	
60.69428	1783.055	
60.70094	1778.085	
60.80597	1777.371	
60.81225	1771.613	
60.91219	1772.581	
60.92354	1774.469	
61.02628	1771.83	
61.03549	1763.895	
61.14081	1771.931	
61.14933	1767.505	
61.24918	1766.505	
61.25813	1760.677	
61.3609	1762.155	
61.36699	1762.831	
61.46651	1754.421	
61.47599	1760.697	
61.57821	1760.161	
61.58477	1757.485	
61.68836	1753.125	
61.69582	1748.143	
61.79533	1750.918	
61.80252	1752.603	
61.90762	1748.099	
61.91629	1742.916	
62.01534	1744.62	
62.02148	1744.101	
62.1258	1736.465	
62.1322	1743.339	
62.2357	1737.966	
62.2417	1733.364	
62.34404	1730.992	
62.35028	1732.282	
62.45466	1728.747	
62.46134	1729.732	
62.56371	1733.74	
62.57258	1724.438	
62.67817	1721.642	
62.68601	1719.694	
62.78474	1723.044	
62.79345	1720.523	
62.89539	1713.388	
62.90171	1725.069	
63.00452	1713.583	
63.01108	1711.395	
63.11549	1712.668	
63.12182	1709.564	
63.22499	1707.969	
63.23127	1709.316	
63.33327	1708.876	
63.33965	1707.04	
63.4444	1698.354	
63.45077	1697.364	
63.55235	1699.178	
63.55843	1697.567	
63.66169	1699.223	
63.66805	1695.567	
63.7715	1697.921	
63.77813	1694.698	
63.88216	1691.359	
63.88857	1688.097	
63.99068	1683.4	
63.99713	1683.474	
64.10076	1681.73	
64.10699	1690.601	
64.21112	1685.089	
64.21837	1682.884	
64.32076	1680.887	
64.327	1675.637	
64.43008	1679.141	
64.43668	1678.04	
64.54227	1680.592	
64.55125	1677.876	
64.6524	1669.214	
64.65885	1666.613	
64.76387	1669.443	
64.77023	1675.123	
64.87227	1669.492	
64.87868	1665.648	
64.98303	1672.434	
64.98923	1668.48	
65.09226	1667.078	
65.09853	1664.59	
65.20074	1666.659	
65.20773	1667.51	
65.31037	1666.883	
65.3167	1657.091	
65.42118	1662.272	
65.42738	1666.536	
65.52878	1665.065	
65.53565	1661.064	
65.63897	1657.047	
65.64606	1662.19	
65.74915	1656.021	
65.75531	1661.678	
65.85713	1656.837	
65.86356	1654.564	
65.97002	1654.556	
65.9765	1653.516	
66.07945	1655.211	
66.08556	1662.018	
66.18789	1653.162	
66.19424	1659.395	
66.29704	1652.822	
66.3035	1662.281	
66.40665	1659.019	
66.41471	1661.592	
66.51727	1658.006	
66.52366	1651.864	
66.62955	1653.894	
66.63596	1665.1	
66.73926	1660.021	
66.74546	1658.445	
66.84811	1660.665	
66.85429	1658.925	
66.95828	1667.017	
66.96455	1669.576	
67.06894	1663.128	
67.07563	1664.973	
67.17754	1668.228	
67.18385	1675.817	
67.28625	1675.116	
67.29237	1674.222	
67.39368	1675.841	
67.40067	1679.474	
67.50631	1688.179	
67.5124	1680.502	
67.61387	1693.279	
67.62006	1685.271	
67.72446	1687.443	
67.7308	1696.595	
67.83491	1702.242	
67.84187	1699.843	
67.94449	1709.557	
67.95116	1711.729	
68.05319	1714.811	
68.05935	1710.86	
68.16116	1729.472	
68.16766	1722.756	
68.27207	1737.437	
68.28059	1732.38	
68.3819	1747.086	
68.38863	1748.816	
68.48936	1760.683	
68.49571	1756.632	
68.59969	1771.806	
68.6058	1769.986	
68.71101	1782.329	
68.719	1787.801	
68.82126	1804.568	
68.82764	1801.623	
68.93039	1817.513	
68.93716	1814.804	
69.03778	1831.765	
69.0489	1835.115	
69.1489	1841.27	
69.15475	1857.176	
69.25781	1863.906	
69.26426	1876.091	
69.36841	1887.11	
69.37676	1888.065	
69.47626	1915.948	
69.48534	1912.221	
69.58916	1937.768	
69.59551	1929.196	
69.69527	1956.669	
69.7013	1956.218	
69.80479	1976.735	
69.81136	1984.164	
69.9157	2003.052	
69.92605	2010.053	
70.02487	2029.338	
70.03121	2036.523	
70.13461	2061.71	
70.14324	2069.84	
70.24447	2089.143	
70.25156	2086.932	
70.35518	2117.778	
70.3611	2126.068	
70.46131	2151.273	
70.46769	2160.803	
70.57327	2186.546	
70.58047	2193.551	
70.68228	2225.305	
70.68858	2231.651	
70.79179	2255.58	
70.79794	2257.91	
70.90142	2294.707	
70.90972	2292.587	
71.01016	2334.645	
71.01644	2339.096	
71.12443	2370.51	
71.13068	2384.041	
71.23452	2417.637	
71.24191	2423.596	
71.34539	2471.486	
71.35207	2473.56	
71.45236	2511.757	
71.4585	2510.125	
71.56289	2549.374	
71.57153	2559.492	
71.67258	2598.631	
71.67934	2606.976	
71.78462	2648.976	
71.79089	2652.594	
71.8912	2703.384	
71.90369	2714.177	
72.00404	2754.183	
72.01039	2768.974	
72.11671	2819.407	
72.12301	2812.932	
72.22697	2869.539	
72.23434	2880.805	
72.33478	2919.037	
72.341	2922.364	
72.44508	2968.758	
72.45134	2974.74	
72.55485	3021.262	
72.56316	3029.772	
72.66512	3073.688	
72.67141	3077.646	
72.77363	3117.018	
72.77969	3115.974	
72.88234	3160.64	
72.89043	3172.408	
72.99199	3200.407	
72.99812	3217.762	
73.10175	3235.515	
73.11118	3243.908	
73.21116	3271.955	
73.21777	3271.278	
73.31936	3305.205	
73.32542	3308.801	
73.42779	3334.518	
73.43463	3333.636	
73.53856	3365.732	
73.54482	3359.102	
73.64927	3383.136	
73.65529	3374.74	
73.75906	3398.481	
73.76859	3410.279	
73.872	3432.851	
73.87826	3424.574	
73.98175	3424.22	
73.98788	3434.755	
74.09233	3451.973	
74.1011	3459.459	
74.20659	3458.996	
74.21281	3470.602	
74.31971	3470.07	
74.32637	3474.914	
74.42925	3494.605	
74.43573	3488.055	
74.53654	3496.519	
74.54274	3509.568	
74.64738	3508.785	
74.65347	3516.008	
74.75903	3523.913	
74.76548	3522.893	
74.86827	3525.952	
74.87508	3530.804	
74.97934	3540.757	
74.98545	3533.033	
75.08965	3548.531	
75.09701	3555.311	
75.20159	3543.571	
75.20797	3553.371	
75.31241	3560.001	
75.31868	3571.086	
75.42575	3569.161	
75.43207	3572.646	
75.53397	3580.192	
75.54058	3572.674	
75.64275	3588.377	
75.64872	3585.696	
75.75467	3587.891	
75.76102	3590.271	
75.86698	3594.811	
75.87354	3590.824	
75.97554	3589.805	
75.98466	3600.082	
76.08887	3601.292	
76.0955	3601.559	
76.19927	3608.863	
76.20538	3596.732	
76.31303	3607.022	
76.31948	3613.405	
76.42247	3621.168	
76.42986	3612.235	
76.53344	3611.099	
76.53976	3611.808	
76.64545	3619.312	
76.6517	3619.602	
76.75931	3623.354	
76.76541	3622.423	
76.8675	3627.967	
76.87385	3617.42	
76.97833	3633.461	
76.98527	3635.543	
77.09161	3644.323	
77.09769	3632.608	
77.20406	3645.883	
77.21052	3637.155	
77.31236	3650.416	
77.31873	3648.225	
77.42593	3645.299	
77.43259	3646.256	
77.53732	3644.108	
77.54371	3630.181	
77.65041	3646.042	
77.657	3649.01	
77.75871	3640.268	
77.76532	3642.545	
77.87314	3639.169	
77.87962	3633.261	
77.98074	3642.041	
77.98715	3645.319	
78.09619	3639.91	
78.10275	3643.511	
78.2082	3638.739	
78.21477	3641.316	
78.31799	3652.91	
78.32412	3639.49	
78.42676	3652.685	
78.43339	3643.39	
78.54198	3655.711	
78.5484	3646.055	
78.64917	3661.411	
78.6555	3646.888	
78.75986	3656.455	
78.76881	3660.116	
78.87012	3658.482	
78.87622	3657.81	
78.97894	3654.175	
78.98776	3650.063	
79.092	3667.955	
79.0984	3648.448	
79.20267	3661.269	
79.21447	3652.207	
79.31529	3653.697	
79.3215	3651.916	
79.42638	3662.328	
79.43571	3662.875	
79.53837	3663.034	
79.54487	3662.712	
79.64687	3672.413	
79.65637	3669.818	
79.76051	3672.254	
79.76683	3660.636	
79.87159	3671.644	
79.87813	3655.375	
79.98116	3672.463	
79.98725	3656.786	
80.09046	3668.328	
80.09708	3656.904	
80.19862	3666.74	
80.20863	3671.156	
80.3141	3669.187	
80.3205	3666.472	
80.4232	3672.65	
80.42918	3675.172	
80.5359	3676.443	
80.5435	3680.107	
80.64461	3682.584	
80.65144	3674.005	
80.7531	3686.043	
80.7592	3680.721	
80.86893	3678.855	
80.87531	3678.356	
80.97932	3681.104	
80.98564	3686.134	
81.08785	3683.733	
81.0974	3679.831	
81.20258	3689.809	
81.20873	3686.759	
81.31182	3686.487	
81.31834	3688.449	
81.42047	3700.928	
81.42657	3689.088	
81.53156	3689.365	
81.53951	3680.052	
81.64044	3693.281	
81.65084	3692.652	
81.75475	3691.531	
81.76134	3695.125	
81.86281	3691.032	
81.86878	3690.793	
81.97114	3684.774	
81.97758	3685.549	
82.08273	3690.471	
82.08897	3686.104	
82.19141	3695.028	
82.19756	3691.487	
82.30528	3685.652	
82.31202	3684.07	
82.41517	3702.527	
82.42142	3685.661	
82.5282	3701.119	
82.53494	3700.094	
82.63402	3699.602	
82.64035	3700.363	
82.74264	3700.423	
82.75181	3688.743	
82.85557	3706.175	
82.86196	3691.82	
82.96832	3709.045	
82.97426	3694.977	
83.0765	3696.712	
83.08286	3703.814	
83.18549	3703.592	
83.1917	3714.856	
83.29711	3708.823	
83.30347	3707.964	
83.40575	3704.799	
83.41177	3713.237	
83.51575	3705.863	
83.52232	3706.324	
83.62397	3708.085	
83.63065	3707.132	
83.73298	3711.922	
83.73972	3712.592	
83.84364	3708.133	
83.85337	3707.243	
83.9565	3709.063	
83.96281	3700.576	
84.0678	3695.938	
84.07417	3700.553	
84.1749	3703.803	
84.18506	3700.486	
84.29027	3690.475	
84.29652	3694.738	
84.4	3704.307	
84.40607	3694.331	
84.51087	3698.447	
84.51737	3698.5	
84.6228	3692.298	
84.62885	3688.86	
84.73249	3685.764	
84.73888	3690.57	
84.84236	3679.308	
84.84887	3685.619	
84.958	3683.87	
84.96413	3682.431	
85.06616	3686.541	
85.07269	3680.973	
85.17463	3670.577	
85.18079	3674.117	
85.28412	3672.921	
85.29048	3667.409	
85.39373	3669.857	
85.40031	3655.7	
85.50471	3656.704	
85.51087	3655.837	
85.61269	3654.016	
85.61897	3651.95	
85.72304	3656.26	
85.72948	3645.073	
85.83289	3642.618	
85.8391	3635.674	
85.94247	3640.249	
85.94888	3637.65	
86.05499	3638.079	
86.06107	3624.24	
86.1665	3633.709	
86.17314	3622.417	
86.2768	3624.268	
86.2831	3617.907	
86.38683	3628.216	
86.39317	3620.059	
86.49625	3620.172	
86.50282	3604.86	
86.605	3615.349	
86.61176	3604.968	
86.71459	3599.307	
86.72089	3599.523	
86.82615	3596.364	
86.83278	3595.488	
86.93356	3578.452	
86.93986	3569.697	
87.04192	3570.689	
87.04794	3562.328	
87.15336	3568.217	
87.15981	3562.883	
87.26164	3553.128	
87.26766	3545.566	
87.37161	3556.708	
87.37818	3555.896	
87.48223	3541.201	
87.48878	3549.682	
87.58993	3542.482	
87.59618	3537.033	
87.69991	3535.487	
87.70621	3527.803	
87.81046	3528.475	
87.81853	3510.448	
87.92088	3526.304	
87.92707	3509.895	
88.0297	3512.5	
88.03693	3501.888	
88.14024	3498.175	
88.14634	3504.587	
88.24807	3499.471	
88.25436	3495.722	
88.35957	3488.295	
88.36613	3486.521	
88.46886	3475.959	
88.47621	3480.313	
88.57769	3477.975	
88.58391	3469.802	
88.68636	3471.627	
88.69245	3462.515	
88.79655	3465.18	
88.805	3460.208	
88.90498	3457.501	
88.91138	3456.254	
89.01778	3440.629	
89.02403	3447.344	
89.12657	3431.571	
89.13271	3427.77	
89.23645	3421.339	
89.24275	3424.314	
89.34577	3411.964	
89.35267	3412.406	
89.4548	3404.777	
89.46105	3411.189	
89.56371	3402.931	
89.5731	3387.114	
89.67241	3398.013	
89.67884	3391.64	
89.78467	3375.489	
89.79089	3373.206	
89.89207	3378.671	
89.89848	3375.551	
90.00209	3358.545	
90.00883	3362.601	
90.11062	3351.109	
90.11658	3364.164	
90.22008	3351.737	
90.22652	3349.965	
90.33096	3340.527	
90.33731	3339.53	
90.44014	3333.184	
90.44856	3334.313	
90.5538	3319.241	
90.55978	3326.382	
90.65901	3319.947	
90.66557	3323.342	
90.76914	3304.385	
90.77557	3300.492	
90.87912	3306.063	
90.8854	3295.475	
90.98773	3282.17	
90.99434	3290.427	
91.09692	3292.508	
91.10359	3276.544	
91.20541	3272.582	
91.21164	3272.313	
91.31773	3263.168	
91.32388	3264.61	
91.42714	3253.893	
91.43365	3259.783	
91.53745	3257.007	
91.54385	3250.945	
91.64788	3245.307	
91.65388	3235.346	
91.75643	3233.093	
91.76243	3237.011	
91.86582	3213.151	
91.87248	3218.212	
91.97723	3208.899	
91.98376	3210.443	
92.0856	3209.345	
92.09222	3191.036	
92.19444	3190.471	
92.20079	3193.472	
92.30428	3183.934	
92.31079	3182.255	
92.41437	3180.795	
92.42094	3174.958	
92.52308	3172.389	
92.52978	3170.958	
92.63244	3160.795	
92.63863	3161.473	
92.74262	3152.761	
92.74899	3152.082	
92.85218	3151.366	
92.85881	3146.545	
92.96307	3131.545	
92.96943	3134.737	
93.07156	3136.745	
93.07784	3124.843	
93.18049	3125.225	
93.18656	3119.269	
93.29027	3123.834	
93.29694	3116.235	
93.40024	3112.268	
93.40637	3098.468	
93.509	3093.195	
93.5155	3098.466	
93.62074	3083.059	
93.62682	3088.836	
93.72858	3081.25	
93.73492	3084.52	
93.83842	3081.899	
93.8449	3068.148	
93.94684	3072.176	
93.95311	3070.649	
94.05415	3057.608	
94.0598	3050.016	
94.15607	3053.031	
94.16228	3055.617	
94.25549	3044.842	
94.26109	3038.406	
94.35394	3030.821	
94.35983	3043.035	
94.44933	3019.09	
94.45452	3033.562	
94.5332	3014.829	
94.53781	3016.953	
94.61354	3020.778	
94.61805	3011.878	
94.68845	3014.685	
94.69254	3010.931	
94.75637	3006.896	
94.76016	3007.375	
94.81413	2991.297	
94.81754	2996.711	
94.86877	2993.729	
94.8717	2998.273	
94.91162	2996.206	
94.91386	2979.56	
94.94755	2989.845	
94.94933	2973.742	
94.97639	2989.92	
94.97781	2983.791	
94.99384	2976.017	
