T[Â°C]	350nm [counts / mm]	S.D.	First derivative	S.D. of first derivative
20.0008	3013.172		-41.81483	
20.05476	3010.908		-41.83296	
20.10871	3008.65		-41.8505	
20.16266	3006.399		-41.86741	
20.21661	3004.155		-41.88369	
20.27056	3001.916		-41.8993	
20.32452	2999.682		-41.91423	
20.37847	2997.451		-41.92847	
20.43242	2995.225		-41.942	
20.48637	2993.001		-41.9548	
20.54032	2990.779		-41.96685	
20.59427	2988.56		-41.97815	
20.64823	2986.342		-41.98868	
20.70218	2984.127		-41.99844	
20.75613	2981.916		-42.00741	
20.81008	2979.71		-42.0156	
20.86403	2977.516		-42.023	
20.91799	2975.347		-42.02961	
20.97194	2973.23		-42.03542	
21.02589	2971.196		-42.04046	
21.07984	2969.141		-42.04472	
21.13379	2967.053		-42.04821	
21.18774	2964.924		-42.05096	
21.2417	2962.753		-42.05298	
21.29565	2960.542		-42.05431	
21.3496	2958.293		-42.05496	
21.40355	2956.011		-42.05499	
21.4575	2953.696		-42.05442	
21.51146	2951.351		-42.05333	
21.56541	2948.975		-42.05174	
21.61936	2946.571		-42.04973	
21.67331	2944.153		-42.04735	
21.72726	2941.73		-42.04467	
21.78122	2939.303		-42.04176	
21.83517	2936.869		-42.03869	
21.88912	2934.427		-42.03555	
21.94307	2931.978		-42.03244	
21.99702	2929.523		-42.02943	
22.05097	2927.063		-42.02666	
22.10493	2924.599		-42.02421	
22.15888	2922.135		-42.0222	
22.21283	2919.678		-42.02072	
22.26678	2917.237		-42.01984	
22.32073	2914.823		-42.01955	
22.37469	2912.446		-42.01973	
22.42864	2910.112		-42.02009	
22.48259	2907.823		-42.02002	
22.53654	2905.574		-42.0186	
22.59049	2903.35		-42.01469	
22.64444	2901.129		-41.98673	
22.6984	2898.891		-41.95745	
22.75235	2896.625		-41.92671	
22.8063	2894.334		-41.8944	
22.86025	2892.032		-41.86038	
22.9142	2889.74		-41.82457	
22.96815	2887.467		-41.78693	
23.02211	2885.217		-41.74743	
23.07606	2882.985		-41.70611	
23.13001	2880.771		-41.66302	
23.18396	2878.577		-41.61828	
23.23792	2876.402		-41.57206	
23.29187	2874.244		-41.52463	
23.34582	2872.099		-41.4763	
23.39977	2869.964		-41.42744	
23.45372	2867.836		-41.37848	
23.50767	2865.704		-41.32987	
23.56162	2863.551		-41.28209	
23.61558	2861.372		-41.23556	
23.66953	2859.177		-41.19071	
23.72348	2856.979		-41.1479	
23.77743	2854.781		-41.10748	
23.83138	2852.584		-41.06974	
23.88534	2850.389		-41.03495	
23.93929	2848.209		-41.0033	
23.99324	2846.052		-40.97492	
24.04719	2843.921		-40.94989	
24.10114	2841.811		-40.92825	
24.1551	2839.717		-40.90996	
24.20905	2837.629		-40.89498	
24.263	2835.531		-40.88323	
24.31695	2833.408		-40.87457	
24.3709	2831.244		-40.86881	
24.42485	2829.035		-40.86578	
24.47881	2826.791		-40.86523	
24.53276	2824.523		-40.86687	
24.58671	2822.248		-40.87039	
24.64066	2819.976		-40.87537	
24.69461	2817.717		-40.88137	
24.74857	2815.477		-40.88789	
24.80252	2813.265		-40.8944	
24.85647	2811.09		-40.90037	
24.91042	2808.948		-40.90525	
24.96437	2806.826		-40.90852	
25.01832	2804.708		-40.90963	
25.07228	2802.583		-40.90812	
25.12623	2800.441		-40.90356	
25.18018	2798.278		-40.89563	
25.23413	2796.099		-40.88409	
25.28808	2793.907		-40.86889	
25.34204	2791.702		-40.8501	
25.39599	2789.49		-40.82793	
25.44994	2787.272		-40.80274	
25.50389	2785.043		-40.77497	
25.55784	2782.798		-40.74513	
25.6118	2780.545		-40.71378	
25.66575	2778.292		-40.68149	
25.7197	2776.045		-40.64885	
25.77365	2773.799		-40.61644	
25.8276	2771.546		-40.58481	
25.88155	2769.278		-40.55443	
25.9355	2766.993		-40.52572	
25.98946	2764.681		-40.499	
26.04341	2762.337		-40.47445	
26.09736	2759.964		-40.45219	
26.15131	2757.576		-40.43228	
26.20527	2755.189		-40.41473	
26.25922	2752.821		-40.39959	
26.31317	2750.481		-40.38684	
26.36712	2748.172		-40.37651	
26.42107	2745.89		-40.36858	
26.47502	2743.632		-40.36303	
26.52898	2741.397		-40.35981	
26.58293	2739.185		-40.35886	
26.63688	2736.989		-40.36004	
26.69083	2734.804		-40.36324	
26.74478	2732.625		-40.36832	
26.79873	2730.453		-40.37514	
26.85269	2728.292		-40.38348	
26.90664	2726.15		-40.3931	
26.96059	2724.037		-40.40365	
27.01454	2721.964		-40.41477	
27.06849	2719.938		-40.42601	
27.12245	2717.957		-40.4369	
27.1764	2716.02		-40.44699	
27.23035	2714.122		-40.45584	
27.2843	2712.254		-40.46305	
27.33825	2710.404		-40.46832	
27.3922	2708.558		-40.47144	
27.44616	2706.702		-40.47226	
27.50011	2704.827		-40.47076	
27.55406	2702.927		-40.467	
27.60801	2700.988		-40.46112	
27.66196	2699.003		-40.45333	
27.71592	2696.969		-40.44391	
27.76987	2694.886		-40.43318	
27.82382	2692.757		-40.42145	
27.87777	2690.592		-40.40904	
27.93172	2688.397		-40.39625	
27.98568	2686.17		-40.3833	
28.03963	2683.902		-40.37037	
28.09358	2681.59		-40.35754	
28.14753	2679.238		-40.34485	
28.20148	2676.854		-40.33226	
28.25543	2674.45		-40.31971	
28.30939	2672.04		-40.30709	
28.36334	2669.624		-40.29427	
28.41729	2667.204		-40.2811	
28.47124	2664.777		-40.26745	
28.52519	2662.348		-40.25321	
28.57915	2659.929		-40.23832	
28.6331	2657.538		-40.22277	
28.68705	2655.186		-40.20665	
28.741	2652.878		-40.19011	
28.79495	2650.613		-40.17336	
28.8489	2648.377		-40.15655	
28.90286	2646.156		-40.13985	
28.95681	2643.939		-40.12331	
29.01076	2641.72		-40.10699	
29.06471	2639.503		-40.09089	
29.11866	2637.295		-40.07502	
29.17262	2635.101		-40.05935	
29.22657	2632.92		-40.04385	
29.28052	2630.745		-40.02842	
29.33447	2628.567		-40.01297	
29.38842	2626.38		-39.9974	
29.44238	2624.19		-39.98157	
29.49633	2622.007		-39.9654	
29.55028	2619.839		-39.94886	
29.60423	2617.686		-39.93195	
29.65818	2615.544		-39.91476	
29.71213	2613.409		-39.89738	
29.76608	2611.272		-39.88	
29.82004	2609.133		-39.86282	
29.87399	2606.997		-39.84607	
29.92794	2604.87		-39.83005	
29.98189	2602.746		-39.81505	
30.03584	2600.625		-39.80137	
30.0898	2598.509		-39.78929	
30.14375	2596.406		-39.77902	
30.1977	2594.33		-39.77072	
30.25165	2592.298		-39.76447	
30.3056	2590.322		-39.76027	
30.35956	2588.406		-39.75808	
30.41351	2586.543		-39.75778	
30.46746	2584.712		-39.75922	
30.52141	2582.889		-39.76223	
30.57536	2581.06		-39.76664	
30.62931	2579.213		-39.7723	
30.68327	2577.344		-39.77915	
30.73722	2575.454		-39.78715	
30.79117	2573.538		-39.79632	
30.84512	2571.59		-39.8067	
30.89907	2569.603		-39.81831	
30.95303	2567.572		-39.83117	
31.00698	2565.492		-39.84529	
31.06093	2563.367		-39.86071	
31.11488	2561.203		-39.87741	
31.16883	2559.009		-39.89538	
31.22278	2556.789		-39.91453	
31.27674	2554.539		-39.93471	
31.33069	2552.253		-39.95572	
31.38464	2549.927		-39.97724	
31.43859	2547.564		-39.99896	
31.49254	2545.179		-40.0205	
31.5465	2542.785		-40.0415	
31.60045	2540.391		-40.06158	
31.6544	2537.997		-40.0804	
31.70835	2535.601		-40.09763	
31.7623	2533.205		-40.11294	
31.81626	2530.815		-40.12604	
31.87021	2528.441		-40.13669	
31.92416	2526.094		-40.14473	
31.97811	2523.781		-40.15005	
32.03206	2521.502		-40.15264	
32.08601	2519.254		-40.15248	
32.13997	2517.026		-40.14959	
32.19392	2514.809		-40.14393	
32.24787	2512.6		-40.1355	
32.30182	2510.402		-40.12424	
32.35577	2508.216		-40.11012	
32.40973	2506.038		-40.09304	
32.46368	2503.865		-40.07295	
32.51763	2501.696		-40.04974	
32.57158	2499.528		-40.02331	
32.62553	2497.361		-39.9936	
32.67949	2495.198		-39.96056	
32.73344	2493.041		-39.92414	
32.78739	2490.89		-39.88436	
32.84134	2488.74		-39.84127	
32.89529	2486.586		-39.79494	
32.94924	2484.427		-39.7455	
33.0032	2482.256		-39.69314	
33.05715	2480.073		-39.6381	
33.1111	2477.884		-39.58071	
33.16505	2475.696		-39.52135	
33.219	2473.513		-39.46045	
33.27295	2471.341		-39.39846	
33.3269	2469.175		-39.33587	
33.38086	2467.014		-39.27312	
33.43481	2464.866		-39.21068	
33.48876	2462.747		-39.14894	
33.54271	2460.67		-39.08829	
33.59666	2458.646		-39.02908	
33.65062	2456.68		-38.97164	
33.70457	2454.772		-38.91623	
33.75852	2452.909		-38.86305	
33.81247	2451.071		-38.8123	
33.86642	2449.237		-38.7641	
33.92038	2447.388		-38.71858	
33.97433	2445.511		-38.67585	
34.02828	2443.602		-38.63602	
34.08223	2441.661		-38.59921	
34.13618	2439.687		-38.56546	
34.19014	2437.677		-38.53486	
34.24409	2435.634		-38.50745	
34.29804	2433.569		-38.48326	
34.35199	2431.49		-38.46231	
34.40594	2429.403		-38.44461	
34.4599	2427.316		-38.43012	
34.51385	2425.23		-38.41877	
34.5678	2423.14		-38.41045	
34.62175	2421.037		-38.40498	
34.6757	2418.915		-38.40215	
34.72965	2416.771		-38.40168	
34.7836	2414.604		-38.40326	
34.83756	2412.421		-38.40648	
34.89151	2410.227		-38.41091	
34.94546	2408.029		-38.41612	
34.99941	2405.831		-38.42163	
35.05336	2403.638		-38.42704	
35.10732	2401.453		-38.43196	
35.16127	2399.283		-38.43606	
35.21522	2397.143		-38.43909	
35.26917	2395.047		-38.44087	
35.32312	2393.001		-38.44125	
35.37708	2391.005		-38.44018	
35.43103	2389.053		-38.43761	
35.48498	2387.13		-38.43357	
35.53893	2385.219		-38.42812	
35.59288	2383.303		-38.42135	
35.64684	2381.369		-38.41337	
35.70079	2379.407		-38.40431	
35.75474	2377.413		-38.39429	
35.80869	2375.382		-38.38346	
35.86264	2373.312		-38.37194	
35.9166	2371.204		-38.35986	
35.97055	2369.061		-38.34736	
36.0245	2366.895		-38.33461	
36.07845	2364.714		-38.32175	
36.1324	2362.527		-38.30897	
36.18635	2360.333		-38.29642	
36.2403	2358.136		-38.28425	
36.29426	2355.936		-38.27262	
36.34821	2353.733		-38.2617	
36.40216	2351.528		-38.25164	
36.45611	2349.322		-38.24263	
36.51006	2347.123		-38.23482	
36.56401	2344.937		-38.22834	
36.61797	2342.768		-38.22329	
36.67192	2340.619		-38.21972	
36.72587	2338.488		-38.21761	
36.77982	2336.374		-38.21687	
36.83377	2334.281		-38.21734	
36.88773	2332.217		-38.21883	
36.94168	2330.185		-38.22107	
36.99563	2328.19		-38.22377	
37.04958	2326.241		-38.22659	
37.10353	2324.336		-38.22916	
37.15749	2322.464		-38.23109	
37.21144	2320.611		-38.232	
37.26539	2318.765		-38.23152	
37.31934	2316.919		-38.22932	
37.37329	2315.07		-38.22511	
37.42725	2313.216		-38.21869	
37.4812	2311.348		-38.20991	
37.53515	2309.46		-38.19869	
37.5891	2307.547		-38.18501	
37.64305	2305.608		-38.1689	
37.697	2303.644		-38.15046	
37.75096	2301.65		-38.12981	
37.80491	2299.625		-38.10712	
37.85886	2297.568		-38.08259	
37.91281	2295.48		-38.05643	
37.96676	2293.366		-38.0289	
38.02071	2291.227		-38.00024	
38.07467	2289.067		-37.97071	
38.12862	2286.891		-37.94054	
38.18257	2284.707		-37.90996	
38.23652	2282.524		-37.87917	
38.29047	2280.347		-37.84831	
38.34443	2278.177		-37.81754	
38.39838	2276.009		-37.78701	
38.45233	2273.843		-37.75685	
38.50628	2271.683		-37.72719	
38.56023	2269.531		-37.69816	
38.61419	2267.388		-37.66985	
38.66814	2265.251		-37.64232	
38.72209	2263.123		-37.6156	
38.77604	2261.007		-37.58967	
38.82999	2258.905		-37.56452	
38.88395	2256.813		-37.54011	
38.9379	2254.721		-37.51638	
38.99185	2252.625		-37.49327	
39.0458	2250.531		-37.47066	
39.09975	2248.448		-37.44843	
39.1537	2246.378		-37.42639	
39.20766	2244.32		-37.40436	
39.26161	2242.276		-37.3821	
39.31556	2240.252		-37.35935	
39.36951	2238.25		-37.33587	
39.42346	2236.272		-37.31141	
39.47741	2234.312		-37.28577	
39.53136	2232.362		-37.25879	
39.58532	2230.421		-37.23035	
39.63927	2228.49		-37.20044	
39.69322	2226.563		-37.16909	
39.74717	2224.633		-37.13645	
39.80112	2222.697		-37.10271	
39.85508	2220.756		-37.06819	
39.90903	2218.812		-37.03322	
39.96298	2216.863		-36.99818	
40.01693	2214.906		-36.96346	
40.07088	2212.945		-36.92941	
40.12484	2210.984		-36.89637	
40.17879	2209.029		-36.86465	
40.23274	2207.087		-36.8345	
40.28669	2205.165		-36.80614	
40.34064	2203.268		-36.77975	
40.3946	2201.394		-36.75549	
40.44855	2199.539		-36.73344	
40.5025	2197.694		-36.71371	
40.55645	2195.849		-36.69632	
40.6104	2193.991		-36.68131	
40.66435	2192.11		-36.66867	
40.71831	2190.201		-36.65836	
40.77226	2188.27		-36.65033	
40.82621	2186.32		-36.6445	
40.88016	2184.352		-36.64075	
40.93411	2182.367		-36.63893	
40.98806	2180.368		-36.63888	
41.04202	2178.356		-36.64045	
41.09597	2176.336		-36.64347	
41.14992	2174.313		-36.64779	
41.20387	2172.292		-36.6532	
41.25782	2170.281		-36.65953	
41.31178	2168.283		-36.66655	
41.36573	2166.299		-36.67403	
41.41968	2164.321		-36.68169	
41.47363	2162.337		-36.68919	
41.52758	2160.336		-36.69621	
41.58154	2158.312		-36.70244	
41.63549	2156.264		-36.70757	
41.68944	2154.19		-36.71137	
41.74339	2152.093		-36.71365	
41.79734	2149.989		-36.71432	
41.8513	2147.897		-36.71334	
41.90525	2145.835		-36.71074	
41.9592	2143.813		-36.7066	
42.01315	2141.838		-36.70104	
42.0671	2139.905		-36.69423	
42.12105	2138.003		-36.68635	
42.17501	2136.112		-36.6776	
42.22896	2134.213		-36.66816	
42.28291	2132.289		-36.65818	
42.33686	2130.335		-36.64779	
42.39081	2128.349		-36.6371	
42.44476	2126.328		-36.62617	
42.49872	2124.276		-36.61502	
42.55267	2122.202		-36.60364	
42.60662	2120.115		-36.59196	
42.66057	2118.021		-36.57992	
42.71452	2115.935		-36.56747	
42.76847	2113.865		-36.55454	
42.82243	2111.818		-36.5411	
42.87638	2109.798		-36.52708	
42.93033	2107.802		-36.51245	
42.98428	2105.825		-36.49713	
43.03823	2103.854		-36.48108	
43.09219	2101.881		-36.46423	
43.14614	2099.896		-36.44655	
43.20009	2097.893		-36.42799	
43.25404	2095.871		-36.40853	
43.30799	2093.841		-36.38813	
43.36195	2091.819		-36.36678	
43.4159	2089.825		-36.34443	
43.46985	2087.881		-36.32104	
43.5238	2085.999		-36.29656	
43.57775	2084.183		-36.27095	
43.63171	2082.426		-36.2442	
43.68566	2080.709		-36.2163	
43.73961	2079.006		-36.18729	
43.79356	2077.295		-36.15725	
43.84751	2075.551		-36.12624	
43.90146	2073.76		-36.09441	
43.95541	2071.914		-36.06188	
44.00937	2070.014		-36.02882	
44.06332	2068.075		-35.99545	
44.11727	2066.113		-35.96202	
44.17122	2064.143		-35.92878	
44.22517	2062.174		-35.89601	
44.27913	2060.206		-35.86401	
44.33308	2058.235		-35.83306	
44.38703	2056.259		-35.80347	
44.44098	2054.272		-35.77552	
44.49493	2052.274		-35.74942	
44.54889	2050.262		-35.72533	
44.60284	2048.23		-35.70335	
44.65679	2046.175		-35.68348	
44.71074	2044.099		-35.6657	
44.76469	2042.01		-35.64989	
44.81865	2039.92		-35.63594	
44.8726	2037.834		-35.6237	
44.92655	2035.76		-35.61304	
44.9805	2033.708		-35.60378	
45.03445	2031.687		-35.59574	
45.08841	2029.713		-35.58876	
45.14236	2027.8		-35.58265	
45.19631	2025.95		-35.57724	
45.25026	2024.149		-35.57234	
45.30421	2022.377		-35.56776	
45.35816	2020.611		-35.5633	
45.41211	2018.835		-35.5588	
45.46607	2017.033		-35.55408	
45.52002	2015.2		-35.54902	
45.57397	2013.337		-35.54347	
45.62792	2011.453		-35.53736	
45.68187	2009.557		-35.53064	
45.73582	2007.66		-35.52325	
45.78978	2005.772		-35.51523	
45.84373	2003.9		-35.50662	
45.89768	2002.043		-35.49751	
45.95163	2000.197		-35.48802	
46.00558	1998.354		-35.47829	
46.05954	1996.506		-35.46844	
46.11349	1994.65		-35.45861	
46.16744	1992.779		-35.44888	
46.22139	1990.89		-35.4394	
46.27534	1988.979		-35.43028	
46.3293	1987.046		-35.42171	
46.38325	1985.091		-35.41385	
46.4372	1983.118		-35.40691	
46.49115	1981.133		-35.40109	
46.5451	1979.14		-35.39662	
46.59906	1977.144		-35.3937	
46.65301	1975.152		-35.3925	
46.70696	1973.174		-35.39315	
46.76091	1971.222		-35.39566	
46.81486	1969.305		-35.39999	
46.86881	1967.423		-35.40604	
46.92277	1965.572		-35.41364	
46.97672	1963.738		-35.42261	
47.03067	1961.903		-35.4327	
47.08462	1960.055		-35.44364	
47.13857	1958.188		-35.45513	
47.19252	1956.299		-35.46684	
47.24648	1954.391		-35.47846	
47.30043	1952.47		-35.48968	
47.35438	1950.546		-35.50023	
47.40833	1948.625		-35.50987	
47.46228	1946.708		-35.5184	
47.51624	1944.796		-35.52567	
47.57019	1942.891		-35.53156	
47.62414	1940.993		-35.53602	
47.67809	1939.099		-35.53902	
47.73204	1937.208		-35.54053	
47.786	1935.32		-35.54056	
47.83995	1933.433		-35.53914	
47.8939	1931.542		-35.53632	
47.94785	1929.64		-35.53219	
48.0018	1927.721		-35.52687	
48.05576	1925.785		-35.52049	
48.10971	1923.831		-35.51321	
48.16366	1921.859		-35.50514	
48.21761	1919.872		-35.49639	
48.27156	1917.877		-35.48706	
48.32551	1915.881		-35.47725	
48.37947	1913.887		-35.46707	
48.43342	1911.9		-35.4566	
48.48737	1909.922		-35.44592	
48.54132	1907.953		-35.43512	
48.59527	1905.995		-35.42427	
48.64922	1904.052		-35.41345	
48.70317	1902.125		-35.40271	
48.75713	1900.214		-35.39209	
48.81108	1898.308		-35.38158	
48.86503	1896.399		-35.37115	
48.91898	1894.483		-35.36073	
48.97293	1892.561		-35.35022	
49.02689	1890.637		-35.3395	
49.08084	1888.71		-35.32843	
49.13479	1886.78		-35.31683	
49.18874	1884.848		-35.30455	
49.24269	1882.915		-35.29144	
49.29665	1880.991		-35.27733	
49.3506	1879.083		-35.26213	
49.40455	1877.199		-35.24576	
49.4585	1875.336		-35.22818	
49.51245	1873.494		-35.20943	
49.56641	1871.666		-35.18959	
49.62036	1869.845		-35.16882	
49.67431	1868.024		-35.14727	
49.72826	1866.197		-35.12513	
49.78221	1864.366		-35.10257	
49.83617	1862.528		-35.07978	
49.89012	1860.682		-35.05695	
49.94407	1858.821		-35.03427	
49.99802	1856.94		-35.01192	
50.05197	1855.042		-34.99011	
50.10592	1853.127		-34.96905	
50.15987	1851.204		-34.94896	
50.21383	1849.284		-34.93003	
50.26778	1847.377		-34.91247	
50.32173	1845.49		-34.89646	
50.37568	1843.626		-34.88215	
50.42963	1841.782		-34.86965	
50.48359	1839.95		-34.85904	
50.53754	1838.113		-34.85033	
50.59149	1836.256		-34.84352	
50.64544	1834.371		-34.83857	
50.69939	1832.457		-34.83538	
50.75335	1830.522		-34.83386	
50.8073	1828.573		-34.83387	
50.86125	1826.614		-34.83524	
50.9152	1824.655		-34.83779	
50.96915	1822.703		-34.84126	
51.02311	1820.77		-34.84542	
51.07706	1818.864		-34.85002	
51.13101	1816.988		-34.85479	
51.18496	1815.14		-34.85948	
51.23891	1813.313		-34.86383	
51.29287	1811.503		-34.86754	
51.34682	1809.699		-34.87035	
51.40077	1807.896		-34.87196	
51.45472	1806.09		-34.8721	
51.50867	1804.28		-34.87054	
51.56262	1802.464		-34.86704	
51.61657	1800.639		-34.86143	
51.67053	1798.802		-34.85356	
51.72448	1796.956		-34.84332	
51.77843	1795.105		-34.83067	
51.83238	1793.255		-34.8156	
51.88633	1791.412		-34.79818	
51.94028	1789.574		-34.7785	
51.99424	1787.74		-34.75669	
52.04819	1785.899		-34.73291	
52.10214	1784.039		-34.70736	
52.15609	1782.15		-34.68024	
52.21004	1780.23		-34.65181	
52.264	1778.283		-34.62232	
52.31795	1776.317		-34.59205	
52.3719	1774.342		-34.56124	
52.42585	1772.364		-34.53015	
52.4798	1770.388		-34.49902	
52.53376	1768.419		-34.46808	
52.58771	1766.458		-34.43756	
52.64166	1764.503		-34.40768	
52.69561	1762.554		-34.37864	
52.74957	1760.611		-34.35062	
52.80352	1758.677		-34.32376	
52.85747	1756.751		-34.29818	
52.91142	1754.832		-34.27393	
52.96537	1752.917		-34.25104	
53.01932	1751.006		-34.22951	
53.07327	1749.102		-34.20932	
53.12723	1747.209		-34.19044	
53.18118	1745.331		-34.17285	
53.23513	1743.471		-34.15651	
53.28908	1741.629		-34.1414	
53.34303	1739.804		-34.12743	
53.39698	1737.996		-34.11452	
53.45094	1736.205		-34.10257	
53.50489	1734.431		-34.09143	
53.55884	1732.669		-34.08097	
53.61279	1730.915		-34.07109	
53.66674	1729.162		-34.06165	
53.7207	1727.406		-34.05255	
53.77465	1725.648		-34.04368	
53.8286	1723.891		-34.03499	
53.88255	1722.136		-34.02642	
53.9365	1720.388		-34.01794	
53.99046	1718.65		-34.00953	
54.04441	1716.924		-34.00117	
54.09836	1715.207		-33.99288	
54.15231	1713.491		-33.98466	
54.20626	1711.766		-33.97652	
54.26022	1710.03		-33.96846	
54.31417	1708.283		-33.96051	
54.36812	1706.527		-33.95266	
54.42207	1704.761		-33.94492	
54.47602	1702.987		-33.93727	
54.52997	1701.205		-33.92967	
54.58393	1699.417		-33.92211	
54.63788	1697.621		-33.91455	
54.69183	1695.818		-33.90701	
54.74578	1694.004		-33.89947	
54.79973	1692.177		-33.89194	
54.85368	1690.334		-33.8844	
54.90763	1688.478		-33.8768	
54.96159	1686.609		-33.86909	
55.01554	1684.727		-33.86117	
55.06949	1682.829		-33.85295	
55.12344	1680.919		-33.84437	
55.17739	1678.998		-33.83537	
55.23135	1677.071		-33.82592	
55.2853	1675.142		-33.81602	
55.33925	1673.218		-33.8057	
55.3932	1671.305		-33.79501	
55.44715	1669.407		-33.78401	
55.50111	1667.526		-33.77277	
55.55506	1665.661		-33.7614	
55.60901	1663.806		-33.74998	
55.66296	1661.951		-33.73862	
55.71692	1660.088		-33.7274	
55.77087	1658.214		-33.71641	
55.82482	1656.326		-33.70577	
55.87877	1654.424		-33.69558	
55.93272	1652.51		-33.68593	
55.98667	1650.592		-33.6769	
56.04063	1648.68		-33.66856	
56.09458	1646.783		-33.66092	
56.14853	1644.903		-33.65397	
56.20248	1643.042		-33.64771	
56.25643	1641.199		-33.64207	
56.31038	1639.371		-33.63701	
56.36433	1637.553		-33.63243	
56.41829	1635.74		-33.6282	
56.47224	1633.93		-33.62419	
56.52619	1632.122		-33.62021	
56.58014	1630.317		-33.61609	
56.63409	1628.516		-33.6116	
56.68805	1626.722		-33.60654	
56.742	1624.936		-33.6007	
56.79595	1623.16		-33.59386	
56.8499	1621.399		-33.58586	
56.90385	1619.66		-33.57652	
56.95781	1617.947		-33.56567	
57.01176	1616.259		-33.55318	
57.06571	1614.594		-33.53893	
57.11966	1612.949		-33.52286	
57.17361	1611.317		-33.50491	
57.22757	1609.686		-33.48507	
57.28152	1608.048		-33.46333	
57.33547	1606.399		-33.43975	
57.38942	1604.737		-33.41442	
57.44337	1603.062		-33.38748	
57.49732	1601.375		-33.35912	
57.55128	1599.682		-33.32957	
57.60523	1597.981		-33.29911	
57.65918	1596.266		-33.26804	
57.71313	1594.528		-33.23669	
57.76708	1592.764		-33.2054	
57.82103	1590.97		-33.17453	
57.87499	1589.142		-33.14444	
57.92894	1587.282		-33.11545	
57.98289	1585.39		-33.08786	
58.03684	1583.469		-33.06192	
58.09079	1581.523		-33.03781	
58.14474	1579.56		-33.01563	
58.1987	1577.59		-32.99545	
58.25265	1575.62		-32.97729	
58.3066	1573.654		-32.96112	
58.36055	1571.69		-32.94686	
58.41451	1569.725		-32.93439	
58.46846	1567.76		-32.9235	
58.52241	1565.8		-32.91396	
58.57636	1563.852		-32.90545	
58.63031	1561.922		-32.89761	
58.68427	1560.019		-32.89005	
58.73822	1558.145		-32.88232	
58.79217	1556.299		-32.87399	
58.84612	1554.479		-32.86459	
58.90007	1552.684		-32.85371	
58.95402	1550.916		-32.84093	
59.00798	1549.176		-32.82588	
59.06193	1547.464		-32.8082	
59.11588	1545.781		-32.78761	
59.16983	1544.123		-32.76383	
59.22378	1542.485		-32.73664	
59.27773	1540.862		-32.70588	
59.33169	1539.248		-32.67138	
59.38564	1537.637		-32.63309	
59.43959	1536.02		-32.59103	
59.49354	1534.392		-32.54525	
59.54749	1532.757		-32.49589	
59.60144	1531.116		-32.44317	
59.6554	1529.464		-32.38738	
59.70935	1527.797		-32.32885	
59.7633	1526.119		-32.26801	
59.81725	1524.438		-32.20528	
59.8712	1522.755		-32.14117	
59.92516	1521.065		-32.0762	
59.97911	1519.36		-32.01086	
60.03306	1517.632		-31.94565	
60.08701	1515.877		-31.88102	
60.14096	1514.094		-31.8174	
60.19492	1512.287		-31.75517	
60.24887	1510.464		-31.69466	
60.30282	1508.637		-31.63615	
60.35677	1506.815		-31.5799	
60.41072	1505.002		-31.52606	
60.46468	1503.201		-31.47472	
60.51863	1501.416		-31.42589	
60.57258	1499.644		-31.37948	
60.62653	1497.886		-31.33534	
60.68048	1496.147		-31.29325	
60.73443	1494.424		-31.25291	
60.78838	1492.71		-31.21397	
60.84234	1490.999		-31.176	
60.89629	1489.288		-31.13856	
60.95024	1487.579		-31.10114	
61.00419	1485.878		-31.06323	
61.05814	1484.19		-31.02434	
61.11209	1482.519		-30.98396	
61.16605	1480.868		-30.94159	
61.22	1479.241		-30.89676	
61.27395	1477.636		-30.849	
61.3279	1476.05		-30.79788	
61.38186	1474.478		-30.743	
61.43581	1472.916		-30.68402	
61.48976	1471.359		-30.62064	
61.54371	1469.805		-30.55258	
61.59766	1468.248		-30.47964	
61.65162	1466.676		-30.40163	
61.70557	1465.081		-30.31845	
61.75952	1463.459		-30.23005	
61.81347	1461.815		-30.13642	
61.86742	1460.153		-30.03763	
61.92138	1458.482		-29.93373	
61.97533	1456.807		-29.82487	
62.02928	1455.134		-29.71116	
62.08323	1453.469		-29.59278	
62.13718	1451.814		-29.46989	
62.19113	1450.165		-29.34266	
62.24508	1448.518		-29.21122	
62.29904	1446.87		-29.07569	
62.35299	1445.218		-28.93623	
62.40694	1443.557		-28.79288	
62.46089	1441.891		-28.64567	
62.51484	1440.223		-28.49458	
62.56879	1438.559		-28.3395	
62.62275	1436.903		-28.18031	
62.6767	1435.259		-28.01687	
62.73065	1433.632		-27.84896	
62.7846	1432.021		-27.67633	
62.83855	1430.425		-27.49869	
62.89251	1428.842		-27.31573	
62.94646	1427.271		-27.12707	
63.00041	1425.714		-26.93235	
63.05436	1424.174		-26.73124	
63.10831	1422.652		-26.52337	
63.16227	1421.151		-26.30843	
63.21622	1419.672		-26.08608	
63.27017	1418.21		-25.85604	
63.32412	1416.765		-25.61798	
63.37807	1415.338		-25.37162	
63.43203	1413.929		-25.11672	
63.48598	1412.533		-24.85304	
63.53993	1411.148		-24.58034	
63.59388	1409.775		-24.29843	
63.64783	1408.416		-24.00713	
63.70178	1407.076		-23.70626	
63.75574	1405.757		-23.39565	
63.80969	1404.463		-23.07516	
63.86364	1403.197		-22.74461	
63.91759	1401.955		-22.40381	
63.97154	1400.732		-22.05258	
64.0255	1399.525		-21.69073	
64.07944	1398.333		-21.31813	
64.1334	1397.155		-20.9345	
64.18735	1395.995		-20.53972	
64.2413	1394.849		-20.13345	
64.29526	1393.713		-19.71543	
64.34921	1392.58		-19.28542	
64.40316	1391.448		-18.84289	
64.45711	1390.316		-18.38755	
64.51106	1389.191		-17.91877	
64.56501	1388.078		-17.43616	
64.61897	1386.982		-16.93902	
64.67292	1385.908		-16.4268	
64.72687	1384.86		-15.89892	
64.78082	1383.845		-15.35456	
64.83477	1382.867		-14.79317	
64.88873	1381.924		-14.21388	
64.94267	1381.012		-13.61608	
64.99663	1380.13		-12.99887	
65.05058	1379.278		-12.36157	
65.10453	1378.46		-11.7035	
65.15849	1377.677		-11.02368	
65.21243	1376.93		-10.3215	
65.26639	1376.22		-9.595981	
65.32034	1375.549		-8.846471	
65.37429	1374.921		-8.071991	
65.42825	1374.341		-7.271842	
65.48219	1373.81		-6.445369	
65.53615	1373.328		-5.591581	
65.5901	1372.885		-4.709955	
65.64405	1372.471		-3.799487	
65.698	1372.08		-2.859609	
65.75195	1371.704		-1.889297	
65.80591	1371.344		-0.8878472	
65.85986	1371.001		0.1454372	
65.91381	1370.678		1.211717	
65.96776	1370.383		2.311576	
66.02171	1370.122		3.446203	
66.07566	1369.903		4.616225	
66.12962	1369.738		5.822817	
66.18357	1369.632		7.066729	
66.23752	1369.59		8.348669	
66.29147	1369.612		9.669898	
66.34542	1369.703		11.03094	
66.39938	1369.865		12.43303	
66.45332	1370.103		13.87673	
66.50728	1370.42		15.36321	
66.56123	1370.815		16.89312	
66.61518	1371.283		18.46701	
66.66914	1371.825		20.08611	
66.72308	1372.445		21.75071	
66.77704	1373.154		23.46199	
66.83099	1373.965		25.22039	
66.88494	1374.891		27.02628	
66.9389	1375.941		28.88071	
66.99284	1377.122		30.7837	
67.0468	1378.432		32.73623	
67.10075	1379.867		34.73822	
67.1547	1381.419		36.79067	
67.20866	1383.082		38.8937	
67.2626	1384.849		41.04737	
67.31656	1386.709		43.25262	
67.37051	1388.653		45.50907	
67.42446	1390.677		47.81758	
67.47841	1392.781		50.17763	
67.53236	1394.979		52.58998	
67.58632	1397.277		55.05432	
67.64027	1399.69		57.57032	
67.69422	1402.232		60.13865	
67.74817	1404.913		62.75854	
67.80212	1407.742		65.43066	
67.85607	1410.723		68.15418	
67.91003	1413.858		70.92976	
67.96398	1417.148		73.7569	
68.01793	1420.592		76.63506	
68.07188	1424.196		79.56492	
68.12583	1427.963		82.54548	
68.17979	1431.899		85.57739	
68.23373	1436.007		88.65958	
68.28769	1440.29		91.79262	
68.34164	1444.752		94.97575	
68.39559	1449.398		98.20811	
68.44955	1454.246		101.4901	
68.50349	1459.308		104.8203	
68.55745	1464.592		108.199	
68.6114	1470.101		111.6246	
68.66535	1475.835		115.0973	
68.71931	1481.791		118.616	
68.77325	1487.958		122.1793	
68.82721	1494.332		125.7873	
68.88116	1500.903		129.4381	
68.93511	1507.669		133.1317	
68.98906	1514.625		136.8659	
69.04301	1521.766		140.6407	
69.09697	1529.09		144.4543	
69.15092	1536.599		148.3047	
69.20487	1544.302		152.1917	
69.25882	1552.206		156.1124	
69.31277	1560.324		160.0663	
69.36672	1568.658		164.0503	
69.42068	1577.213		168.0633	
69.47463	1585.989		172.1024	
69.52858	1594.986		176.1645	
69.58253	1604.212		180.2479	
69.63648	1613.671		184.3484	
69.69044	1623.372		188.4638	
69.74438	1633.322		192.5893	
69.79834	1643.527		196.7222	
69.85229	1653.992		200.8577	
69.90624	1664.713		204.9908	
69.9602	1675.688		209.1179	
70.01414	1686.908		213.2325	
70.0681	1698.381		217.3305	
70.12206	1710.109		221.4054	
70.176	1722.099		225.4505	
70.22996	1734.365		229.4606	
70.28391	1746.908		233.4276	
70.33786	1759.734		237.3455	
70.39181	1772.839		241.206	
70.44576	1786.223		245.0023	
70.49972	1799.882		248.7262	
70.55367	1813.803		252.369	
70.60762	1827.979		255.9236	
70.66157	1842.393		259.3808	
70.71552	1857.038		262.7334	
70.76947	1871.905		265.972	
70.82343	1886.992		269.0894	
70.87738	1902.3		272.077	
70.93133	1917.823		274.9264	
70.98528	1933.564		277.6304	
71.03923	1949.526		280.1807	
71.09319	1965.723		282.5706	
71.14713	1982.161		284.7924	
71.20109	1998.85		286.8401	
71.25504	2015.796		288.7072	
71.30899	2033		290.3875	
71.36295	2050.468		291.8763	
71.41689	2068.184		293.1685	
71.47085	2086.139		294.2601	
71.5248	2104.309		295.1472	
71.57875	2122.682		295.8271	
71.63271	2141.238		296.2972	
71.68665	2159.954		296.5556	
71.74061	2178.822		296.601	
71.79456	2197.825		296.4329	
71.84851	2216.963		296.0511	
71.90246	2236.22		295.4563	
71.95641	2255.585		294.6494	
72.01037	2275.031		293.6319	
72.06432	2294.523		292.4063	
72.11827	2314.03		290.9747	
72.17222	2333.507		289.3407	
72.22617	2352.918		287.507	
72.28012	2372.218		285.4783	
72.33408	2391.371		283.258	
72.38803	2410.336		280.851	
72.44198	2429.077		278.2628	
72.49593	2447.56		275.4978	
72.54988	2465.738		272.5624	
72.60384	2483.581		269.4616	
72.65778	2501.051		266.2024	
72.71174	2518.127		262.7902	
72.76569	2534.783		259.2321	
72.81964	2550.998		255.5356	
72.8736	2566.759		251.7064	
72.92754	2582.041		247.7529	
72.9815	2596.839		243.6814	
73.03545	2611.151		239.5006	
73.0894	2624.98		235.2169	
73.14336	2638.33		230.839	
73.1973	2651.204		226.3753	
73.25126	2663.614		221.8329	
73.30521	2675.56		217.2214	
73.35916	2687.042		212.548	
73.41312	2698.055		207.822	
73.46706	2708.59		203.0529	
73.52102	2718.65		198.248	
73.57497	2728.245		193.4179	
73.62892	2737.391		188.5699	
73.68287	2746.101		183.7145	
73.73682	2754.394		178.8593	
73.79078	2762.292		174.0138	
73.84473	2769.827		169.1876	
73.89868	2777.034		164.388	
73.95263	2783.936		159.6249	
74.00658	2790.555		154.9052	
74.06053	2796.909		150.2382	
74.11449	2803.014		145.6304	
74.16844	2808.877		141.0897	
74.22239	2814.5		136.6237	
74.27634	2819.885		132.2375	
74.33029	2825.031		127.9384	
74.38425	2829.948		123.7307	
74.43819	2834.65		119.6203	
74.49215	2839.156		115.6106	
74.5461	2843.483		111.7059	
74.60005	2847.654		107.9099	
74.65401	2851.699		104.2241	
74.70795	2855.643		100.6515	
74.76191	2859.51		97.19246	
74.81586	2863.313		93.84876	
74.86981	2867.062		90.61962	
74.92377	2870.759		87.50519	
74.97771	2874.402		84.50506	
75.03167	2877.98		81.61711	
75.08562	2881.471		78.84049	
75.13957	2884.866		76.17239	
75.19352	2888.158		73.6112	
75.24747	2891.35		71.15357	
75.30143	2894.448		68.79704	
75.35538	2897.464		66.53887	
75.40933	2900.405		64.37527	
75.46328	2903.273		62.30347	
75.51723	2906.075		60.31946	
75.57118	2908.816		58.42025	
75.62514	2911.5		56.60172	
75.67909	2914.116		54.86057	
75.73304	2916.653		53.19346	
75.78699	2919.105		51.59643	
75.84094	2921.479		50.06652	
75.8949	2923.786		48.60001	
75.94884	2926.028		47.19423	
76.0028	2928.199		45.84581	
76.05676	2930.297		44.5522	
76.1107	2932.328		43.31097	
76.16466	2934.309		42.11936	
76.21861	2936.259		40.97545	
76.27256	2938.187		39.87684	
76.32651	2940.094		38.82188	
76.38046	2941.981		37.8084	
76.43442	2943.853		36.83479	
76.48837	2945.711		35.89952	
76.54232	2947.55		35.00079	
76.59627	2949.364		34.13737	
76.65022	2951.146		33.3076	
76.70418	2952.89		32.51027	
76.75813	2954.585		31.74418	
76.81208	2956.223		31.00786	
76.86603	2957.793		30.30025	
76.91998	2959.286		29.61994	
76.97393	2960.699		28.96595	
77.02789	2962.038		28.33698	
77.08184	2963.313		27.73208	
77.13579	2964.529		27.15038	
77.18974	2965.684		26.59087	
77.24369	2966.781		26.05294	
77.29765	2967.82		25.5358	
77.35159	2968.799		25.03906	
77.40555	2969.714		24.56215	
77.4595	2970.561		24.10481	
77.51345	2971.346		23.66682	
77.56741	2972.083		23.24784	
77.62135	2972.783		22.84782	
77.67531	2973.458		22.46648	
77.72926	2974.115		22.10378	
77.78321	2974.768		21.75946	
77.83717	2975.441		21.43346	
77.89111	2976.161		21.12573	
77.94507	2976.943		20.83614	
77.99902	2977.793		20.56476	
78.05297	2978.702		20.31152	
78.10692	2979.662		20.07652	
78.16087	2980.672		19.85972	
78.21483	2981.726		19.66118	
78.26878	2982.807		19.48092	
78.32273	2983.896		19.31886	
78.37668	2984.981		19.17496	
78.43063	2986.052		19.04902	
78.48458	2987.109		18.94085	
78.53854	2988.154		18.8501	
78.59249	2989.191		18.77635	
78.64644	2990.223		18.71906	
78.70039	2991.261		18.67751	
78.75434	2992.317		18.65088	
78.8083	2993.402		18.63821	
78.86224	2994.515		18.63842	
78.9162	2995.639		18.65034	
78.97015	2996.752		18.6727	
79.0241	2997.835		18.70419	
79.07806	2998.875		18.7435	
79.132	2999.859		18.78934	
79.18596	3000.784		18.84051	
79.23991	3001.656		18.89583	
79.29386	3002.489		18.95426	
79.34782	3003.295		19.01484	
79.40176	3004.085		19.0767	
79.45572	3004.871		19.13914	
79.50967	3005.666		19.20152	
79.56362	3006.487		19.26332	
79.61757	3007.348		19.32409	
79.67152	3008.256		19.38348	
79.72548	3009.212		19.44121	
79.77943	3010.21		19.49714	
79.83338	3011.244		19.55122	
79.88733	3012.304		19.60355	
79.94128	3013.384		19.65433	
79.99524	3014.477		19.70386	
80.04919	3015.577		19.75252	
80.10314	3016.681		19.80076	
80.15709	3017.791		19.84907	
80.21104	3018.908		19.89796	
80.26499	3020.035		19.94798	
80.31895	3021.174		19.99965	
80.3729	3022.333		20.05352	
80.42685	3023.524		20.11006	
80.4808	3024.759		20.16973	
80.53475	3026.042		20.23287	
80.58871	3027.371		20.29971	
80.64265	3028.734		20.37033	
80.69661	3030.112		20.44468	
80.75056	3031.482		20.52254	
80.80451	3032.831		20.60354	
80.85847	3034.153		20.68718	
80.91241	3035.443		20.77276	
80.96637	3036.697		20.85943	
81.02032	3037.91		20.94615	
81.07427	3039.069		21.0318	
81.12823	3040.171		21.11513	
81.18217	3041.215		21.19482	
81.23613	3042.213		21.26954	
81.29008	3043.176		21.33791	
81.34403	3044.115		21.39855	
81.39798	3045.033		21.45009	
81.45193	3045.935		21.49124	
81.50589	3046.831		21.5207	
81.55984	3047.726		21.53721	
81.61379	3048.632		21.53956	
81.66774	3049.563		21.52658	
81.72169	3050.535		21.49714	
81.77564	3051.556		21.45025	
81.8296	3052.629		21.38494	
81.88355	3053.748		21.30041	
81.9375	3054.902		21.19595	
81.99146	3056.085		21.07092	
82.0454	3057.293		20.92483	
82.09936	3058.524		20.75719	
82.15331	3059.772		20.56768	
82.20726	3061.029		20.35595	
82.26122	3062.286		20.12181	
82.31516	3063.544		19.86515	
82.36912	3064.812		19.58585	
82.42307	3066.097		19.28399	
82.47702	3067.405		18.95954	
82.53097	3068.741		18.61269	
82.58492	3070.118		18.24345	
82.63888	3071.539		17.85201	
82.69283	3072.996		17.43856	
82.74678	3074.474		17.00315	
82.80073	3075.957		16.54605	
82.85468	3077.433		16.06731	
82.90863	3078.893		15.56718	
82.96259	3080.333		15.04558	
83.01654	3081.737		14.5026	
83.07049	3083.085		13.93828	
83.12444	3084.365		13.35237	
83.17839	3085.571		12.74492	
83.23235	3086.712		12.11561	
83.28629	3087.799		11.46449	
83.34025	3088.846		10.79125	
83.3942	3089.863		10.09588	
83.44815	3090.857		9.378398	
83.50211	3091.827		8.638587	
83.55605	3092.757		7.876679	
83.61001	3093.629		7.092544	
83.66396	3094.427		6.28643	
83.71791	3095.138		5.458662	
83.77187	3095.755		4.609286	
83.82581	3096.267		3.738901	
83.87977	3096.668		2.847706	
83.93372	3096.95		1.9365	
83.98767	3097.112		1.005667	
84.04163	3097.157		0.05606599	
84.09557	3097.094		-0.9113554	
84.14953	3096.931		-1.895987	
84.20348	3096.671		-2.896595	
84.25743	3096.32		-3.912428	
84.31138	3095.887		-4.942082	
84.36533	3095.383		-5.984634	
84.41929	3094.814		-7.038627	
84.47324	3094.188		-8.102499	
84.52719	3093.519		-9.175045	
84.58114	3092.818		-10.25437	
84.63509	3092.087		-11.33909	
84.68904	3091.322		-12.42715	
84.743	3090.511		-13.51705	
84.79695	3089.641		-14.60681	
84.8509	3088.704		-15.69447	
84.90485	3087.704		-16.77855	
84.9588	3086.649		-17.85703	
85.01276	3085.55		-18.92852	
85.0667	3084.413		-19.99117	
85.12066	3083.237		-21.04385	
85.17461	3082.018		-22.08504	
85.22856	3080.747		-23.11334	
85.28252	3079.419		-24.12788	
85.33646	3078.034		-25.12729	
85.39042	3076.597		-26.11087	
85.44437	3075.113		-27.07747	
85.49832	3073.583		-28.02659	
85.55228	3072.008		-28.9574	
85.60622	3070.384		-29.86919	
85.66018	3068.699		-30.76173	
85.71413	3066.945		-31.6344	
85.76808	3065.117		-32.48719	
85.82203	3063.222		-33.31975	
85.87598	3061.266		-34.13228	
85.92994	3059.259		-34.92478	
85.98389	3057.203		-35.69733	
86.03784	3055.095		-36.45046	
86.09179	3052.928		-37.18433	
86.14574	3050.693		-37.89959	
86.19969	3048.385		-38.59656	
86.25365	3046.006		-39.276	
86.3076	3043.563		-39.93842	
86.36155	3041.062		-40.58434	
86.4155	3038.503		-41.21452	
86.46945	3035.895		-41.82936	
86.52341	3033.251		-42.42954	
86.57735	3030.583		-43.01538	
86.63131	3027.906		-43.58748	
86.68526	3025.23		-44.14611	
86.73921	3022.56		-44.69149	
86.79317	3019.89		-45.22404	
86.84711	3017.211		-45.74377	
86.90107	3014.513		-46.25098	
86.95502	3011.785		-46.74568	
87.00897	3009.021		-47.22785	
87.06293	3006.216		-47.69769	
87.11687	3003.379		-48.15511	
87.17083	3000.516		-48.6003	
87.22478	2997.635		-49.03322	
87.27873	2994.75		-49.45403	
87.33269	2991.869		-49.86272	
87.38663	2989.002		-50.25932	
87.44059	2986.158		-50.644	
87.49454	2983.351		-51.01674	
87.54849	2980.589		-51.37773	
87.60244	2977.865		-51.72693	
87.65639	2975.157		-52.06452	
87.71035	2972.446		-52.39054	
87.7643	2969.712		-52.70504	
87.81825	2966.947		-53.00828	
87.8722	2964.15		-53.30036	
87.92616	2961.321		-53.58162	
87.9801	2958.469		-53.8523	
88.03406	2955.604		-54.11283	
88.08801	2952.733		-54.36357	
88.14196	2949.856		-54.60493	
88.19592	2946.977		-54.83741	
88.24986	2944.097		-55.06145	
88.30382	2941.216		-55.27764	
88.35777	2938.327		-55.48646	
88.41172	2935.419		-55.68853	
88.46568	2932.482		-55.88437	
88.51962	2929.502		-56.07448	
88.57358	2926.47		-56.2594	
88.62753	2923.388		-56.43953	
88.68148	2920.26		-56.61537	
88.73543	2917.097		-56.7873	
88.78938	2913.905		-56.95577	
88.84334	2910.696		-57.12115	
88.89729	2907.478		-57.28381	
88.95124	2904.258		-57.44413	
89.00519	2901.04		-57.60244	
89.05914	2897.825		-57.75913	
89.11309	2894.612		-57.91447	
89.16705	2891.389		-58.06879	
89.221	2888.15		-58.22229	
89.27495	2884.892		-58.37511	
89.3289	2881.612		-58.52741	
89.38285	2878.31		-58.67916	
89.43681	2874.995		-58.83039	
89.49075	2871.679		-58.98097	
89.54471	2868.375		-59.13082	
89.59866	2865.09		-59.27974	
89.65261	2861.822		-59.4275	
89.70657	2858.56		-59.57384	
89.76051	2855.298		-59.71843	
89.81447	2852.031		-59.86094	
89.86842	2848.758		-60.00093	
89.92237	2845.479		-60.13801	
89.97633	2842.2		-60.27174	
90.03027	2838.919		-60.40168	
90.08423	2835.631		-60.52743	
90.13818	2832.333		-60.64853	
90.19213	2829.029		-60.76458	
90.24609	2825.721		-60.8752	
90.30003	2822.413		-60.98007	
90.35399	2819.108		-61.07899	
90.40794	2815.818		-61.17175	
90.46189	2812.548		-61.25819	
90.51584	2809.297		-61.33815	
90.56979	2806.06		-61.41154	
90.62375	2802.836		-61.47821	
90.6777	2799.623		-61.53805	
90.73165	2796.415		-61.59101	
90.7856	2793.207		-61.63705	
90.83955	2789.992		-61.67622	
90.8935	2786.768		-61.70861	
90.94746	2783.528		-61.7344	
91.00141	2780.274		-61.75384	
91.05536	2777.004		-61.7673	
91.10931	2773.719		-61.7752	
91.16326	2770.418		-61.77806	
91.21722	2767.095		-61.77638	
91.27116	2763.743		-61.77074	
91.32512	2760.357		-61.76171	
91.37907	2756.936		-61.74983	
91.43302	2753.482		-61.73567	
91.48698	2749.995		-61.71973	
91.54092	2746.481		-61.70253	
91.59488	2742.945		-61.68452	
91.64883	2739.396		-61.66613	
91.70278	2735.84		-61.64773	
91.75674	2732.286		-61.62965	
91.81068	2728.735		-61.61218	
91.86464	2725.184		-61.59556	
91.91859	2721.637		-61.57998	
91.97254	2718.1		-61.56556	
92.02649	2714.576		-61.55239	
92.08044	2711.068		-61.54047	
92.1344	2707.577		-61.52973	
92.18835	2704.11		-61.52007	
92.2423	2700.67		-61.5113	
92.29625	2697.259		-61.50327	
92.3502	2693.881		-61.49576	
92.40415	2690.547		-61.4886	
92.45811	2687.259		-61.48193	
92.51206	2684.013		-61.47942	
92.56601	2680.8		-61.47952	
92.61996	2677.614		-61.48092	
92.67391	2674.448		-61.48265	
92.72787	2671.293		-61.48409	
92.78181	2668.14		-61.48489	
92.83577	2664.982		-61.48484	
92.88972	2661.816		-61.48387	
92.94367	2658.646		-61.48197	
92.99763	2655.471		-61.47918	
93.05157	2652.301		-61.47556	
93.10553	2649.141		-61.47119	
93.15948	2645.994		-61.46616	
93.21343	2642.863		-61.46055	
93.26739	2639.746		-61.45447	
93.32133	2636.639		-61.44801	
93.37529	2633.539		-61.44126	
93.42924	2630.438		-61.43433	
93.48319	2627.329		-61.42729	
93.53715	2624.195		-61.42025	
93.59109	2621.02		-61.41329	
93.64505	2617.793		-61.40648	
93.699	2614.514		-61.3999	
93.75295	2611.193		-61.39362	
93.8069	2607.841		-61.38771	
93.86086	2604.469		-61.38223	
93.91481	2601.089		-61.37723	
93.96876	2597.715		-61.37278	
94.02271	2594.351		-61.36891	
94.07666	2590.949		-61.36568	
94.13062	2587.55		-61.36312	
94.18456	2584.148		-61.36127	
94.23852	2580.74		-61.36016	
94.29247	2577.323		-61.35982	
94.34642	2573.898		-61.36026	
94.40038	2570.465		-61.3615	
94.45432	2567.024		-61.36356	
94.50828	2563.575		-61.36644	
94.56223	2560.121		-61.37015	
94.61618	2556.661		-61.37469	
94.67014	2553.199		-61.38007	
94.72408	2549.735		-61.38626	
94.77804	2546.269		-61.39328	
94.83199	2542.802		-61.40111	
94.88594	2539.334		-61.40973	
94.93989	2535.866		-61.41913	
94.99384	2532.397		-61.42929	
