T[Â°C]	350nm [counts / mm]	S.D.	First derivative	S.D. of first derivative
20.00044	2810.904		-41.75925	
20.05439	2808.721		-41.71946	
20.10834	2806.536		-41.67919	
20.16229	2804.35		-41.63842	
20.21624	2802.162		-41.59716	
20.27019	2799.971		-41.5554	
20.32414	2797.779		-41.51314	
20.37809	2795.585		-41.4704	
20.43204	2793.39		-41.42717	
20.48598	2791.194		-41.38346	
20.53993	2788.998		-41.33931	
20.59388	2786.804		-41.2947	
20.64783	2784.612		-41.24966	
20.70178	2782.424		-41.20422	
20.75573	2780.241		-41.15839	
20.80968	2778.065		-41.11221	
20.86363	2775.896		-41.06569	
20.91758	2773.733		-41.01888	
20.97153	2771.575		-40.9718	
21.02548	2769.405		-40.9245	
21.07943	2767.216		-40.877	
21.13338	2765.009		-40.82936	
21.18733	2762.785		-40.78162	
21.24128	2760.545		-40.73383	
21.29523	2758.286		-40.68604	
21.34917	2756.007		-40.6383	
21.40312	2753.713		-40.59066	
21.45707	2751.411		-40.54317	
21.51102	2749.105		-40.49588	
21.56497	2746.802		-40.44884	
21.61892	2744.505		-40.40209	
21.67287	2742.219		-40.35567	
21.72682	2739.94		-40.30962	
21.78077	2737.66		-40.26397	
21.83472	2735.373		-40.21876	
21.88867	2733.081		-40.17399	
21.94262	2730.781		-40.1297	
21.99657	2728.472		-40.08588	
22.05052	2726.159		-40.04253	
22.10447	2723.855		-39.99963	
22.15841	2721.569		-39.95712	
22.21236	2719.305		-39.9149	
22.26631	2717.073		-39.87282	
22.32026	2714.884		-39.83064	
22.37421	2712.742		-39.78796	
22.42816	2710.641		-39.74424	
22.48211	2708.572		-39.69871	
22.53606	2706.53		-39.65039	
22.59001	2704.507		-39.59828	
22.64396	2702.497		-39.55227	
22.69791	2700.497		-39.50671	
22.75186	2698.506		-39.46168	
22.80581	2696.523		-39.41724	
22.85976	2694.544		-39.37344	
22.91371	2692.567		-39.33031	
22.96766	2690.586		-39.28788	
23.0216	2688.593		-39.2462	
23.07555	2686.585		-39.2053	
23.1295	2684.564		-39.16524	
23.18345	2682.536		-39.12608	
23.2374	2680.509		-39.08792	
23.29135	2678.483		-39.05086	
23.3453	2676.463		-39.01503	
23.39925	2674.442		-38.98059	
23.4532	2672.411		-38.94769	
23.50715	2670.362		-38.91649	
23.5611	2668.292		-38.8871	
23.61505	2666.203		-38.85963	
23.669	2664.098		-38.83414	
23.72295	2661.979		-38.81063	
23.7769	2659.853		-38.78905	
23.83084	2657.729		-38.76931	
23.88479	2655.616		-38.75127	
23.93874	2653.514		-38.73473	
23.99269	2651.424		-38.71948	
24.04664	2649.343		-38.70527	
24.10059	2647.271		-38.69185	
24.15454	2645.203		-38.67898	
24.20849	2643.13		-38.66645	
24.26244	2641.05		-38.65405	
24.31639	2638.963		-38.64164	
24.37034	2636.87		-38.62912	
24.42429	2634.775		-38.61641	
24.47824	2632.677		-38.60351	
24.53218	2630.578		-38.5904	
24.58613	2628.479		-38.57715	
24.64008	2626.38		-38.5638	
24.69403	2624.273		-38.55042	
24.74798	2622.158		-38.53706	
24.80193	2620.033		-38.5238	
24.85588	2617.902		-38.51068	
24.90983	2615.768		-38.49775	
24.96378	2613.63		-38.48503	
25.01773	2611.483		-38.47249	
25.07168	2609.326		-38.46011	
25.12563	2607.151		-38.44786	
25.17958	2604.957		-38.43571	
25.23353	2602.749		-38.42361	
25.28748	2600.538		-38.41158	
25.34142	2598.338		-38.3996	
25.39537	2596.159		-38.38771	
25.44932	2594.008		-38.37596	
25.50327	2591.885		-38.3644	
25.55722	2589.79		-38.35303	
25.61117	2587.718		-38.34191	
25.66512	2585.663		-38.33103	
25.71907	2583.619		-38.3204	
25.77302	2581.583		-38.31002	
25.82697	2579.553		-38.29985	
25.88092	2577.53		-38.28984	
25.93487	2575.508		-38.27991	
25.98882	2573.486		-38.26994	
26.04277	2571.468		-38.25984	
26.09672	2569.46		-38.24953	
26.15067	2567.474		-38.23898	
26.20461	2565.514		-38.2282	
26.25856	2563.583		-38.21722	
26.31251	2561.679		-38.2061	
26.36646	2559.795		-38.19489	
26.42041	2557.92		-38.1837	
26.47436	2556.045		-38.1726	
26.52831	2554.161		-38.16168	
26.58226	2552.26		-38.15108	
26.63621	2550.334		-38.14094	
26.69016	2548.376		-38.13144	
26.74411	2546.379		-38.12281	
26.79806	2544.337		-38.11526	
26.85201	2542.257		-38.10906	
26.90596	2540.148		-38.10442	
26.95991	2538.023		-38.10157	
27.01385	2535.894		-38.10068	
27.0678	2533.773		-38.10191	
27.12175	2531.663		-38.10537	
27.1757	2529.562		-38.11109	
27.22965	2527.468		-38.11908	
27.2836	2525.38		-38.1293	
27.33755	2523.29		-38.14164	
27.3915	2521.194		-38.15597	
27.44545	2519.087		-38.17208	
27.4994	2516.97		-38.18967	
27.55335	2514.845		-38.20839	
27.6073	2512.715		-38.2278	
27.66125	2510.581		-38.24745	
27.7152	2508.447		-38.26689	
27.76915	2506.314		-38.28568	
27.8231	2504.186		-38.30341	
27.87704	2502.066		-38.31967	
27.93099	2499.957		-38.33406	
27.98494	2497.86		-38.34619	
28.03889	2495.775		-38.35571	
28.09284	2493.706		-38.3623	
28.14679	2491.657		-38.36573	
28.20074	2489.631		-38.36578	
28.25469	2487.622		-38.36228	
28.30864	2485.624		-38.35511	
28.36259	2483.627		-38.34417	
28.41654	2481.628		-38.32943	
28.47049	2479.621		-38.31085	
28.52444	2477.603		-38.28848	
28.57839	2475.574		-38.26243	
28.63234	2473.526		-38.23287	
28.68629	2471.449		-38.20004	
28.74023	2469.336		-38.16422	
28.79418	2467.193		-38.12577	
28.84813	2465.031		-38.08509	
28.90208	2462.857		-38.0426	
28.95603	2460.68		-37.99876	
29.00998	2458.51		-37.95404	
29.06393	2456.356		-37.90895	
29.11788	2454.222		-37.86397	
29.17183	2452.108		-37.81955	
29.22578	2450.014		-37.77607	
29.27973	2447.936		-37.73391	
29.33368	2445.867		-37.69335	
29.38763	2443.8		-37.65465	
29.44158	2441.731		-37.61799	
29.49553	2439.653		-37.58349	
29.54947	2437.562		-37.5512	
29.60342	2435.456		-37.52109	
29.65737	2433.342		-37.49309	
29.71132	2431.237		-37.4671	
29.76527	2429.157		-37.44302	
29.81922	2427.11		-37.42074	
29.87317	2425.096		-37.40013	
29.92712	2423.114		-37.38106	
29.98107	2421.158		-37.3634	
30.03502	2419.226		-37.34699	
30.08897	2417.321		-37.33168	
30.14292	2415.449		-37.31733	
30.19687	2413.608		-37.30376	
30.25082	2411.786		-37.29083	
30.30477	2409.963		-37.27838	
30.35872	2408.118		-37.26627	
30.41266	2406.243		-37.25438	
30.46661	2404.336		-37.24261	
30.52056	2402.407		-37.23087	
30.57451	2400.47		-37.21912	
30.62846	2398.532		-37.20733	
30.68241	2396.596		-37.19547	
30.73636	2394.663		-37.18352	
30.79031	2392.738		-37.1715	
30.84426	2390.823		-37.15942	
30.89821	2388.915		-37.14732	
30.95216	2387.006		-37.13523	
31.00611	2385.093		-37.12321	
31.06006	2383.173		-37.11126	
31.11401	2381.238		-37.09938	
31.16796	2379.28		-37.08752	
31.2219	2377.292		-37.07558	
31.27585	2375.27		-37.06346	
31.3298	2373.207		-37.05106	
31.38375	2371.103		-37.03827	
31.4377	2368.969		-37.02499	
31.49165	2366.816		-37.01112	
31.5456	2364.653		-36.99655	
31.59955	2362.486		-36.98121	
31.6535	2360.324		-36.965	
31.70745	2358.182		-36.94784	
31.7614	2356.072		-36.92966	
31.81535	2353.998		-36.91039	
31.8693	2351.956		-36.88998	
31.92325	2349.94		-36.86838	
31.9772	2347.938		-36.84554	
32.03114	2345.936		-36.82141	
32.08509	2343.926		-36.79594	
32.13904	2341.905		-36.7691	
32.19299	2339.87		-36.74087	
32.24694	2337.824		-36.71127	
32.30089	2335.765		-36.68034	
32.35484	2333.701		-36.64815	
32.40879	2331.637		-36.61479	
32.46274	2329.581		-36.58039	
32.51669	2327.541		-36.54509	
32.57064	2325.524		-36.50904	
32.62459	2323.531		-36.47243	
32.67854	2321.555		-36.43541	
32.73249	2319.592		-36.39812	
32.78643	2317.634		-36.36069	
32.84039	2315.67		-36.32325	
32.89433	2313.695		-36.28594	
32.94828	2311.7		-36.2489	
33.00223	2309.686		-36.21229	
33.05618	2307.657		-36.17625	
33.11013	2305.623		-36.1409	
33.16408	2303.599		-36.10632	
33.21803	2301.603		-36.07261	
33.27198	2299.644		-36.03982	
33.32593	2297.729		-36.00808	
33.37988	2295.856		-35.97749	
33.43383	2294.019		-35.94817	
33.48778	2292.213		-35.92023	
33.54173	2290.43		-35.89379	
33.59568	2288.664		-35.86898	
33.64962	2286.907		-35.8459	
33.70358	2285.156		-35.82462	
33.75752	2283.408		-35.80523	
33.81147	2281.654		-35.78775	
33.86542	2279.889		-35.77223	
33.91937	2278.11		-35.75873	
33.97332	2276.32		-35.74731	
34.02727	2274.522		-35.73803	
34.08122	2272.719		-35.73096	
34.13517	2270.911		-35.72612	
34.18912	2269.1		-35.72357	
34.24307	2267.285		-35.72334	
34.29702	2265.46		-35.72548	
34.35097	2263.616		-35.72998	
34.40491	2261.744		-35.73684	
34.45887	2259.833		-35.74602	
34.51281	2257.88		-35.75743	
34.56676	2255.885		-35.77095	
34.62071	2253.856		-35.78645	
34.67466	2251.801		-35.80372	
34.72861	2249.733		-35.82256	
34.78256	2247.663		-35.84273	
34.83651	2245.6		-35.86394	
34.89046	2243.55		-35.8859	
34.94441	2241.512		-35.90833	
34.99836	2239.488		-35.93096	
35.05231	2237.475		-35.95353	
35.10626	2235.474		-35.97578	
35.16021	2233.491		-35.99746	
35.21416	2231.527		-36.01832	
35.2681	2229.585		-36.03812	
35.32206	2227.66		-36.05661	
35.376	2225.743		-36.07357	
35.42995	2223.823		-36.08878	
35.4839	2221.893		-36.10202	
35.53785	2219.945		-36.11309	
35.5918	2217.976		-36.1218	
35.64575	2215.988		-36.12797	
35.6997	2213.993		-36.13144	
35.75365	2211.999		-36.13205	
35.8076	2210.009		-36.12968	
35.86155	2208.026		-36.1242	
35.9155	2206.048		-36.11553	
35.96945	2204.074		-36.10362	
36.0234	2202.101		-36.08845	
36.07735	2200.123		-36.07002	
36.13129	2198.136		-36.04838	
36.18525	2196.137		-36.02357	
36.23919	2194.126		-35.99567	
36.29314	2192.105		-35.96481	
36.34709	2190.079		-35.93114	
36.40104	2188.049		-35.89484	
36.45499	2186.017		-35.85616	
36.50894	2183.979		-35.81531	
36.56289	2181.939		-35.77256	
36.61684	2179.905		-35.72815	
36.67079	2177.889		-35.68235	
36.72474	2175.901		-35.6354	
36.77869	2173.948		-35.58754	
36.83263	2172.035		-35.53901	
36.88659	2170.156		-35.49002	
36.94053	2168.304		-35.44077	
36.99448	2166.47		-35.39146	
37.04843	2164.648		-35.3423	
37.10238	2162.832		-35.29348	
37.15633	2161.019		-35.24521	
37.21028	2159.202		-35.19766	
37.26423	2157.38		-35.15098	
37.31818	2155.551		-35.10527	
37.37213	2153.717		-35.06065	
37.42608	2151.884		-35.01716	
37.48003	2150.053		-34.97488	
37.53398	2148.22		-34.93386	
37.58792	2146.379		-34.89415	
37.64188	2144.526		-34.85578	
37.69582	2142.661		-34.8188	
37.74977	2140.785		-34.7832	
37.80372	2138.902		-34.74899	
37.85767	2137.015		-34.71613	
37.91162	2135.127		-34.68457	
37.96557	2133.241		-34.65422	
38.01952	2131.361		-34.62498	
38.07347	2129.486		-34.59674	
38.12742	2127.615		-34.56933	
38.18137	2125.749		-34.54263	
38.23532	2123.887		-34.51648	
38.28927	2122.03		-34.49079	
38.34322	2120.179		-34.46545	
38.39717	2118.336		-34.44036	
38.45111	2116.498		-34.41548	
38.50507	2114.661		-34.39074	
38.55901	2112.828		-34.36612	
38.61296	2111.004		-34.3416	
38.66691	2109.196		-34.3172	
38.72086	2107.413		-34.2929	
38.77481	2105.657		-34.26875	
38.82876	2103.922		-34.24474	
38.88271	2102.198		-34.22087	
38.93666	2100.469		-34.19713	
38.99061	2098.722		-34.17352	
39.04456	2096.948		-34.15002	
39.09851	2095.144		-34.12669	
39.15246	2093.31		-34.10357	
39.20641	2091.444		-34.0808	
39.26036	2089.547		-34.05847	
39.3143	2087.625		-34.03669	
39.36826	2085.681		-34.01556	
39.4222	2083.724		-33.99516	
39.47615	2081.759		-33.97558	
39.5301	2079.793		-33.95689	
39.58405	2077.828		-33.93918	
39.638	2075.866		-33.9225	
39.69195	2073.908		-33.90691	
39.7459	2071.958		-33.89243	
39.79985	2070.021		-33.87905	
39.8538	2068.1		-33.86675	
39.90775	2066.195		-33.85548	
39.9617	2064.306		-33.84518	
40.01565	2062.43		-33.83573	
40.0696	2060.565		-33.82701	
40.12355	2058.71		-33.8189	
40.17749	2056.875		-33.81124	
40.23145	2055.069		-33.80391	
40.28539	2053.298		-33.79681	
40.33934	2051.567		-33.78984	
40.39329	2049.867		-33.78293	
40.44724	2048.187		-33.77603	
40.50119	2046.516		-33.76908	
40.55514	2044.843		-33.76206	
40.60909	2043.162		-33.75493	
40.66304	2041.469		-33.74767	
40.71699	2039.764		-33.74027	
40.77094	2038.044		-33.73271	
40.82489	2036.308		-33.72494	
40.87884	2034.552		-33.71693	
40.93279	2032.78		-33.70861	
40.98674	2030.992		-33.69989	
41.04068	2029.192		-33.69072	
41.09464	2027.383		-33.68106	
41.14858	2025.566		-33.67093	
41.20253	2023.739		-33.66037	
41.25648	2021.906		-33.64948	
41.31043	2020.068		-33.63831	
41.36438	2018.23		-33.62691	
41.41833	2016.399		-33.61533	
41.47228	2014.579		-33.6036	
41.52623	2012.772		-33.5917	
41.58018	2010.974		-33.57965	
41.63413	2009.173		-33.56746	
41.68808	2007.358		-33.5551	
41.74203	2005.518		-33.54256	
41.79597	2003.654		-33.52981	
41.84993	2001.77		-33.5168	
41.90387	1999.881		-33.50344	
41.95782	1998		-33.48965	
42.01177	1996.136		-33.47535	
42.06572	1994.295		-33.46043	
42.11967	1992.478		-33.44477	
42.17362	1990.683		-33.42826	
42.22757	1988.906		-33.41076	
42.28152	1987.137		-33.39218	
42.33547	1985.371		-33.37246	
42.38942	1983.597		-33.35154	
42.44337	1981.807		-33.32941	
42.49732	1979.993		-33.30606	
42.55127	1978.15		-33.28153	
42.60522	1976.277		-33.25584	
42.65916	1974.383		-33.22907	
42.71312	1972.481		-33.20134	
42.76706	1970.583		-33.17275	
42.82101	1968.699		-33.14345	
42.87496	1966.831		-33.11356	
42.92891	1964.977		-33.08318	
42.98286	1963.135		-33.0524	
43.03681	1961.305		-33.02129	
43.09076	1959.486		-32.98993	
43.14471	1957.676		-32.95839	
43.19866	1955.869		-32.92675	
43.25261	1954.063		-32.89505	
43.30656	1952.252		-32.86334	
43.36051	1950.434		-32.83162	
43.41446	1948.61		-32.7999	
43.46841	1946.786		-32.76818	
43.52235	1944.975		-32.73646	
43.57631	1943.193		-32.70479	
43.63025	1941.448		-32.67324	
43.6842	1939.741		-32.64187	
43.73815	1938.071		-32.61079	
43.7921	1936.428		-32.58007	
43.84605	1934.804		-32.5498	
43.9	1933.189		-32.52007	
43.95395	1931.575		-32.49094	
44.0079	1929.955		-32.46247	
44.06185	1928.327		-32.43471	
44.1158	1926.689		-32.40766	
44.16975	1925.041		-32.38132	
44.2237	1923.378		-32.35567	
44.27765	1921.701		-32.33071	
44.3316	1920.011		-32.30644	
44.38554	1918.313		-32.28289	
44.4395	1916.615		-32.26011	
44.49344	1914.918		-32.23819	
44.54739	1913.217		-32.21722	
44.60134	1911.505		-32.19735	
44.65529	1909.778		-32.17871	
44.70924	1908.037		-32.16143	
44.76319	1906.287		-32.14565	
44.81714	1904.531		-32.13148	
44.87109	1902.769		-32.119	
44.92504	1901.002		-32.10827	
44.97899	1899.231		-32.09931	
45.03294	1897.457		-32.09209	
45.08688	1895.683		-32.08654	
45.14083	1893.911		-32.08256	
45.19478	1892.142		-32.08002	
45.24873	1890.377		-32.07879	
45.30268	1888.616		-32.07869	
45.35663	1886.856		-32.07953	
45.41058	1885.093		-32.08107	
45.46453	1883.329		-32.08308	
45.51848	1881.571		-32.08537	
45.57243	1879.827		-32.08774	
45.62638	1878.098		-32.09003	
45.68033	1876.382		-32.09212	
45.73428	1874.672		-32.0939	
45.78823	1872.963		-32.09526	
45.84217	1871.249		-32.09613	
45.89613	1869.526		-32.09645	
45.95007	1867.795		-32.09617	
46.00402	1866.059		-32.09523	
46.05797	1864.317		-32.09357	
46.11192	1862.567		-32.09109	
46.16587	1860.807		-32.08769	
46.21982	1859.041		-32.0832	
46.27377	1857.272		-32.07752	
46.32772	1855.504		-32.07051	
46.38167	1853.743		-32.0621	
46.43562	1851.993		-32.05219	
46.48957	1850.254		-32.04078	
46.54352	1848.524		-32.02787	
46.59747	1846.799		-32.01352	
46.65142	1845.075		-31.99776	
46.70536	1843.356		-31.98067	
46.75932	1841.641		-31.96229	
46.81326	1839.926		-31.94263	
46.86721	1838.204		-31.92174	
46.92116	1836.472		-31.89963	
46.97511	1834.732		-31.87635	
47.02906	1832.982		-31.85193	
47.08301	1831.225		-31.82642	
47.13696	1829.461		-31.79988	
47.19091	1827.695		-31.77237	
47.24486	1825.939		-31.74396	
47.29881	1824.202		-31.71472	
47.35276	1822.49		-31.68471	
47.40671	1820.801		-31.65399	
47.46066	1819.128		-31.62264	
47.51461	1817.47		-31.59073	
47.56855	1815.825		-31.55836	
47.62251	1814.189		-31.52563	
47.67645	1812.56		-31.49267	
47.7304	1810.933		-31.4596	
47.78435	1809.296		-31.42661	
47.8383	1807.639		-31.39383	
47.89225	1805.958		-31.36144	
47.9462	1804.258		-31.32959	
48.00015	1802.542		-31.29846	
48.0541	1800.81		-31.26818	
48.10805	1799.065		-31.23891	
48.162	1797.311		-31.21076	
48.21595	1795.552		-31.18382	
48.2699	1793.793		-31.15818	
48.32384	1792.037		-31.13392	
48.3778	1790.288		-31.1111	
48.43174	1788.555		-31.08975	
48.48569	1786.84		-31.06989	
48.53964	1785.145		-31.0515	
48.59359	1783.467		-31.03452	
48.64754	1781.803		-31.01887	
48.70149	1780.153		-31.00446	
48.75544	1778.514		-30.99115	
48.80939	1776.873		-30.97882	
48.86334	1775.224		-30.96733	
48.91729	1773.57		-30.95654	
48.97124	1771.92		-30.94631	
49.02519	1770.282		-30.93652	
49.07914	1768.655		-30.92705	
49.13309	1767.036		-30.91775	
49.18703	1765.423		-30.90852	
49.24099	1763.814		-30.89923	
49.29493	1762.214		-30.88975	
49.34888	1760.63		-30.87996	
49.40283	1759.065		-30.86974	
49.45678	1757.515		-30.859	
49.51073	1755.971		-30.84767	
49.56468	1754.421		-30.83567	
49.61863	1752.85		-30.82295	
49.67258	1751.254		-30.80947	
49.72653	1749.627		-30.79524	
49.78048	1747.97		-30.78028	
49.83443	1746.29		-30.76467	
49.88838	1744.593		-30.74847	
49.94233	1742.886		-30.7318	
49.99628	1741.168		-30.71475	
50.05022	1739.442		-30.69744	
50.10418	1737.715		-30.68	
50.15812	1735.996		-30.66251	
50.21207	1734.289		-30.64505	
50.26602	1732.595		-30.62764	
50.31997	1730.908		-30.61029	
50.37392	1729.225		-30.59294	
50.42787	1727.54		-30.57552	
50.48182	1725.851		-30.55794	
50.53577	1724.157		-30.54007	
50.58972	1722.459		-30.52177	
50.64367	1720.76		-30.50288	
50.69762	1719.064		-30.48327	
50.75157	1717.369		-30.46283	
50.80552	1715.677		-30.44145	
50.85947	1713.982		-30.41909	
50.91341	1712.282		-30.39572	
50.96737	1710.584		-30.37133	
51.02131	1708.895		-30.34596	
51.07526	1707.219		-30.31961	
51.12921	1705.56		-30.29234	
51.18316	1703.913		-30.26416	
51.23711	1702.275		-30.23511	
51.29106	1700.642		-30.2052	
51.34501	1699.014		-30.17446	
51.39896	1697.389		-30.14288	
51.45291	1695.766		-30.11052	
51.50686	1694.149		-30.07743	
51.56081	1692.536		-30.04367	
51.61476	1690.93		-30.00929	
51.6687	1689.329		-29.97435	
51.72266	1687.731		-29.93893	
51.7766	1686.136		-29.90314	
51.83055	1684.544		-29.86713	
51.8845	1682.956		-29.83109	
51.93845	1681.37		-29.79518	
51.9924	1679.784		-29.75958	
52.04635	1678.198		-29.72445	
52.1003	1676.614		-29.68994	
52.15425	1675.032		-29.65616	
52.2082	1673.452		-29.62322	
52.26215	1671.873		-29.59118	
52.3161	1670.293		-29.56007	
52.37005	1668.706		-29.5299	
52.424	1667.111		-29.50063	
52.47795	1665.508		-29.47221	
52.53189	1663.903		-29.44456	
52.58585	1662.299		-29.41759	
52.63979	1660.698		-29.39123	
52.69374	1659.107		-29.36538	
52.74769	1657.534		-29.33995	
52.80164	1655.985		-29.3149	
52.85559	1654.461		-29.29016	
52.90954	1652.958		-29.26572	
52.96349	1651.473		-29.24158	
53.01744	1649.999		-29.21777	
53.07139	1648.527		-29.19436	
53.12534	1647.047		-29.17141	
53.17929	1645.551		-29.14896	
53.23324	1644.037		-29.12707	
53.28719	1642.508		-29.10575	
53.34113	1640.966		-29.08503	
53.39508	1639.411		-29.0649	
53.44903	1637.844		-29.04536	
53.50298	1636.266		-29.02642	
53.55693	1634.679		-29.00809	
53.61088	1633.086		-28.99036	
53.66483	1631.49		-28.97321	
53.71878	1629.895		-28.95663	
53.77273	1628.302		-28.94061	
53.82668	1626.711		-28.92513	
53.88063	1625.118		-28.91017	
53.93458	1623.518		-28.89569	
53.98853	1621.904		-28.88162	
54.04248	1620.269		-28.86786	
54.09642	1618.609		-28.85431	
54.15038	1616.931		-28.84087	
54.20432	1615.244		-28.82743	
54.25827	1613.56		-28.81394	
54.31222	1611.891		-28.80032	
54.36617	1610.244		-28.78654	
54.42012	1608.626		-28.77254	
54.47407	1607.044		-28.75833	
54.52802	1605.502		-28.74388	
54.58197	1603.999		-28.72919	
54.63592	1602.528		-28.71426	
54.68987	1601.083		-28.69909	
54.74382	1599.649		-28.68368	
54.79777	1598.216		-28.66804	
54.85172	1596.776		-28.65216	
54.90567	1595.323		-28.63608	
54.95961	1593.852		-28.61983	
55.01357	1592.359		-28.60343	
55.06751	1590.842		-28.58693	
55.12146	1589.306		-28.57038	
55.17541	1587.756		-28.5538	
55.22936	1586.201		-28.53726	
55.28331	1584.646		-28.52082	
55.33726	1583.092		-28.50452	
55.39121	1581.542		-28.48842	
55.44516	1579.998		-28.47253	
55.49911	1578.458		-28.45687	
55.55306	1576.919		-28.44143	
55.60701	1575.375		-28.42616	
55.66096	1573.82		-28.41096	
55.7149	1572.256		-28.39573	
55.76886	1570.685		-28.38033	
55.8228	1569.11		-28.36457	
55.87675	1567.537		-28.34825	
55.9307	1565.972		-28.33115	
55.98465	1564.419		-28.31302	
56.0386	1562.881		-28.29362	
56.09255	1561.359		-28.27273	
56.1465	1559.852		-28.25016	
56.20045	1558.363		-28.22575	
56.2544	1556.89		-28.19939	
56.30835	1555.429		-28.17101	
56.3623	1553.976		-28.14056	
56.41625	1552.528		-28.10803	
56.4702	1551.083		-28.07343	
56.52415	1549.639		-28.0368	
56.57809	1548.196		-27.9982	
56.63205	1546.753		-27.95772	
56.68599	1545.305		-27.91551	
56.73994	1543.839		-27.87173	
56.79389	1542.352		-27.82659	
56.84784	1540.844		-27.78033	
56.90179	1539.315		-27.73324	
56.95574	1537.766		-27.68562	
57.00969	1536.198		-27.6378	
57.06364	1534.614		-27.59009	
57.11759	1533.016		-27.54282	
57.17154	1531.407		-27.49631	
57.22549	1529.792		-27.45088	
57.27944	1528.174		-27.40685	
57.33339	1526.558		-27.36455	
57.38734	1524.946		-27.32426	
57.44128	1523.339		-27.28624	
57.49524	1521.742		-27.2507	
57.54918	1520.157		-27.21776	
57.60313	1518.588		-27.18749	
57.65708	1517.038		-27.15988	
57.71103	1515.508		-27.13485	
57.76498	1513.998		-27.11226	
57.81893	1512.503		-27.09188	
57.87288	1511.021		-27.07344	
57.92683	1509.55		-27.0566	
57.98078	1508.093		-27.041	
58.03473	1506.651		-27.02628	
58.08868	1505.231		-27.01204	
58.14263	1503.836		-26.99792	
58.19658	1502.475		-26.98357	
58.25053	1501.148		-26.96866	
58.30447	1499.852		-26.95291	
58.35843	1498.584		-26.93605	
58.41237	1497.338		-26.91789	
58.46632	1496.103		-26.89822	
58.52027	1494.87		-26.87692	
58.57422	1493.633		-26.85389	
58.62817	1492.387		-26.82907	
58.68212	1491.127		-26.80246	
58.73607	1489.847		-26.77408	
58.79002	1488.542		-26.74403	
58.84397	1487.208		-26.71245	
58.89792	1485.845		-26.67953	
58.95187	1484.454		-26.64554	
59.00582	1483.042		-26.61074	
59.05976	1481.612		-26.57547	
59.11372	1480.168		-26.54006	
59.16766	1478.716		-26.50485	
59.22161	1477.261		-26.4702	
59.27556	1475.807		-26.43644	
59.32951	1474.351		-26.40387	
59.38346	1472.886		-26.37275	
59.43741	1471.398		-26.34331	
59.49136	1469.878		-26.31571	
59.54531	1468.323		-26.29002	
59.59926	1466.738		-26.26625	
59.65321	1465.132		-26.24435	
59.70716	1463.516		-26.22419	
59.76111	1461.897		-26.20558	
59.81506	1460.282		-26.18823	
59.86901	1458.677		-26.17181	
59.92295	1457.089		-26.1559	
59.97691	1455.522		-26.14004	
60.03085	1453.983		-26.12374	
60.0848	1452.472		-26.10646	
60.13875	1450.993		-26.08768	
60.1927	1449.546		-26.06681	
60.24665	1448.126		-26.04329	
60.3006	1446.726		-26.01653	
60.35455	1445.343		-25.98597	
60.4085	1443.977		-25.95107	
60.46245	1442.625		-25.9114	
60.5164	1441.285		-25.86657	
60.57035	1439.953		-25.81631	
60.6243	1438.626		-25.7604	
60.67825	1437.304		-25.69873	
60.7322	1435.986		-25.63124	
60.78614	1434.672		-25.55794	
60.8401	1433.363		-25.47892	
60.89404	1432.057		-25.39432	
60.94799	1430.752		-25.30431	
61.00194	1429.441		-25.20916	
61.05589	1428.118		-25.10915	
61.10984	1426.78		-25.00463	
61.16379	1425.429		-24.89598	
61.21774	1424.071		-24.78362	
61.27169	1422.711		-24.66795	
61.32564	1421.354		-24.54943	
61.37959	1419.999		-24.42848	
61.43354	1418.644		-24.30557	
61.48749	1417.285		-24.18111	
61.54144	1415.918		-24.05555	
61.59539	1414.543		-23.92927	
61.64933	1413.163		-23.80263	
61.70328	1411.781		-23.67594	
61.75723	1410.397		-23.54943	
61.81118	1409.015		-23.42329	
61.86513	1407.638		-23.29758	
61.91908	1406.274		-23.17233	
61.97303	1404.928		-23.04745	
62.02698	1403.601		-22.92281	
62.08093	1402.294		-22.79822	
62.13488	1401.013		-22.67347	
62.18883	1399.758		-22.54823	
62.24277	1398.527		-22.42217	
62.29673	1397.315		-22.29482	
62.35067	1396.117		-22.1657	
62.40462	1394.933		-22.0343	
62.45857	1393.763		-21.90012	
62.51252	1392.606		-21.76266	
62.56647	1391.458		-21.62152	
62.62042	1390.318		-21.47628	
62.67437	1389.185		-21.32663	
62.72832	1388.06		-21.17224	
62.78227	1386.95		-21.01283	
62.83622	1385.863		-20.84812	
62.89017	1384.803		-20.67786	
62.94412	1383.772		-20.50177	
62.99807	1382.761		-20.31959	
63.05202	1381.759		-20.13103	
63.10596	1380.755		-19.9358	
63.15992	1379.742		-19.73354	
63.21386	1378.715		-19.52393	
63.26781	1377.673		-19.3066	
63.32176	1376.618		-19.0812	
63.37571	1375.554		-18.84732	
63.42966	1374.487		-18.60462	
63.48361	1373.422		-18.35271	
63.53756	1372.361		-18.09122	
63.59151	1371.307		-17.81974	
63.64546	1370.261		-17.53792	
63.69941	1369.224		-17.24533	
63.75336	1368.19		-16.94161	
63.80731	1367.156		-16.62626	
63.86126	1366.119		-16.29883	
63.91521	1365.083		-15.95875	
63.96915	1364.048		-15.60549	
64.0231	1363.01		-15.23843	
64.07706	1361.975		-14.8569	
64.131	1360.949		-14.46038	
64.18495	1359.943		-14.04817	
64.2389	1358.965		-13.61962	
64.29285	1358.02		-13.17397	
64.3468	1357.113		-12.71071	
64.40075	1356.249		-12.2291	
64.4547	1355.432		-11.72851	
64.50865	1354.661		-11.20826	
64.5626	1353.93		-10.66797	
64.61655	1353.228		-10.10703	
64.67049	1352.542		-9.524959	
64.72445	1351.862		-8.921217	
64.7784	1351.188		-8.295578	
64.83234	1350.521		-7.64751	
64.88629	1349.872		-6.976626	
64.94025	1349.245		-6.282421	
64.99419	1348.649		-5.564725	
65.04814	1348.087		-4.822992	
65.10209	1347.561		-4.056797	
65.15604	1347.068		-3.26555	
65.20999	1346.605		-2.449035	
65.26394	1346.169		-1.606611	
65.31789	1345.764		-0.7377895	
65.37184	1345.397		0.1580884	
65.42579	1345.075		1.081267	
65.47974	1344.805		2.032485	
65.53368	1344.59		3.012336	
65.58764	1344.435		4.021613	
65.64159	1344.347		5.060637	
65.69553	1344.327		6.130247	
65.74948	1344.38		7.231089	
65.80344	1344.507		8.364012	
65.85738	1344.705		9.529338	
65.91133	1344.977		10.72797	
65.96528	1345.321		11.96062	
66.01923	1345.737		13.2282	
66.07318	1346.229		14.53105	
66.12713	1346.8		15.87015	
66.18108	1347.456		17.24623	
66.23503	1348.195		18.66025	
66.28898	1349.018		20.11251	
66.34293	1349.923		21.60398	
66.39687	1350.911		23.13535	
66.45083	1351.986		24.70752	
66.50478	1353.151		26.32064	
66.55872	1354.401		27.97561	
66.61267	1355.73		29.67299	
66.66663	1357.126		31.41361	
66.72057	1358.579		33.1975	
66.77452	1360.082		35.02543	
66.82847	1361.634		36.89791	
66.88242	1363.238		38.81572	
66.93637	1364.901		40.77882	
66.99032	1366.633		42.78796	
67.04427	1368.447		44.84364	
67.09822	1370.35		46.94665	
67.15217	1372.351		49.09686	
67.20612	1374.458		51.29503	
67.26006	1376.679		53.54158	
67.31402	1379.021		55.83726	
67.36797	1381.486		58.18183	
67.42191	1384.08		60.57603	
67.47586	1386.805		63.02031	
67.52982	1389.667		65.51547	
67.58376	1392.668		68.06129	
67.63771	1395.806		70.65856	
67.69166	1399.087		73.30771	
67.74561	1402.518		76.0095	
67.79956	1406.101		78.76347	
67.85351	1409.837		81.57021	
67.90746	1413.729		84.42986	
67.96141	1417.777		87.34287	
68.01536	1421.985		90.30838	
68.06931	1426.358		93.32668	
68.12325	1430.902		96.39759	
68.17721	1435.622		99.52132	
68.23116	1440.52		102.6967	
68.2851	1445.596		105.9237	
68.33905	1450.854		109.202	
68.39301	1456.296		112.5314	
68.44695	1461.926		115.9102	
68.5009	1467.749		119.3383	
68.55485	1473.763		122.8148	
68.6088	1479.967		126.3391	
68.66275	1486.359		129.9092	
68.7167	1492.942		133.5244	
68.77065	1499.718		137.1832	
68.8246	1506.691		140.8849	
68.87855	1513.864		144.6269	
68.9325	1521.246		148.4081	
68.98644	1528.844		152.2267	
69.0404	1536.667		156.0814	
69.09435	1544.719		159.9693	
69.14829	1553.009		163.8886	
69.20224	1561.542		167.8371	
69.2562	1570.326		171.813	
69.31014	1579.361		175.8123	
69.36409	1588.651		179.8328	
69.41804	1598.196		183.8714	
69.47199	1607.997		187.9255	
69.52594	1618.053		191.9903	
69.57989	1628.359		196.0626	
69.63383	1638.911		200.1383	
69.68779	1649.706		204.2135	
69.74174	1660.736		208.2824	
69.79568	1672.003		212.3404	
69.84963	1683.511		216.382	
69.90359	1695.271		220.4019	
69.95753	1707.288		224.3928	
70.01148	1719.573		228.3488	
70.06543	1732.135		232.2629	
70.11938	1744.974		236.1281	
70.17333	1758.088		239.9375	
70.22728	1771.467		243.6824	
70.28123	1785.102		247.3554	
70.33517	1798.981		250.9484	
70.38913	1813.093		254.4536	
70.44308	1827.422		257.8618	
70.49702	1841.962		261.1648	
70.55097	1856.704		264.3542	
70.60493	1871.655		267.4218	
70.65887	1886.823		270.3583	
70.71282	1902.225		273.1558	
70.76677	1917.87		275.8059	
70.82072	1933.767		278.3011	
70.87467	1949.912		280.633	
70.92862	1966.303		282.7945	
70.98257	1982.934		284.7788	
71.03652	1999.804		286.5797	
71.09047	2016.903		288.1907	
71.14442	2034.227		289.6067	
71.19836	2051.763		290.8228	
71.25232	2069.497		291.835	
71.30627	2087.413		292.6395	
71.36021	2105.506		293.2333	
71.41416	2123.776		293.6143	
71.46812	2142.226		293.7808	
71.52206	2160.851		293.7317	
71.57601	2179.646		293.4667	
71.62996	2198.602		292.9861	
71.68391	2217.701		292.2905	
71.73786	2236.907		291.3816	
71.79181	2256.189		290.2612	
71.84576	2275.504		288.9318	
71.89971	2294.816		287.3962	
71.95366	2314.081		285.6583	
72.00761	2333.266		283.7218	
72.06155	2352.335		281.5911	
72.11551	2371.245		279.2707	
72.16946	2389.947		276.7664	
72.2234	2408.408		274.0833	
72.27735	2426.605		271.2273	
72.33131	2444.521		268.2039	
72.38525	2462.134		265.0204	
72.4392	2479.424		261.6829	
72.49315	2496.363		258.1979	
72.5471	2512.92		254.572	
72.60105	2529.064		250.813	
72.655	2544.777		246.9278	
72.70895	2560.041		242.9237	
72.7629	2574.836		238.8075	
72.81685	2589.136		234.5881	
72.8708	2602.919		230.2725	
72.92474	2616.166		225.8688	
72.9787	2628.871		221.3841	
73.03265	2641.032		216.828	
73.08659	2652.655		212.2079	
73.14054	2663.75		207.5322	
73.1945	2674.33		202.8085	
73.24844	2684.406		198.0468	
73.30239	2693.992		193.2548	
73.35634	2703.108		188.4411	
73.41029	2711.778		183.6139	
73.46424	2720.025		178.7831	
73.51819	2727.875		173.9568	
73.57214	2735.354		169.1436	
73.62609	2742.478		164.3516	
73.68004	2749.256		159.5907	
73.73399	2755.702		154.8685	
73.78793	2761.824		150.1934	
73.84189	2767.63		145.5727	
73.89584	2773.134		141.0152	
73.94978	2778.36		136.5278	
74.00373	2783.343		132.1173	
74.05769	2788.119		127.7898	
74.11163	2792.719		123.5527	
74.16558	2797.176		119.411	
74.21953	2801.52		115.3699	
74.27348	2805.769		111.4335	
74.32743	2809.932		107.6072	
74.38138	2814.016		103.894	
74.43533	2818.023		100.2967	
74.48928	2821.954		96.81733	
74.54323	2825.797		93.45852	
74.59718	2829.547		90.22088	
74.65112	2833.202		87.1049	
74.70508	2836.76		84.11002	
74.75903	2840.222		81.23636	
74.81297	2843.597		78.48216	
74.86692	2846.887		75.84555	
74.92088	2850.099		73.32375	
74.97482	2853.241		70.91455	
75.02877	2856.321		68.61425	
75.08272	2859.339		66.41909	
75.13667	2862.305		64.32471	
75.19062	2865.223		62.32737	
75.24457	2868.097		60.42221	
75.29852	2870.919		58.60464	
75.35247	2873.682		56.86973	
75.40642	2876.372		55.21331	
75.46037	2878.979		53.63052	
75.51431	2881.5		52.11682	
75.56827	2883.929		50.66761	
75.62222	2886.265		49.2791	
75.67616	2888.513		47.94704	
75.73011	2890.689		46.66766	
75.78407	2892.809		45.43721	
75.83801	2894.882		44.2527	
75.89196	2896.917		43.11089	
75.94591	2898.922		42.00898	
75.99986	2900.899		40.94431	
76.05381	2902.849		39.915	
76.10776	2904.776		38.91901	
76.16171	2906.688		37.95481	
76.21566	2908.587		37.02104	
76.26961	2910.468		36.117	
76.32355	2912.317		35.24189	
76.3775	2914.121		34.39523	
76.43146	2915.872		33.57666	
76.4854	2917.569		32.7863	
76.53935	2919.22		32.02403	
76.5933	2920.838		31.28992	
76.64725	2922.427		30.58399	
76.7012	2923.988		29.90652	
76.75515	2925.529		29.25749	
76.8091	2927.059		28.63688	
76.86305	2928.587		28.04452	
76.917	2930.115		27.48033	
76.97095	2931.635		26.94386	
77.02489	2933.135		26.43458	
77.07885	2934.597		25.95177	
77.1328	2936.002		25.49482	
77.18674	2937.325		25.06277	
77.24069	2938.545		24.65465	
77.29465	2939.653		24.26937	
77.34859	2940.65		23.90593	
77.40254	2941.539		23.56315	
77.45649	2942.333		23.23989	
77.51044	2943.05		22.93497	
77.56439	2943.704		22.64735	
77.61834	2944.312		22.37587	
77.67229	2944.896		22.11945	
77.72624	2945.479		21.877	
77.78019	2946.075		21.64757	
77.83414	2946.692		21.43019	
77.88808	2947.336		21.22398	
77.94204	2948.001		21.02812	
77.99599	2948.676		20.84198	
78.04993	2949.348		20.66498	
78.10388	2950.008		20.49673	
78.15784	2950.656		20.33697	
78.21178	2951.299		20.18571	
78.26573	2951.949		20.04299	
78.31968	2952.621		19.909	
78.37363	2953.332		19.78405	
78.42758	2954.099		19.6685	
78.48153	2954.941		19.56284	
78.53548	2955.878		19.46755	
78.58942	2956.921		19.38313	
78.64338	2958.075		19.3101	
78.69733	2959.339		19.24893	
78.75127	2960.7		19.20008	
78.80522	2962.139		19.16397	
78.85918	2963.632		19.14095	
78.91312	2965.145		19.1313	
78.96707	2966.655		19.13516	
79.02102	2968.146		19.15253	
79.07497	2969.612		19.18329	
79.12892	2971.045		19.22713	
79.18287	2972.438		19.28358	
79.23682	2973.79		19.35205	
79.29077	2975.111		19.43181	
79.34472	2976.41		19.52191	
79.39867	2977.702		19.62138	
79.45261	2978.99		19.72916	
79.50657	2980.264		19.84415	
79.56052	2981.517		19.96519	
79.61446	2982.739		20.09108	
79.66841	2983.922		20.22063	
79.72237	2985.05		20.35266	
79.77631	2986.113		20.48595	
79.83026	2987.103		20.61935	
79.88421	2988.018		20.75175	
79.93816	2988.864		20.88213	
79.99211	2989.655		21.00948	
80.04606	2990.413		21.13293	
80.10001	2991.162		21.25171	
80.15396	2991.915		21.36517	
80.20791	2992.688		21.47277	
80.26186	2993.491		21.57415	
80.3158	2994.331		21.66907	
80.36976	2995.208		21.75743	
80.42371	2996.115		21.83922	
80.47765	2997.043		21.9146	
80.5316	2997.983		21.98387	
80.58556	2998.927		22.04747	
80.6395	2999.879		22.10592	
80.69345	3000.85		22.15986	
80.7474	3001.855		22.21001	
80.80135	3002.906		22.25716	
80.8553	3004.005		22.30211	
80.90925	3005.152		22.34574	
80.9632	3006.346		22.38889	
81.01715	3007.584		22.43236	
81.0711	3008.864		22.47685	
81.12505	3010.184		22.52295	
81.17899	3011.542		22.57115	
81.23295	3012.929		22.62178	
81.2869	3014.336		22.67504	
81.34084	3015.759		22.73102	
81.39479	3017.197		22.78969	
81.44875	3018.644		22.8509	
81.50269	3020.098		22.91435	
81.55664	3021.564		22.97962	
81.61059	3023.046		23.04619	
81.66454	3024.547		23.11337	
81.71849	3026.066		23.18037	
81.77244	3027.607		23.24627	
81.82639	3029.164		23.31001	
81.88034	3030.733		23.37043	
81.93429	3032.305		23.42625	
81.98824	3033.875		23.47614	
82.04218	3035.437		23.51867	
82.09614	3036.979		23.55237	
82.15009	3038.485		23.57573	
82.20403	3039.937		23.58723	
82.25798	3041.327		23.58542	
82.31194	3042.66		23.56884	
82.36588	3043.939		23.53606	
82.41983	3045.172		23.48568	
82.47378	3046.369		23.41635	
82.52773	3047.539		23.32677	
82.58168	3048.681		23.21576	
82.63563	3049.803		23.08223	
82.68958	3050.915		22.92522	
82.74353	3052.033		22.74386	
82.79748	3053.173		22.53753	
82.85143	3054.348		22.3057	
82.90537	3055.553		22.04803	
82.95933	3056.774		21.76431	
83.01328	3057.993		21.4546	
83.06722	3059.204		21.11892	
83.12117	3060.4		20.75742	
83.17513	3061.583		20.37024	
83.22907	3062.749		19.95776	
83.28302	3063.902		19.52026	
83.33697	3065.047		19.05816	
83.39092	3066.199		18.57186	
83.44487	3067.374		18.06203	
83.49882	3068.589		17.52914	
83.55276	3069.854		16.97377	
83.60672	3071.167		16.39641	
83.66067	3072.519		15.79777	
83.71461	3073.896		15.17832	
83.76856	3075.273		14.53859	
83.82252	3076.629		13.87901	
83.87646	3077.945		13.20024	
83.93041	3079.211		12.50266	
83.98436	3080.417		11.78673	
84.03831	3081.565		11.05278	
84.09226	3082.659		10.30138	
84.14621	3083.701		9.532836	
84.20016	3084.689		8.747519	
84.25411	3085.624		7.945715	
84.30806	3086.501		7.128023	
84.36201	3087.315		6.294688	
84.41595	3088.058		5.446054	
84.46991	3088.724		4.582323	
84.52386	3089.306		3.704058	
84.5778	3089.794		2.811473	
84.63175	3090.175		1.904941	
84.68571	3090.444		0.9847918	
84.73965	3090.608		0.0518203	
84.7936	3090.68		-0.8934851	
84.84755	3090.67		-1.85043	
84.9015	3090.571		-2.818349	
84.95545	3090.374		-3.796053	
85.0094	3090.077		-4.782646	
85.06335	3089.683		-5.777009	
85.1173	3089.199		-6.778066	
85.17125	3088.628		-7.784251	
85.2252	3087.973		-8.794344	
85.27914	3087.239		-9.806914	
85.3331	3086.428		-10.82059	
85.38705	3085.552		-11.83352	
85.44099	3084.626		-12.84416	
85.49494	3083.67		-13.85079	
85.5489	3082.689		-14.85181	
85.60284	3081.688		-15.84519	
85.65679	3080.656		-16.8294	
85.71074	3079.585		-17.80277	
85.76469	3078.459		-18.76385	
85.81864	3077.278		-19.71083	
85.87259	3076.038		-20.64243	
85.92654	3074.729		-21.55734	
85.98049	3073.34		-22.45448	
86.03444	3071.868		-23.33253	
86.08839	3070.315		-24.19064	
86.14233	3068.686		-25.02799	
86.19629	3066.987		-25.84395	
86.25024	3065.229		-26.63768	
86.30418	3063.426		-27.40883	
86.35813	3061.592		-28.15707	
86.41209	3059.737		-28.88234	
86.46603	3057.871		-29.58437	
86.51998	3055.993		-30.26334	
86.57393	3054.098		-30.91942	
86.62788	3052.168		-31.55297	
86.68183	3050.189		-32.16413	
86.73578	3048.158		-32.75337	
86.78973	3046.085		-33.32113	
86.84367	3043.974		-33.86795	
86.89763	3041.829		-34.39449	
86.95158	3039.659		-34.90123	
87.00552	3037.476		-35.38896	
87.05947	3035.286		-35.8584	
87.11343	3033.094		-36.3104	
87.16737	3030.899		-36.74564	
87.22132	3028.704		-37.16507	
87.27527	3026.506		-37.5696	
87.32922	3024.302		-37.96022	
87.38317	3022.08		-38.33776	
87.43712	3019.838		-38.70313	
87.49107	3017.572		-39.05713	
87.54502	3015.291		-39.40056	
87.59897	3013.001		-39.73401	
87.65292	3010.708		-40.05817	
87.70686	3008.41		-40.37363	
87.76082	3006.107		-40.68099	
87.81477	3003.803		-40.98072	
87.86871	3001.497		-41.27343	
87.92266	2999.189		-41.55972	
87.97662	2996.887		-41.84022	
88.03056	2994.602		-42.11548	
88.08451	2992.346		-42.38615	
88.13846	2990.128		-42.65277	
88.19241	2987.94		-42.91592	
88.24636	2985.767		-43.17603	
88.30031	2983.596		-43.43357	
88.35426	2981.417		-43.68899	
88.40821	2979.216		-43.94274	
88.46216	2976.991		-44.19513	
88.51611	2974.743		-44.44653	
88.57005	2972.475		-44.69726	
88.62401	2970.18		-44.94761	
88.67796	2967.859		-45.19775	
88.7319	2965.521		-45.44786	
88.78585	2963.172		-45.69807	
88.83981	2960.814		-45.94848	
88.89375	2958.445		-46.19905	
88.9477	2956.062		-46.44983	
89.00165	2953.659		-46.70075	
89.0556	2951.231		-46.95177	
89.10955	2948.772		-47.20272	
89.1635	2946.276		-47.45348	
89.21745	2943.745		-47.7039	
89.2714	2941.181		-47.9539	
89.32535	2938.592		-48.2033	
89.3793	2935.982		-48.45198	
89.43324	2933.358		-48.69979	
89.4872	2930.72		-48.94658	
89.54115	2928.074		-49.19203	
89.59509	2925.425		-49.43594	
89.64904	2922.779		-49.67804	
89.703	2920.132		-49.91804	
89.75694	2917.485		-50.15559	
89.81089	2914.823		-50.3904	
89.86484	2912.132		-50.62215	
89.91879	2909.391		-50.85057	
89.97274	2906.587		-51.07528	
90.02669	2903.714		-51.29601	
90.08064	2900.779		-51.5125	
90.13459	2897.791		-51.72456	
90.18854	2894.765		-51.93194	
90.24249	2891.714		-52.1345	
90.29643	2888.655		-52.33212	
90.35039	2885.599		-52.52472	
90.40434	2882.556		-52.71214	
90.45828	2879.526		-52.89437	
90.51223	2876.505		-53.07136	
90.56618	2873.482		-53.24313	
90.62013	2870.451		-53.40968	
90.67408	2867.402		-53.57106	
90.72803	2864.334		-53.72734	
90.78198	2861.249		-53.87861	
90.83593	2858.158		-54.02492	
90.88988	2855.07		-54.16642	
90.94382	2851.991		-54.30327	
90.99778	2848.921		-54.43564	
91.05173	2845.865		-54.56368	
91.10567	2842.826		-54.68759	
91.15962	2839.809		-54.80753	
91.21358	2836.815		-54.92369	
91.26752	2833.845		-55.03626	
91.32147	2830.897		-55.14548	
91.37542	2827.962		-55.25161	
91.42937	2825.027		-55.35492	
91.48332	2822.081		-55.45561	
91.53727	2819.12		-55.55391	
91.59122	2816.14		-55.64999	
91.64517	2813.143		-55.74405	
91.69912	2810.139		-55.8362	
91.75307	2807.136		-55.92659	
91.80701	2804.138		-56.01535	
91.86097	2801.146		-56.10262	
91.91492	2798.164		-56.18848	
91.96886	2795.193		-56.27304	
92.02281	2792.236		-56.3564	
92.07677	2789.293		-56.4387	
92.13071	2786.361		-56.52002	
92.18466	2783.434		-56.60047	
92.23861	2780.505		-56.68014	
92.29256	2777.573		-56.75914	
92.34651	2774.635		-56.83749	
92.40046	2771.69		-56.91529	
92.45441	2768.738		-57.0122	
92.50836	2765.779		-57.10527	
92.56231	2762.816		-57.19505	
92.61626	2759.847		-57.28224	
92.6702	2756.861		-57.36755	
92.72416	2753.847		-57.45158	
92.77811	2750.798		-57.53477	
92.83205	2747.717		-57.6175	
92.886	2744.613		-57.70004	
92.93996	2741.499		-57.78263	
92.9939	2738.385		-57.86541	
93.04785	2735.273		-57.94851	
93.1018	2732.162		-58.03203	
93.15575	2729.043		-58.11606	
93.2097	2725.904		-58.20063	
93.26365	2722.737		-58.28579	
93.3176	2719.537		-58.37156	
93.37155	2716.305		-58.45796	
93.4255	2713.042		-58.54497	
93.47945	2709.75		-58.6326	
93.53339	2706.429		-58.72082	
93.58735	2703.084		-58.80964	
93.6413	2699.725		-58.899	
93.69524	2696.367		-58.98888	
93.74919	2693.022		-59.07925	
93.80315	2689.7		-59.17008	
93.85709	2686.396		-59.26132	
93.91104	2683.099		-59.35292	
93.96499	2679.798		-59.44486	
94.01894	2676.491		-59.53709	
94.07289	2673.229		-59.62954	
94.12684	2670.023		-59.72217	
94.18079	2666.856		-59.81494	
94.23474	2663.711		-59.90782	
94.28869	2660.58		-60.00074	
94.34264	2657.458		-60.09367	
94.39658	2654.344		-60.18658	
94.45054	2651.236		-60.27945	
94.50449	2648.133		-60.3722	
94.55843	2645.036		-60.46483	
94.61238	2641.945		-60.5573	
94.66634	2638.857		-60.64961	
94.72028	2635.775		-60.7417	
94.77423	2632.698		-60.83356	
94.82818	2629.625		-60.92519	
94.88213	2626.558		-61.01657	
94.93608	2623.499		-61.10767	
94.99003	2620.449		-61.19851	
