T[Â°C]	330nm [counts / mm]	S.D.
20.00044	3201.633	
20.00075	3208.952	
20.00521	3199.187	
20.00831	3200.731	
20.01973	3186.729	
20.02609	3190.599	
20.04493	3206.06	
20.05378	3201.668	
20.07992	3201.372	
20.09124	3188.779	
20.12237	3196.453	
20.13603	3199.727	
20.17265	3192.81	
20.18872	3193.735	
20.23059	3188.371	
20.24907	3187.335	
20.29761	3189.879	
20.31908	3186.774	
20.37021	3179.723	
20.39281	3185.638	
20.44963	3179.649	
20.47352	3173.599	
20.5359	3180.233	
20.56164	3174.02	
20.6268	3178.697	
20.65448	3180.01	
20.72223	3168.724	
20.75045	3169.225	
20.82217	3165.651	
20.85109	3164.049	
20.92553	3157.258	
20.95645	3151.97	
21.03274	3148.355	
21.06406	3149.603	
21.13981	3140.065	
21.17071	3144.537	
21.2485	3139.851	
21.2806	3146.104	
21.35722	3142.053	
21.38888	3140.848	
21.46899	3134.2	
21.50044	3134.816	
21.57902	3134.071	
21.60946	3134.883	
21.68576	3123.351	
21.71729	3124.166	
21.79756	3124.201	
21.82898	3115.946	
21.90611	3114.318	
21.93799	3103.686	
22.01617	3111.458	
22.04824	3110.285	
22.12712	3107.33	
22.15852	3094.674	
22.23474	3093.325	
22.26609	3091.938	
22.34394	3087.726	
22.3756	3094.627	
22.45392	3090.443	
22.48556	3091.3	
22.56333	3075.469	
22.59443	3086.728	
22.67359	3085.067	
22.70503	3081.258	
22.78274	3064.73	
22.81483	3080.95	
22.89346	3064.315	
22.92461	3073.747	
23.00139	3064.071	
23.03336	3066.124	
23.1109	3070.361	
23.14176	3061.35	
23.21786	3069.981	
23.24973	3053.058	
23.3302	3054.903	
23.36214	3061.307	
23.4415	3041.022	
23.47242	3053.687	
23.5491	3032.995	
23.581	3047.313	
23.65804	3039.163	
23.68963	3043.014	
23.76914	3030.434	
23.80079	3038.107	
23.87817	3033.471	
23.9094	3024.862	
23.98762	3017.252	
24.01957	3020.738	
24.09739	3026.897	
24.12847	3015.927	
24.2066	3015.959	
24.23894	3013.998	
24.31754	3026.003	
24.34849	3005.312	
24.42451	3004.521	
24.45647	3006.849	
24.53412	2992.014	
24.56566	3001.54	
24.64552	2994.781	
24.67693	2996.936	
24.75282	2984.215	
24.78509	2989.267	
24.86467	2979.019	
24.89596	2984.385	
24.97321	2977.436	
25.00382	2973.905	
25.08168	2984.457	
25.11424	2977.713	
25.19364	2976.084	
25.22543	2970.51	
25.30281	2975.137	
25.33437	2974.4	
25.41119	2966.901	
25.44238	2962.298	
25.52087	2954.986	
25.55251	2960.628	
25.62993	2956.809	
25.66155	2952.043	
25.7398	2947.244	
25.77113	2939.192	
25.84733	2936.913	
25.87872	2947.256	
25.95869	2937.303	
25.99239	2935.504	
26.0687	2929.021	
26.1004	2940.108	
26.17624	2934.688	
26.2075	2936.837	
26.28638	2926.12	
26.31893	2927.113	
26.39769	2918.735	
26.42831	2921.73	
26.505	2915.298	
26.5364	2917.515	
26.61508	2913.594	
26.64702	2914.285	
26.72745	2914.336	
26.7589	2913.564	
26.8325	2911.262	
26.86377	2910.955	
26.94424	2899.702	
26.97612	2894.333	
27.05429	2901.666	
27.08573	2898.942	
27.16314	2903.545	
27.1958	2896.833	
27.27259	2894.138	
27.304	2890.013	
27.38245	2887.708	
27.41408	2887.8	
27.49125	2878.98	
27.52318	2879.831	
27.60009	2869.435	
27.63103	2876.495	
27.71042	2865.745	
27.74181	2878.159	
27.81823	2870.937	
27.84967	2858.7	
27.92912	2861.614	
27.96066	2857.678	
28.03741	2846.718	
28.07016	2856.936	
28.15051	2840.413	
28.18139	2833.998	
28.25658	2846.634	
28.28775	2847.107	
28.36646	2849.191	
28.39816	2837.444	
28.47732	2837.305	
28.50927	2835.627	
28.58681	2834.552	
28.61825	2831.022	
28.69492	2830.474	
28.72593	2822.737	
28.805	2818.974	
28.83751	2821.803	
28.91463	2814.093	
28.94539	2815.083	
29.02402	2819.601	
29.05653	2812.078	
29.13465	2804.397	
29.1661	2807.952	
29.2434	2809.942	
29.27483	2801.188	
29.35111	2800.277	
29.38363	2791.112	
29.46195	2794.136	
29.49378	2789.06	
29.57066	2792.963	
29.60193	2795.215	
29.68027	2782.147	
29.71244	2794.048	
29.78991	2784.044	
29.82106	2786.722	
29.90013	2782.052	
29.93167	2782.697	
30.00884	2762.728	
30.04041	2772.713	
30.11819	2761.207	
30.14978	2772.38	
30.22655	2765.513	
30.25731	2770.746	
30.33609	2761.336	
30.37024	2760.425	
30.44702	2756.215	
30.47931	2748.419	
30.55616	2758.794	
30.58712	2757.336	
30.66642	2745.844	
30.69842	2744.252	
30.7762	2738.282	
30.80717	2746.913	
30.88566	2735.593	
30.91749	2747.438	
30.99326	2729.06	
31.0258	2736.022	
31.10298	2728.957	
31.13408	2728.894	
31.21372	2726.374	
31.24581	2721.41	
31.32245	2721.172	
31.35467	2715.167	
31.43236	2722.107	
31.46382	2716.235	
31.54058	2721.956	
31.57203	2711.945	
31.65152	2705.158	
31.68348	2715.755	
31.75947	2700.54	
31.79193	2712.514	
31.86976	2710.325	
31.90105	2700.888	
31.98058	2696.261	
32.01201	2693.459	
32.08862	2692.586	
32.12025	2695.873	
32.19739	2683.216	
32.22941	2684.16	
32.30682	2686.278	
32.33912	2682.353	
32.417	2684.183	
32.44809	2683.392	
32.52658	2679.144	
32.55753	2679.405	
32.63657	2679.801	
32.66799	2669.417	
32.74398	2674.413	
32.77562	2665.287	
32.85425	2663.96	
32.88593	2660.197	
32.96558	2655.456	
32.99714	2653.391	
33.07445	2648.808	
33.10564	2645.56	
33.18073	2641.646	
33.21261	2643.311	
33.29296	2648.583	
33.32566	2643.598	
33.40184	2636.896	
33.43367	2640.061	
33.51321	2631.429	
33.54368	2636.8	
33.61945	2631.618	
33.65229	2631.73	
33.73109	2635.414	
33.76211	2628.439	
33.83979	2617.496	
33.87217	2619.241	
33.94984	2637.933	
33.98116	2620.272	
34.0591	2624.405	
34.09066	2614.618	
34.16799	2620.497	
34.19956	2612.421	
34.27706	2609.898	
34.30882	2611.631	
34.38772	2600.121	
34.41872	2602.546	
34.49699	2598.783	
34.5276	2601.364	
34.60515	2596.633	
34.63703	2595.557	
34.7165	2590.966	
34.74837	2591.604	
34.82424	2592.448	
34.85788	2582.699	
34.93418	2586.996	
34.96539	2586.086	
35.04436	2580.302	
35.07643	2577.987	
35.15285	2584.011	
35.18508	2579.954	
35.2612	2569.5	
35.29233	2568.858	
35.37377	2560.187	
35.40517	2561.865	
35.48047	2562.018	
35.51219	2567.164	
35.59091	2558.806	
35.6227	2554.935	
35.69978	2555.569	
35.73138	2555.929	
35.80965	2547.514	
35.84113	2549.803	
35.91916	2543.146	
35.95026	2540.692	
36.0291	2554.373	
36.06174	2540.301	
36.13898	2533.814	
36.16978	2533.826	
36.2478	2527.418	
36.27898	2527.025	
36.35609	2525.084	
36.38783	2522.761	
36.46633	2524.046	
36.498	2521.104	
36.57571	2523.284	
36.60827	2519.591	
36.68695	2515.149	
36.71735	2515.222	
36.7947	2518.545	
36.82681	2506.263	
36.90434	2503.663	
36.93502	2506.737	
37.01275	2513.909	
37.04505	2500.992	
37.12347	2493.034	
37.15498	2492.364	
37.23225	2494.604	
37.2635	2495.254	
37.34137	2496.926	
37.37343	2489.013	
37.45077	2488.659	
37.48263	2486.892	
37.5618	2495.811	
37.59375	2480.982	
37.67037	2485.343	
37.70356	2477.999	
37.77952	2474.175	
37.81103	2473.176	
37.89	2469.756	
37.92156	2473.495	
37.9995	2474.219	
38.03193	2461.612	
38.10816	2468.371	
38.13911	2472.597	
38.21678	2455.419	
38.24905	2458.018	
38.32683	2451.951	
38.35814	2451.061	
38.43694	2458.823	
38.46877	2452.257	
38.54461	2455.347	
38.5786	2438.079	
38.6545	2441.904	
38.68829	2439.001	
38.76345	2436.604	
38.79451	2436.975	
38.87372	2432.031	
38.90563	2436.007	
38.98425	2440.261	
39.01601	2426.649	
39.09295	2429.249	
39.12513	2429.627	
39.20392	2418.76	
39.23491	2428.879	
39.31282	2421.452	
39.34494	2415.954	
39.42316	2418.63	
39.45432	2403.185	
39.5322	2413.591	
39.56308	2406.993	
39.64238	2412.25	
39.67348	2403.636	
39.75079	2399.052	
39.78189	2395.517	
39.85897	2405.53	
39.89053	2393.035	
39.96954	2396.023	
40.00149	2391.725	
40.08035	2394.022	
40.11168	2393.513	
40.18894	2390.64	
40.21976	2386.528	
40.29651	2376.121	
40.33007	2387.921	
40.40818	2387.846	
40.44062	2383.38	
40.51837	2374.139	
40.55017	2367.325	
40.62708	2372.099	
40.65881	2368.248	
40.73768	2372.731	
40.76968	2363.012	
40.84613	2367.404	
40.87781	2353.377	
40.95566	2370.825	
40.98785	2368.589	
41.06683	2355.294	
41.09797	2359.034	
41.17311	2353.54	
41.20976	2356.045	
41.28732	2348.091	
41.3212	2356.001	
41.39723	2347.014	
41.42876	2347.398	
41.50799	2340.926	
41.53937	2340.278	
41.61707	2333.875	
41.64838	2328.227	
41.72504	2335.891	
41.75702	2333.799	
41.8368	2334.29	
41.86758	2324.564	
41.94399	2331.251	
41.9757	2325.733	
42.05388	2325.507	
42.08513	2322.412	
42.16484	2318.033	
42.19686	2313.387	
42.27432	2317.438	
42.30552	2315.23	
42.38236	2317.227	
42.41345	2313.302	
42.49133	2307.377	
42.5242	2301.828	
42.60305	2302.156	
42.63443	2306.29	
42.71024	2300.709	
42.74243	2296.854	
42.82059	2295.707	
42.854	2294.577	
42.93184	2295.145	
42.96353	2286.855	
43.03975	2289.723	
43.07189	2273.766	
43.14728	2281.67	
43.17974	2285.92	
43.25925	2278.118	
43.29132	2276.626	
43.36811	2276.906	
43.3989	2277.73	
43.47678	2268.114	
43.50834	2279.343	
43.58698	2264.776	
43.61866	2268.064	
43.69754	2267.233	
43.72914	2255.684	
43.80583	2263.189	
43.8371	2263.804	
43.91375	2258.576	
43.94489	2255.33	
44.02375	2255.754	
44.05575	2254.789	
44.13416	2248.585	
44.16601	2247.098	
44.244	2257.227	
44.27525	2249.141	
44.35198	2250.294	
44.38385	2238.306	
44.46121	2245.589	
44.49479	2234.313	
44.57292	2242.443	
44.60372	2236.019	
44.68041	2235.164	
44.71149	2235.665	
44.79059	2223.966	
44.82142	2221.953	
44.90015	2222.781	
44.93188	2225.533	
45.01032	2217.457	
45.04181	2220.736	
45.11885	2224.464	
45.15078	2216.115	
45.22692	2211.823	
45.25917	2213.481	
45.33858	2215.022	
45.3702	2214.251	
45.44921	2215.347	
45.48323	2206.809	
45.56118	2204.17	
45.59265	2200.087	
45.66967	2203.955	
45.70234	2190.716	
45.78033	2192.834	
45.81145	2192.427	
45.88922	2197.05	
45.92049	2191.047	
45.99652	2193.302	
46.02916	2182.853	
46.10834	2182.883	
46.13939	2177.42	
46.21601	2182.988	
46.24765	2178.818	
46.3261	2183.409	
46.35848	2180.077	
46.4371	2174.244	
46.46791	2175.828	
46.54542	2175.247	
46.57698	2170.293	
46.65449	2161.119	
46.68663	2161.147	
46.76439	2160.881	
46.79563	2155.413	
46.87264	2159.3	
46.9054	2144.382	
46.98351	2150.522	
47.01472	2142.224	
47.09124	2153.289	
47.12324	2141.696	
47.20274	2146.263	
47.23393	2154.217	
47.31134	2145.126	
47.34295	2145.666	
47.42005	2142.511	
47.45152	2142.898	
47.53214	2141.267	
47.56337	2137.999	
47.63888	2134.212	
47.67009	2135.835	
47.74888	2129.948	
47.78127	2123.494	
47.85927	2131.991	
47.89105	2122.834	
47.96792	2124.551	
48.00009	2113.79	
48.07821	2129.779	
48.1101	2118.049	
48.19012	2116.52	
48.22182	2120.917	
48.29533	2110.726	
48.32864	2109.759	
48.40591	2117.962	
48.43775	2109.909	
48.51455	2107.345	
48.54653	2100.728	
48.62766	2096.477	
48.65911	2100.887	
48.73528	2093.223	
48.76632	2095.18	
48.84714	2094.732	
48.87905	2088.272	
48.95816	2095.02	
48.99058	2090.827	
49.06749	2087.771	
49.09915	2079.013	
49.17582	2078.852	
49.20684	2082.236	
49.28449	2083.617	
49.31649	2070.564	
49.39398	2077.343	
49.42523	2074.09	
49.50461	2069.738	
49.53777	2077.243	
49.61346	2067.043	
49.64429	2067.639	
49.72201	2066.009	
49.75453	2067.868	
49.83319	2064.772	
49.86475	2055.567	
49.94234	2061.497	
49.97398	2054.095	
50.05223	2063.163	
50.08363	2053.147	
50.1606	2055.354	
50.19206	2057.091	
50.27012	2053.411	
50.30256	2046.455	
50.38136	2039.55	
50.41293	2038.54	
50.48837	2035.661	
50.51944	2038.336	
50.59815	2038.397	
50.63061	2036.172	
50.70949	2034.46	
50.74133	2030.964	
50.81914	2033.495	
50.85011	2026.567	
50.92832	2016.865	
50.95991	2019.176	
51.03679	2029.866	
51.06841	2018.187	
51.14636	2017.946	
51.17829	2021.757	
51.25706	2018.978	
51.2879	2014.117	
51.36498	2013.904	
51.39711	2008.874	
51.47535	2018.963	
51.50632	2004.021	
51.58237	2014.959	
51.61402	2006.521	
51.69394	2008.957	
51.72546	2010.568	
51.80173	2001.828	
51.83453	2005.382	
51.91496	1993.278	
51.94505	1992.174	
52.01943	1995.423	
52.05222	1996.132	
52.13339	1992.052	
52.16445	1990.001	
52.24025	1990.199	
52.27144	1978.347	
52.35156	1982.941	
52.38262	1976.352	
52.45822	1980.931	
52.48971	1973.321	
52.57022	1982.294	
52.60186	1969.703	
52.67859	1972.572	
52.7119	1967.332	
52.78754	1975.695	
52.81875	1966	
52.89872	1960.167	
52.93285	1961.844	
53.00837	1968.881	
53.04157	1961.125	
53.11816	1958.796	
53.14959	1960.728	
53.22584	1956.109	
53.25883	1956.878	
53.33633	1954.378	
53.36805	1948.983	
53.44768	1950.989	
53.47915	1948.595	
53.55706	1955.91	
53.58738	1942.999	
53.66555	1949.045	
53.69628	1945.976	
53.77427	1941.461	
53.80608	1937.615	
53.8856	1939.228	
53.91617	1931.996	
53.99803	1933.291	
54.03034	1928.837	
54.10782	1932.995	
54.13947	1919.983	
54.21707	1925.461	
54.24841	1922.154	
54.32761	1919.738	
54.35919	1916.974	
54.43569	1927.769	
54.46688	1925.518	
54.54932	1917.51	
54.58167	1912.62	
54.65816	1917.288	
54.6893	1913.253	
54.76851	1909.787	
54.79959	1905.198	
54.87941	1903.409	
54.91211	1902.797	
54.98624	1906.993	
55.01745	1900.921	
55.09678	1901.303	
55.12795	1901.532	
55.21028	1905.433	
55.24157	1893.896	
55.31961	1897.393	
55.35148	1904.853	
55.43077	1889.967	
55.46178	1885.198	
55.54353	1891.168	
55.57618	1884.503	
55.65284	1881.971	
55.68321	1888.688	
55.76326	1882.771	
55.79501	1879.721	
55.8733	1879.548	
55.90471	1872.129	
55.98165	1882.874	
56.01486	1875.378	
56.09247	1871.054	
56.12403	1869.168	
56.20005	1864.353	
56.2314	1863.949	
56.31065	1862.364	
56.34191	1866.338	
56.41971	1865.938	
56.45243	1862.135	
56.53191	1861.579	
56.56395	1856.381	
56.64008	1856.7	
56.67315	1856.504	
56.74682	1855.47	
56.78022	1846.485	
56.85832	1849.32	
56.89262	1848.543	
56.96883	1845.837	
56.99995	1846.301	
57.07586	1846.849	
57.111	1833.895	
57.19015	1842.589	
57.22406	1838.205	
57.30103	1833.742	
57.33489	1838.51	
57.41302	1833.719	
57.44529	1832.973	
57.52213	1840.273	
57.55418	1824.122	
57.6321	1827.928	
57.66523	1828.263	
57.74168	1826.655	
57.77647	1816.708	
57.85507	1816.376	
57.88679	1817.669	
57.96497	1813.602	
57.99717	1807.17	
58.07495	1817.926	
58.10625	1805.58	
58.18345	1806.027	
58.2141	1806.316	
58.29355	1806.251	
58.32532	1803.376	
58.40358	1804.901	
58.43643	1801.828	
58.51371	1799.374	
58.54539	1802.845	
58.62245	1795.371	
58.65312	1795.516	
58.73219	1796.131	
58.76396	1791.56	
58.84243	1795.567	
58.87444	1789.154	
58.95315	1794.685	
58.98601	1788.039	
59.06133	1788.884	
59.0928	1779.568	
59.17005	1783.074	
59.20205	1780.636	
59.28481	1783.483	
59.31667	1775.154	
59.39531	1775.049	
59.42682	1778.119	
59.50133	1780.992	
59.53312	1774.592	
59.6148	1774.261	
59.64792	1772.481	
59.72251	1779.333	
59.75406	1765.016	
59.83277	1768.111	
59.86518	1767.925	
59.94301	1763.897	
59.97364	1764.507	
60.05201	1763.523	
60.08381	1754.093	
60.16166	1762.01	
60.19402	1753.795	
60.27131	1753.747	
60.3029	1752.905	
60.37996	1754.672	
60.41158	1748.073	
60.49366	1751.62	
60.52733	1748.355	
60.60369	1742.583	
60.63517	1742.759	
60.71195	1749.117	
60.74381	1740.755	
60.82234	1738.542	
60.85507	1735.719	
60.93147	1737.985	
60.96371	1727.47	
61.04238	1736.711	
61.07327	1735.027	
61.15235	1730.223	
61.18375	1733.703	
61.26168	1732.755	
61.29293	1724.74	
61.37251	1723.298	
61.40417	1724.116	
61.48119	1730.922	
61.51353	1716.689	
61.59186	1718.423	
61.62387	1719.439	
61.70028	1720.715	
61.73175	1712.523	
61.81091	1715.978	
61.84352	1711.254	
61.92199	1710.353	
61.9535	1705.484	
62.03169	1713.318	
62.06353	1709.43	
62.14278	1704.528	
62.17484	1701	
62.25028	1702.043	
62.28234	1699.732	
62.36179	1700.58	
62.39361	1694.294	
62.46896	1702.297	
62.49974	1696.875	
62.57843	1703.014	
62.60992	1692.406	
62.68869	1701.865	
62.72286	1692.246	
62.79828	1696.518	
62.82951	1692.574	
62.90738	1696.746	
62.93938	1684.438	
63.01786	1688.437	
63.04887	1678.92	
63.12816	1689.408	
63.16063	1680.678	
63.23818	1679.744	
63.26993	1678.125	
63.3469	1689.859	
63.37836	1677.475	
63.45816	1682.869	
63.49017	1674.812	
63.56721	1676.982	
63.59869	1673.081	
63.67665	1670.195	
63.70807	1674.253	
63.78766	1669.607	
63.8197	1673.67	
63.89629	1670.522	
63.92756	1661.906	
64.00539	1673.26	
64.03698	1665.36	
64.11549	1665.818	
64.14716	1658.134	
64.22588	1669.141	
64.25749	1663.416	
64.33599	1664.003	
64.36739	1658.607	
64.44436	1663.3	
64.47626	1654.272	
64.55416	1656.008	
64.58607	1653.332	
64.66341	1659.312	
64.6946	1657.096	
64.77235	1655.574	
64.80418	1649.411	
64.88277	1654.097	
64.91425	1652.524	
64.99155	1660.392	
65.02294	1646.584	
65.10112	1652.741	
65.13297	1646.335	
65.20918	1651.944	
65.24144	1648.497	
65.32138	1653.139	
65.35275	1648.696	
65.42941	1650.745	
65.4605	1646.412	
65.54044	1648.669	
65.57259	1644.711	
65.64948	1652.558	
65.68127	1640.759	
65.76015	1647.816	
65.79178	1643.316	
65.86731	1651.049	
65.89941	1643.877	
65.97752	1645.352	
66.00878	1643.176	
66.08714	1652.939	
66.1195	1654.657	
66.19773	1654.925	
66.22947	1649.963	
66.30767	1653.691	
66.3391	1650.488	
66.41696	1653.12	
66.44834	1657.127	
66.52468	1659.826	
66.55669	1660.562	
66.63573	1666.326	
66.66742	1662.008	
66.74687	1668.831	
66.77869	1659.061	
66.85358	1674.074	
66.88553	1665.453	
66.9658	1682.97	
66.99822	1666.674	
67.07524	1686.054	
67.10651	1677.196	
67.18348	1685.535	
67.21501	1680.654	
67.29373	1683.35	
67.32534	1691.836	
67.40369	1687.38	
67.43615	1687.652	
67.51291	1702.255	
67.5441	1700.739	
67.62197	1705.519	
67.65405	1704.685	
67.73294	1713.908	
67.76555	1713.39	
67.84247	1726.799	
67.87395	1721.513	
67.95151	1738.129	
67.9825	1733.001	
68.06116	1748.959	
68.09545	1739.933	
68.17388	1754.911	
68.20581	1752.588	
68.28437	1765.105	
68.31542	1769.417	
68.39281	1781.44	
68.42563	1777.172	
68.5036	1797.475	
68.53478	1791.775	
68.61285	1814.429	
68.64512	1804.418	
68.72342	1822.48	
68.75529	1822.265	
68.83113	1838.891	
68.86307	1840.061	
68.94624	1864.097	
68.97964	1864.294	
69.05608	1884.406	
69.08772	1883.625	
69.16342	1897.839	
69.19779	1898.615	
69.27424	1929.747	
69.30914	1918.465	
69.38939	1940.312	
69.42061	1947.579	
69.49941	1970.524	
69.5313	1963.999	
69.61035	1989.51	
69.64739	1992.466	
69.72245	2022.09	
69.75397	2021.441	
69.83568	2044.928	
69.86742	2052.273	
69.94643	2070.328	
69.97904	2077.618	
70.05655	2109.387	
70.08787	2117.671	
70.16502	2134.171	
70.19695	2145.985	
70.27159	2173.635	
70.30331	2176.498	
70.38199	2205.796	
70.41482	2209.594	
70.49121	2242.533	
70.52232	2247.427	
70.60284	2281.251	
70.63469	2281.723	
70.71357	2322.5	
70.74889	2323.825	
70.82819	2363.168	
70.85952	2362.913	
70.93817	2406.186	
70.97016	2409.233	
71.04823	2444.268	
71.07864	2445.947	
71.15668	2490.59	
71.18772	2497.021	
71.26592	2529.846	
71.29947	2536.281	
71.38216	2577.252	
71.41399	2585.739	
71.48859	2625.29	
71.51955	2636.216	
71.5978	2683.698	
71.62961	2685.276	
71.70887	2730.579	
71.74071	2735.053	
71.81902	2774.202	
71.84955	2793.266	
71.92606	2834.226	
71.95912	2846.871	
72.03563	2898.439	
72.06763	2891.84	
72.14591	2945.263	
72.17836	2939.988	
72.25359	3003.093	
72.28603	3009.292	
72.36565	3043.384	
72.39706	3053.687	
72.47436	3089.42	
72.50593	3095.492	
72.58549	3144.815	
72.6171	3144.094	
72.69434	3180.922	
72.72485	3182.346	
72.80337	3230.762	
72.83507	3215.887	
72.91303	3265.726	
72.94391	3249.048	
73.02306	3286.036	
73.05483	3285.397	
73.13361	3321.771	
73.16547	3308.547	
73.24136	3349.847	
73.27155	3342.708	
73.35157	3373.463	
73.38422	3366.693	
73.46516	3397.709	
73.49617	3386.949	
73.57327	3401.636	
73.60759	3395.177	
73.68641	3424.718	
73.71919	3405.891	
73.79815	3442.97	
73.83057	3437.391	
73.90608	3454.279	
73.93707	3446.666	
74.0145	3460.323	
74.04684	3456.178	
74.12595	3478.467	
74.1597	3457.251	
74.23566	3486.096	
74.26683	3483.535	
74.34366	3499.256	
74.37553	3494.271	
74.45529	3508.535	
74.49002	3499.171	
74.56721	3510.605	
74.5984	3500.261	
74.6759	3513.528	
74.70979	3514.415	
74.78669	3535.487	
74.82018	3517.151	
74.89445	3543.774	
74.92976	3525.08	
75.00975	3560.259	
75.04013	3529.951	
75.11724	3554.152	
75.15284	3546.698	
75.23198	3559.131	
75.26395	3548.763	
75.34135	3571.635	
75.37575	3552.403	
75.45549	3569.479	
75.48756	3565.058	
75.56446	3576.687	
75.59909	3568.326	
75.67651	3585.721	
75.70792	3571.684	
75.7878	3582.682	
75.8221	3574.866	
75.90102	3585.253	
75.93334	3566.251	
76.00932	3598.877	
76.04577	3581.903	
76.12457	3603.476	
76.15556	3577.671	
76.23251	3604.23	
76.2643	3591.065	
76.3473	3617.043	
76.3794	3593.433	
76.4577	3605.455	
76.48933	3585.959	
76.56991	3615.68	
76.60246	3602.868	
76.67841	3616.424	
76.71088	3600.901	
76.79482	3633.406	
76.82664	3609.967	
76.90092	3633.537	
76.93187	3600.188	
77.01328	3640.994	
77.04528	3611.528	
77.12716	3630.895	
77.15736	3621.668	
77.23231	3628.023	
77.26746	3617.75	
77.34715	3629.375	
77.3784	3612.05	
77.45642	3637.19	
77.48877	3629.499	
77.56763	3647.373	
77.59938	3628.255	
77.67667	3651.423	
77.70836	3626.914	
77.79101	3639.07	
77.82294	3624.863	
77.89876	3645.871	
77.93022	3632.799	
78.0126	3659.446	
78.04679	3632.597	
78.12309	3654.627	
78.15598	3625.787	
78.23293	3643.219	
78.2637	3628.938	
78.34137	3643.627	
78.37323	3625.22	
78.45175	3644.887	
78.48355	3632.34	
78.562	3651.321	
78.59352	3632.813	
78.67055	3638.999	
78.70152	3634.162	
78.77873	3656.471	
78.81131	3639.495	
78.89139	3651.236	
78.92245	3639.656	
79.00085	3660.749	
79.03618	3625.014	
79.11433	3651.419	
79.14574	3645.989	
79.22279	3656.654	
79.25784	3651.834	
79.33664	3667.498	
79.36732	3652.089	
79.44531	3671.895	
79.47636	3640.76	
79.5582	3664.547	
79.59062	3639.209	
79.6695	3682.55	
79.70074	3648.82	
79.77781	3671.352	
79.80927	3649.085	
79.89189	3674.542	
79.92368	3652.137	
80.00236	3670.692	
80.03383	3649.231	
80.1116	3668.846	
80.1432	3656.553	
80.21987	3668.294	
80.25291	3656.635	
80.33186	3673.767	
80.3638	3656.586	
80.43848	3672.645	
80.4714	3666.837	
80.54807	3669.508	
80.57975	3650.649	
80.66015	3669.949	
80.69226	3655.45	
80.7686	3677.512	
80.79937	3657.952	
80.88108	3686.288	
80.91369	3660.11	
80.99229	3677.722	
81.02361	3665.584	
81.10148	3676.351	
81.13298	3662.493	
81.21015	3685.744	
81.24149	3659.248	
81.32091	3680.541	
81.35278	3667.849	
81.43012	3686.515	
81.46351	3659.751	
81.54005	3690.06	
81.5716	3676.165	
81.64987	3691.834	
81.68172	3673.479	
81.75918	3694.603	
81.79067	3674.093	
81.86788	3693.036	
81.89917	3674.674	
81.97746	3702.458	
82.00968	3678.728	
82.089	3694.324	
82.12006	3673.119	
82.19604	3701.781	
82.22823	3681.806	
82.30637	3696.562	
82.33778	3676.34	
82.4153	3699.002	
82.44844	3682.119	
82.52495	3703.424	
82.55719	3677.743	
82.63653	3697.683	
82.6673	3680.3	
82.74345	3714.125	
82.77514	3679.705	
82.85515	3713.606	
82.88652	3690.016	
82.96362	3704.685	
82.99445	3690.702	
83.07169	3698.305	
83.10432	3680.35	
83.18263	3701.253	
83.21479	3682.744	
83.29147	3710.748	
83.32405	3693.087	
83.4034	3715.082	
83.43424	3701.138	
83.51038	3715.893	
83.54291	3706.861	
83.62059	3712.66	
83.65176	3699.317	
83.73021	3725.868	
83.76214	3696.499	
83.84028	3722.307	
83.87188	3699.501	
83.95425	3723.946	
83.98481	3707.757	
84.06311	3725.177	
84.09541	3701.432	
84.17374	3719.375	
84.20478	3714.157	
84.28224	3728.04	
84.31409	3704.75	
84.39261	3737.031	
84.42456	3700.129	
84.50287	3725.955	
84.53397	3703.765	
84.61132	3730.293	
84.64188	3699.437	
84.72095	3730.669	
84.75263	3704.124	
84.83043	3717.889	
84.86229	3703.477	
84.93892	3711.984	
84.97038	3711.487	
85.04929	3721.381	
85.08145	3701.995	
85.16003	3713.351	
85.19126	3684.964	
85.26772	3699.927	
85.29877	3683.005	
85.37742	3712.072	
85.41014	3685.022	
85.48751	3709.489	
85.51801	3689.083	
85.59404	3709.682	
85.62629	3683.325	
85.70713	3697.092	
85.73884	3680.583	
85.81673	3701.185	
85.84898	3678.291	
85.92551	3698.304	
85.9584	3660.539	
86.03445	3685.635	
86.06658	3664.947	
86.14596	3686.69	
86.1776	3659.747	
86.25539	3685.122	
86.28694	3662.168	
86.36408	3685.832	
86.39545	3648.071	
86.47375	3675.109	
86.50591	3641.273	
86.58347	3666.614	
86.61449	3639.466	
86.69354	3667.245	
86.7243	3634.282	
86.80206	3657.437	
86.8346	3631.673	
86.91075	3653.872	
86.942	3625.965	
87.02164	3650.183	
87.05353	3619.247	
87.13199	3642.349	
87.16297	3615.213	
87.24267	3652.213	
87.27407	3620.357	
87.35188	3636.017	
87.38382	3606.306	
87.46187	3632.601	
87.49342	3600.301	
87.5713	3624.379	
87.60308	3596.438	
87.67934	3620.91	
87.70993	3588.356	
87.78821	3604.746	
87.82127	3585.38	
87.89857	3604.909	
87.93084	3574.525	
88.00806	3604.988	
88.03928	3578.34	
88.11697	3589.255	
88.14885	3560.39	
88.22684	3589.215	
88.25861	3548.033	
88.33585	3574.502	
88.3672	3549.264	
88.44682	3573.859	
88.47916	3546.191	
88.5577	3560.427	
88.58853	3540.494	
88.66669	3564.944	
88.69772	3525.502	
88.77448	3551.916	
88.80592	3524.663	
88.8832	3556.362	
88.91524	3523.836	
88.99577	3545.483	
89.02806	3510.453	
89.10455	3523.448	
89.13667	3506.186	
89.21257	3532.728	
89.24395	3494.97	
89.32327	3512.329	
89.35495	3488.305	
89.43298	3519.394	
89.46441	3492.37	
89.5424	3513.099	
89.57438	3478.771	
89.6525	3512.09	
89.68423	3468.294	
89.76101	3485.701	
89.79234	3461.888	
89.87086	3486.83	
89.9024	3458.809	
89.98045	3485	
90.01254	3451.755	
90.09173	3472.455	
90.12316	3442.299	
90.20056	3468.242	
90.2321	3456.044	
90.31065	3459.579	
90.34229	3441.045	
90.41949	3446.66	
90.45091	3436.375	
90.5279	3444.972	
90.55949	3417.707	
90.64006	3435.573	
90.67223	3405.971	
90.74872	3425.805	
90.77946	3400.432	
90.85792	3423.815	
90.89037	3404.125	
90.96848	3419.936	
90.99966	3386.1	
91.07713	3407.925	
91.10867	3386.121	
91.18616	3393.915	
91.2174	3373.255	
91.29625	3388.118	
91.328	3359.466	
91.40649	3379.631	
91.437	3349.195	
91.51323	3374.802	
91.54462	3347.923	
91.62366	3364.329	
91.65614	3345.525	
91.7344	3366.303	
91.76527	3330.178	
91.84487	3354.575	
91.87667	3318.791	
91.95279	3346.149	
91.98423	3315.873	
92.06272	3339.515	
92.09455	3309.359	
92.17462	3325.917	
92.20615	3303.329	
92.28091	3314.76	
92.31236	3295.639	
92.39207	3310.793	
92.42215	3287.149	
92.5013	3305.129	
92.5331	3282.979	
92.60976	3293.949	
92.64147	3267.375	
92.72007	3286.156	
92.75181	3264.45	
92.83121	3280.19	
92.86292	3264.615	
92.93808	3271.292	
92.96961	3249.168	
93.04898	3258.451	
93.08112	3234.485	
93.15884	3254.709	
93.1902	3230.818	
93.26807	3257.354	
93.29968	3234.284	
93.37818	3248.458	
93.40997	3216.462	
93.48778	3225.003	
93.51889	3208.131	
93.59691	3221.142	
93.62827	3192.252	
93.70721	3226.324	
93.73917	3198.409	
93.81695	3219.296	
93.84763	3178.173	
93.92321	3205.93	
93.95457	3173.493	
94.03177	3197.36	
94.06248	3168.101	
94.13845	3177.07	
94.16838	3164.295	
94.23763	3170.593	
94.26619	3148.514	
94.33491	3169.061	
94.36232	3139.107	
94.42822	3159.885	
94.45378	3141.549	
94.5144	3156.143	
94.53873	3130.363	
94.5965	3153.488	
94.6204	3132.901	
94.67422	3142.101	
94.69476	3123.458	
94.74316	3133.731	
94.7616	3113.869	
94.80269	3131.799	
94.81852	3114.153	
94.8569	3132.098	
94.87205	3104.207	
94.90379	3127.827	
94.91553	3108.826	
94.94099	3129.294	
94.94991	3095.58	
94.97021	3127.977	
94.9766	3096.867	
94.99003	3117.28	
