T[Â°C]	330nm [counts / mm]	S.D.	First derivative	S.D. of first derivative
20.00059	5001.829		-66.87003	
20.0547	4997.968		-66.93636	
20.10881	4994.116		-67.00243	
20.16292	4990.272		-67.06821	
20.21702	4986.436		-67.13368	
20.27113	4982.607		-67.19884	
20.32524	4978.784		-67.26367	
20.37935	4974.967		-67.32814	
20.43346	4971.156		-67.39223	
20.48757	4967.352		-67.45593	
20.54167	4963.553		-67.51923	
20.59578	4959.762		-67.58208	
20.64989	4955.976		-67.64449	
20.704	4952.195		-67.70644	
20.75811	4948.418		-67.76789	
20.81221	4944.648		-67.82884	
20.86632	4940.888		-67.88928	
20.92043	4937.159		-67.94919	
20.97454	4933.53		-68.00855	
21.02865	4929.927		-68.06737	
21.08276	4926.346		-68.12562	
21.13686	4922.777		-68.1833	
21.19097	4919.215		-68.24041	
21.24508	4915.652		-68.29696	
21.29919	4912.082		-68.35294	
21.3533	4908.505		-68.40838	
21.4074	4904.918		-68.46327	
21.46151	4901.304		-68.51765	
21.51562	4897.652		-68.57153	
21.56973	4893.955		-68.62494	
21.62384	4890.205		-68.6779	
21.67795	4886.403		-68.73045	
21.73205	4882.556		-68.78264	
21.78616	4878.672		-68.8345	
21.84027	4874.756		-68.88609	
21.89438	4870.823		-68.93747	
21.94849	4866.894		-68.9887	
22.0026	4862.981		-69.03986	
22.0567	4859.085		-69.09103	
22.11081	4855.202		-69.14233	
22.16492	4851.331		-69.19386	
22.21903	4847.472		-69.24572	
22.27314	4843.626		-69.29803	
22.32724	4839.791		-69.3509	
22.38135	4835.96		-69.40435	
22.43546	4832.131		-69.45833	
22.48957	4828.304		-69.51262	
22.54368	4824.486		-69.56673	
22.59779	4820.681		-69.61996	
22.65189	4816.9		-69.62079	
22.706	4813.155		-69.61298	
22.76011	4809.45		-69.59624	
22.81422	4805.777		-69.57028	
22.86833	4802.125		-69.53498	
22.92243	4798.482		-69.49028	
22.97654	4794.837		-69.43625	
23.03065	4791.174		-69.37309	
23.08476	4787.484		-69.3011	
23.13887	4783.762		-69.22072	
23.19298	4780.003		-69.13245	
23.24708	4776.196		-69.03696	
23.30119	4772.338		-68.93494	
23.3553	4768.443		-68.82712	
23.40941	4764.533		-68.71429	
23.46352	4760.625		-68.59727	
23.51762	4756.73		-68.47688	
23.57173	4752.855		-68.35397	
23.62584	4749.006		-68.22943	
23.67995	4745.178		-68.1041	
23.73406	4741.361		-67.97884	
23.78817	4737.537		-67.85448	
23.84227	4733.69		-67.7318	
23.89638	4729.82		-67.61142	
23.95049	4725.942		-67.49393	
24.0046	4722.074		-67.37978	
24.05871	4718.222		-67.26932	
24.11282	4714.385		-67.1628	
24.16692	4710.562		-67.06037	
24.22103	4706.762		-66.96201	
24.27514	4702.997		-66.86758	
24.32925	4699.274		-66.77679	
24.38336	4695.602		-66.68927	
24.43746	4691.989		-66.60449	
24.49157	4688.439		-66.52191	
24.54568	4684.949		-66.44093	
24.59979	4681.512		-66.3609	
24.6539	4678.121		-66.28123	
24.70801	4674.769		-66.20137	
24.76211	4671.451		-66.12093	
24.81622	4668.162		-66.03964	
24.87033	4664.898		-65.95743	
24.92444	4661.665		-65.87438	
24.97855	4658.458		-65.79072	
25.03265	4655.283		-65.70679	
25.08676	4652.14		-65.62305	
25.14087	4649.026		-65.54002	
25.19498	4645.925		-65.45829	
25.24909	4642.808		-65.37843	
25.3032	4639.645		-65.30103	
25.3573	4636.421		-65.22665	
25.41141	4633.131		-65.15587	
25.46552	4629.768		-65.08917	
25.51963	4626.325		-65.02708	
25.57374	4622.808		-64.96999	
25.62785	4619.232		-64.91823	
25.68195	4615.613		-64.87201	
25.73606	4611.959		-64.83144	
25.79017	4608.276		-64.79658	
25.84428	4604.568		-64.76733	
25.89839	4600.844		-64.74359	
25.95249	4597.116		-64.72517	
26.0066	4593.392		-64.71185	
26.06071	4589.673		-64.70332	
26.11482	4585.958		-64.69923	
26.16893	4582.249		-64.69907	
26.22304	4578.552		-64.70225	
26.27714	4574.862		-64.70807	
26.33125	4571.173		-64.71571	
26.38536	4567.488		-64.72426	
26.43947	4563.822		-64.73277	
26.49358	4560.193		-64.7403	
26.54768	4556.612		-64.74588	
26.60179	4553.084		-64.74854	
26.6559	4549.606		-64.7474	
26.71001	4546.173		-64.74164	
26.76412	4542.789		-64.73061	
26.81823	4539.452		-64.71382	
26.87233	4536.16		-64.69093	
26.92644	4532.903		-64.66174	
26.98055	4529.66		-64.62624	
27.03466	4526.409		-64.58464	
27.08877	4523.13		-64.53727	
27.14288	4519.809		-64.4846	
27.19698	4516.431		-64.42725	
27.25109	4512.979		-64.36589	
27.3052	4509.435		-64.30129	
27.35931	4505.796		-64.23428	
27.41342	4502.079		-64.16573	
27.46752	4498.303		-64.09647	
27.52163	4494.492		-64.02728	
27.57574	4490.667		-63.95881	
27.62985	4486.851		-63.89162	
27.68396	4483.063		-63.82611	
27.73807	4479.319		-63.76257	
27.79217	4475.631		-63.70117	
27.84628	4472.001		-63.64201	
27.90039	4468.422		-63.58516	
27.9545	4464.884		-63.53067	
28.00861	4461.376		-63.47858	
28.06271	4457.892		-63.42889	
28.11682	4454.429		-63.38159	
28.17093	4450.999		-63.33667	
28.22504	4447.604		-63.29412	
28.27915	4444.254		-63.25391	
28.33326	4440.952		-63.21597	
28.38736	4437.702		-63.18027	
28.44147	4434.506		-63.14677	
28.49558	4431.361		-63.11544	
28.54969	4428.263		-63.08622	
28.6038	4425.211		-63.05907	
28.6579	4422.197		-63.03387	
28.71201	4419.209		-63.01052	
28.76612	4416.226		-62.98883	
28.82023	4413.225		-62.9686	
28.87434	4410.192		-62.94959	
28.92845	4407.11		-62.93162	
28.98255	4403.963		-62.91459	
29.03666	4400.743		-62.89849	
29.09077	4397.448		-62.8834	
29.14488	4394.089		-62.86944	
29.19899	4390.677		-62.8568	
29.2531	4387.221		-62.84573	
29.3072	4383.722		-62.83654	
29.36131	4380.188		-62.82962	
29.41542	4376.627		-62.82541	
29.46953	4373.048		-62.82428	
29.52364	4369.452		-62.82661	
29.57774	4365.841		-62.8326	
29.63185	4362.222		-62.84233	
29.68596	4358.606		-62.85572	
29.74007	4355.009		-62.87248	
29.79418	4351.439		-62.89215	
29.84829	4347.9		-62.91411	
29.90239	4344.392		-62.93757	
29.9565	4340.911		-62.96171	
30.01061	4337.458		-62.98566	
30.06472	4334.032		-63.00859	
30.11883	4330.637		-63.02967	
30.17293	4327.272		-63.04816	
30.22704	4323.931		-63.06344	
30.28115	4320.606		-63.07499	
30.33526	4317.292		-63.08248	
30.38937	4313.993		-63.08568	
30.44348	4310.701		-63.08447	
30.49758	4307.406		-63.07881	
30.55169	4304.096		-63.06874	
30.6058	4300.754		-63.0544	
30.65991	4297.371		-63.03595	
30.71402	4293.942		-63.01362	
30.76813	4290.467		-62.98763	
30.82223	4286.952		-62.9582	
30.87634	4283.41		-62.92554	
30.93045	4279.851		-62.88985	
30.98456	4276.283		-62.85141	
31.03867	4272.712		-62.81046	
31.09277	4269.134		-62.76727	
31.14688	4265.545		-62.72214	
31.20099	4261.939		-62.67539	
31.2551	4258.324		-62.62741	
31.30921	4254.712		-62.57864	
31.36332	4251.12		-62.52958	
31.41742	4247.557		-62.48075	
31.47153	4244.023		-62.43271	
31.52564	4240.505		-62.38598	
31.57975	4236.993		-62.34103	
31.63386	4233.489		-62.29824	
31.68796	4230.012		-62.25783	
31.74207	4226.584		-62.21986	
31.79618	4223.226		-62.18418	
31.85029	4219.943		-62.15049	
31.9044	4216.729		-62.11832	
31.95851	4213.565		-62.08715	
32.01262	4210.438		-62.05633	
32.06672	4207.337		-62.02518	
32.12083	4204.256		-61.99299	
32.17494	4201.194		-61.95911	
32.22905	4198.148		-61.92299	
32.28315	4195.109		-61.88417	
32.33726	4192.07		-61.84233	
32.39137	4189.02		-61.79719	
32.44548	4185.946		-61.74856	
32.49959	4182.843		-61.69636	
32.5537	4179.703		-61.64061	
32.6078	4176.521		-61.58146	
32.66191	4173.294		-61.5192	
32.71602	4170.022		-61.45421	
32.77013	4166.699		-61.38695	
32.82424	4163.32		-61.31788	
32.87835	4159.886		-61.24744	
32.93245	4156.42		-61.17603	
32.98656	4152.955		-61.10403	
33.04067	4149.509		-61.03178	
33.09478	4146.087		-60.95957	
33.14889	4142.682		-60.88768	
33.203	4139.285		-60.81638	
33.2571	4135.883		-60.74591	
33.31121	4132.472		-60.67652	
33.36532	4129.059		-60.60842	
33.41943	4125.655		-60.54185	
33.47353	4122.268		-60.47706	
33.52765	4118.892		-60.41429	
33.58175	4115.515		-60.35379	
33.63586	4112.129		-60.29573	
33.68997	4108.733		-60.24022	
33.74408	4105.327		-60.18729	
33.79818	4101.921		-60.13687	
33.85229	4098.529		-60.08885	
33.9064	4095.16		-60.04301	
33.96051	4091.818		-59.99906	
34.01462	4088.497		-59.95662	
34.06873	4085.184		-59.91524	
34.12283	4081.868		-59.87444	
34.17694	4078.548		-59.83374	
34.23105	4075.233		-59.79273	
34.28516	4071.939		-59.751	
34.33927	4068.68		-59.70821	
34.39338	4065.462		-59.66403	
34.44748	4062.288		-59.61819	
34.50159	4059.147		-59.57048	
34.5557	4056.026		-59.52082	
34.60981	4052.917		-59.46919	
34.66392	4049.816		-59.41572	
34.71803	4046.726		-59.36062	
34.77213	4043.643		-59.30415	
34.82624	4040.552		-59.24664	
34.88035	4037.445		-59.18842	
34.93446	4034.327		-59.12991	
34.98856	4031.211		-59.0715	
35.04268	4028.109		-59.01361	
35.09678	4025.033		-58.95664	
35.15089	4021.993		-58.90093	
35.205	4018.984		-58.84681	
35.25911	4015.992		-58.79454	
35.31321	4013.007		-58.74439	
35.36732	4010.026		-58.69658	
35.42143	4007.04		-58.65136	
35.47554	4004.039		-58.60897	
35.52965	4001.01		-58.56969	
35.58376	3997.945		-58.53376	
35.63786	3994.838		-58.50139	
35.69197	3991.685		-58.47278	
35.74608	3988.485		-58.44806	
35.80019	3985.24		-58.42736	
35.8543	3981.966		-58.41077	
35.90841	3978.682		-58.39828	
35.96251	3975.411		-58.38985	
36.01662	3972.163		-58.38535	
36.07073	3968.939		-58.38452	
36.12484	3965.732		-58.38704	
36.17894	3962.537		-58.39252	
36.23306	3959.353		-58.40052	
36.28716	3956.176		-58.41055	
36.34127	3953.001		-58.42206	
36.39538	3949.829		-58.43448	
36.44949	3946.659		-58.4472	
36.50359	3943.491		-58.45959	
36.5577	3940.321		-58.47104	
36.61181	3937.148		-58.48098	
36.66592	3933.971		-58.48888	
36.72003	3930.782		-58.49432	
36.77414	3927.573		-58.49697	
36.82824	3924.346		-58.49656	
36.88235	3921.11		-58.49291	
36.93646	3917.878		-58.48588	
36.99057	3914.657		-58.47536	
37.04468	3911.458		-58.46126	
37.09879	3908.287		-58.44345	
37.15289	3905.148		-58.42178	
37.207	3902.034		-58.3961	
37.26111	3898.935		-58.36625	
37.31522	3895.844		-58.33214	
37.36933	3892.75		-58.29374	
37.42344	3889.64		-58.25111	
37.47754	3886.497		-58.20444	
37.53165	3883.312		-58.154	
37.58576	3880.084		-58.10014	
37.63987	3876.818		-58.04329	
37.69397	3873.528		-57.98389	
37.74809	3870.233		-57.92249	
37.80219	3866.953		-57.85963	
37.8563	3863.691		-57.79583	
37.91041	3860.446		-57.73164	
37.96452	3857.219		-57.66758	
38.01862	3854.007		-57.60407	
38.07273	3850.81		-57.54144	
38.12684	3847.63		-57.47991	
38.18095	3844.461		-57.41961	
38.23506	3841.298		-57.3606	
38.28917	3838.132		-57.30283	
38.34327	3834.96		-57.24625	
38.39738	3831.788		-57.19075	
38.45149	3828.627		-57.13621	
38.5056	3825.486		-57.08249	
38.55971	3822.379		-57.0295	
38.61382	3819.319		-56.9772	
38.66792	3816.311		-56.9256	
38.72203	3813.351		-56.8748	
38.77614	3810.428		-56.82495	
38.83025	3807.532		-56.77629	
38.88436	3804.651		-56.72905	
38.93847	3801.775		-56.68348	
38.99257	3798.896		-56.63977	
39.04668	3796.008		-56.59806	
39.10079	3793.1		-56.5584	
39.1549	3790.157		-56.52073	
39.209	3787.17		-56.48493	
39.26311	3784.146		-56.45079	
39.31722	3781.104		-56.41808	
39.37133	3778.07		-56.38654	
39.42544	3775.057		-56.35594	
39.47955	3772.071		-56.32613	
39.53365	3769.109		-56.29699	
39.58776	3766.166		-56.26844	
39.64187	3763.236		-56.24048	
39.69598	3760.315		-56.21313	
39.75009	3757.399		-56.18642	
39.8042	3754.477		-56.16042	
39.8583	3751.537		-56.13515	
39.91241	3748.567		-56.11062	
39.96652	3745.552		-56.08676	
40.02063	3742.486		-56.06341	
40.07474	3739.373		-56.04037	
40.12885	3736.223		-56.01739	
40.18295	3733.052		-55.9942	
40.23706	3729.874		-55.97054	
40.29117	3726.7		-55.94614	
40.34528	3723.544		-55.92077	
40.39939	3720.42		-55.89421	
40.4535	3717.337		-55.86628	
40.5076	3714.293		-55.83688	
40.56171	3711.286		-55.80598	
40.61582	3708.313		-55.7736	
40.66993	3705.365		-55.73989	
40.72403	3702.425		-55.70505	
40.77814	3699.476		-55.66939	
40.83225	3696.5		-55.63325	
40.88636	3693.48		-55.59701	
40.94047	3690.407		-55.56106	
40.99458	3687.289		-55.5258	
41.04868	3684.136		-55.49163	
41.10279	3680.962		-55.45888	
41.1569	3677.784		-55.42781	
41.21101	3674.618		-55.39859	
41.26512	3671.467		-55.37131	
41.31923	3668.338		-55.34591	
41.37333	3665.233		-55.32228	
41.42744	3662.151		-55.3002	
41.48155	3659.085		-55.27943	
41.53566	3656.027		-55.25964	
41.58977	3652.967		-55.24049	
41.64388	3649.908		-55.22162	
41.69798	3646.857		-55.20264	
41.75209	3643.819		-55.18317	
41.8062	3640.796		-55.16279	
41.86031	3637.791		-55.14107	
41.91442	3634.803		-55.11761	
41.96852	3631.832		-55.09204	
42.02263	3628.877		-55.06404	
42.07674	3625.941		-55.0334	
42.13085	3623.031		-54.99995	
42.18496	3620.153		-54.96363	
42.23906	3617.312		-54.92442	
42.29317	3614.512		-54.88234	
42.34728	3611.762		-54.83739	
42.40139	3609.065		-54.78959	
42.4555	3606.417		-54.73897	
42.50961	3603.805		-54.68564	
42.56371	3601.211		-54.62975	
42.61782	3598.618		-54.57152	
42.67193	3596.006		-54.51126	
42.72604	3593.356		-54.44934	
42.78015	3590.65		-54.38618	
42.83426	3587.872		-54.32224	
42.88836	3585.018		-54.25804	
42.94247	3582.09		-54.19416	
42.99658	3579.08		-54.13126	
43.05069	3575.986		-54.06995	
43.1048	3572.816		-54.0109	
43.15891	3569.592		-53.9547	
43.21301	3566.338		-53.9019	
43.26712	3563.074		-53.85294	
43.32123	3559.823		-53.80807	
43.37534	3556.601		-53.76737	
43.42945	3553.419		-53.73073	
43.48355	3550.282		-53.69789	
43.53766	3547.182		-53.66845	
43.59177	3544.105		-53.6419	
43.64588	3541.036		-53.61762	
43.69999	3537.967		-53.59492	
43.75409	3534.892		-53.5731	
43.8082	3531.821		-53.55144	
43.86231	3528.776		-53.52927	
43.91642	3525.773		-53.50597	
43.97053	3522.831		-53.48104	
44.02464	3519.957		-53.45404	
44.07874	3517.153		-53.42466	
44.13285	3514.412		-53.39271	
44.18696	3511.722		-53.35802	
44.24107	3509.07		-53.32049	
44.29518	3506.443		-53.28004	
44.34929	3503.833		-53.23655	
44.40339	3501.236		-53.18996	
44.4575	3498.638		-53.14021	
44.51161	3496.022		-53.08725	
44.56572	3493.368		-53.0311	
44.61983	3490.66		-52.97179	
44.67393	3487.894		-52.90945	
44.72804	3485.074		-52.84429	
44.78215	3482.208		-52.77663	
44.83626	3479.312		-52.70688	
44.89037	3476.405		-52.63554	
44.94448	3473.494		-52.56323	
44.99858	3470.58		-52.49064	
45.05269	3467.659		-52.41849	
45.1068	3464.728		-52.3475	
45.16091	3461.782		-52.27838	
45.21502	3458.819		-52.21177	
45.26912	3455.836		-52.14817	
45.32323	3452.836		-52.08796	
45.37734	3449.828		-52.03135	
45.43145	3446.824		-51.97841	
45.48556	3443.837		-51.92907	
45.53967	3440.877		-51.88314	
45.59377	3437.959		-51.84029	
45.64788	3435.098		-51.80016	
45.70199	3432.294		-51.76237	
45.7561	3429.542		-51.72657	
45.81021	3426.836		-51.69242	
45.86432	3424.18		-51.65962	
45.91842	3421.574		-51.62789	
45.97253	3419.014		-51.59704	
46.02664	3416.489		-51.56691	
46.08075	3413.987		-51.53739	
46.13486	3411.483		-51.50836	
46.18896	3408.952		-51.47974	
46.24307	3406.37		-51.45146	
46.29718	3403.717		-51.42348	
46.35129	3400.989		-51.39578	
46.4054	3398.198		-51.36838	
46.45951	3395.367		-51.34133	
46.51361	3392.516		-51.31464	
46.56772	3389.656		-51.28831	
46.62183	3386.792		-51.26232	
46.67594	3383.93		-51.23664	
46.73005	3381.07		-51.21128	
46.78415	3378.219		-51.18625	
46.83826	3375.38		-51.16159	
46.89237	3372.554		-51.13737	
46.94648	3369.734		-51.11375	
47.00059	3366.915		-51.0908	
47.0547	3364.092		-51.06861	
47.1088	3361.263		-51.04716	
47.16291	3358.425		-51.02644	
47.21702	3355.568		-51.00635	
47.27113	3352.69		-50.98674	
47.32524	3349.801		-50.96745	
47.37934	3346.919		-50.94823	
47.43345	3344.068		-50.92877	
47.48756	3341.261		-50.9087	
47.54167	3338.504		-50.88755	
47.59578	3335.804		-50.86481	
47.64989	3333.163		-50.83997	
47.70399	3330.568		-50.81255	
47.7581	3328		-50.78207	
47.81221	3325.447		-50.74812	
47.86632	3322.898		-50.71041	
47.92043	3320.342		-50.66877	
47.97453	3317.768		-50.62315	
48.02864	3315.167		-50.5736	
48.08275	3312.531		-50.52029	
48.13686	3309.858		-50.46347	
48.19097	3307.151		-50.40347	
48.24508	3304.404		-50.34076	
48.29918	3301.615		-50.27594	
48.35329	3298.785		-50.20966	
48.4074	3295.923		-50.14271	
48.46151	3293.042		-50.07589	
48.51562	3290.153		-50.00998	
48.56973	3287.268		-49.94567	
48.62383	3284.396		-49.88358	
48.67794	3281.548		-49.82419	
48.73205	3278.725		-49.76791	
48.78616	3275.922		-49.71507	
48.84027	3273.13		-49.66592	
48.89437	3270.339		-49.62064	
48.94848	3267.538		-49.5793	
49.00259	3264.723		-49.54188	
49.0567	3261.899		-49.50829	
49.11081	3259.083		-49.47834	
49.16492	3256.289		-49.45182	
49.21902	3253.522		-49.4285	
49.27313	3250.783		-49.40817	
49.32724	3248.077		-49.39059	
49.38135	3245.41		-49.37557	
49.43546	3242.785		-49.36285	
49.48956	3240.208		-49.35217	
49.54367	3237.688		-49.3432	
49.59778	3235.225		-49.33556	
49.65189	3232.811		-49.32884	
49.706	3230.428		-49.32257	
49.76011	3228.061		-49.31627	
49.81421	3225.693		-49.30948	
49.86832	3223.307		-49.30179	
49.92243	3220.895		-49.29288	
49.97654	3218.456		-49.28251	
50.03065	3215.989		-49.27054	
50.08475	3213.5		-49.25692	
50.13886	3210.995		-49.24169	
50.19297	3208.479		-49.22501	
50.24708	3205.959		-49.20712	
50.30119	3203.436		-49.18838	
50.3553	3200.905		-49.16923	
50.4094	3198.353		-49.15021	
50.46351	3195.764		-49.13189	
50.51762	3193.121		-49.11479	
50.57173	3190.412		-49.09938	
50.62584	3187.64		-49.08604	
50.67995	3184.823		-49.07502	
50.73405	3181.981		-49.06644	
50.78816	3179.128		-49.06027	
50.84227	3176.273		-49.05635	
50.89638	3173.421		-49.05439	
50.95049	3170.571		-49.05406	
51.00459	3167.725		-49.05494	
51.0587	3164.887		-49.05657	
51.11281	3162.071		-49.05848	
51.16692	3159.286		-49.0602	
51.22103	3156.53		-49.06128	
51.27514	3153.798		-49.06132	
51.32924	3151.083		-49.05993	
51.38335	3148.372		-49.05675	
51.43746	3145.659		-49.05142	
51.49157	3142.945		-49.04361	
51.54568	3140.231		-49.033	
51.59978	3137.527		-49.01931	
51.65389	3134.841		-49.00229	
51.708	3132.182		-48.9817	
51.76211	3129.552		-48.95733	
51.81622	3126.944		-48.92894	
51.87033	3124.353		-48.89636	
51.92443	3121.768		-48.85941	
51.97854	3119.183		-48.81798	
52.03265	3116.596		-48.77199	
52.08676	3113.999		-48.72143	
52.14087	3111.38		-48.66636	
52.19498	3108.733		-48.6069	
52.24908	3106.064		-48.54321	
52.30319	3103.381		-48.47555	
52.3573	3100.685		-48.40424	
52.41141	3097.973		-48.32967	
52.46552	3095.25		-48.25225	
52.51962	3092.52		-48.17245	
52.57373	3089.782		-48.09069	
52.62784	3087.044		-48.0074	
52.68195	3084.32		-47.92291	
52.73606	3081.622		-47.83747	
52.79016	3078.959		-47.75132	
52.84427	3076.335		-47.66464	
52.89838	3073.747		-47.57756	
52.95249	3071.187		-47.49018	
53.0066	3068.644		-47.40261	
53.06071	3066.111		-47.3149	
53.11481	3063.593		-47.22715	
53.16892	3061.096		-47.13948	
53.22303	3058.628		-47.05207	
53.27714	3056.193		-46.9651	
53.33125	3053.792		-46.87875	
53.38536	3051.42		-46.79326	
53.43946	3049.07		-46.70884	
53.49357	3046.727		-46.62572	
53.54768	3044.378		-46.5442	
53.60179	3042.011		-46.46457	
53.6559	3039.622		-46.38716	
53.71001	3037.207		-46.31228	
53.76411	3034.769		-46.24021	
53.81822	3032.311		-46.17115	
53.87233	3029.835		-46.10523	
53.92644	3027.339		-46.04256	
53.98055	3024.823		-45.9832	
54.03465	3022.292		-45.92719	
54.08876	3019.748		-45.87451	
54.14287	3017.193		-45.82513	
54.19698	3014.634		-45.77896	
54.25109	3012.081		-45.73586	
54.30519	3009.541		-45.69565	
54.3593	3007.021		-45.65814	
54.41341	3004.524		-45.62307	
54.46752	3002.048		-45.59019	
54.52163	2999.586		-45.55921	
54.57574	2997.123		-45.52982	
54.62984	2994.648		-45.50169	
54.68395	2992.16		-45.47445	
54.73806	2989.666		-45.44774	
54.79217	2987.177		-45.42121	
54.84628	2984.701		-45.39454	
54.90039	2982.249		-45.3674	
54.95449	2979.83		-45.33951	
55.0086	2977.447		-45.31063	
55.06271	2975.101		-45.28058	
55.11682	2972.791		-45.24925	
55.17093	2970.514		-45.21662	
55.22504	2968.265		-45.18277	
55.27914	2966.032		-45.14788	
55.33325	2963.8		-45.11218	
55.38736	2961.549		-45.07598	
55.44147	2959.264		-45.0396	
55.49557	2956.934		-45.00341	
55.54968	2954.556		-44.96778	
55.60379	2952.127		-44.93305	
55.6579	2949.647		-44.89958	
55.71201	2947.118		-44.86771	
55.76612	2944.544		-44.83773	
55.82022	2941.935		-44.80996	
55.87433	2939.301		-44.78466	
55.92844	2936.655		-44.76207	
55.98255	2934.015		-44.7424	
56.03666	2931.39		-44.72576	
56.09077	2928.788		-44.7122	
56.14487	2926.207		-44.70168	
56.19898	2923.642		-44.6941	
56.25309	2921.087		-44.68925	
56.3072	2918.539		-44.68687	
56.36131	2916		-44.68664	
56.41542	2913.471		-44.68814	
56.46952	2910.957		-44.69095	
56.52363	2908.463		-44.69457	
56.57774	2905.996		-44.69847	
56.63185	2903.565		-44.70211	
56.68596	2901.182		-44.7049	
56.74007	2898.857		-44.70625	
56.79417	2896.589		-44.70559	
56.84828	2894.372		-44.70238	
56.90239	2892.202		-44.69616	
56.9565	2890.067		-44.68652	
57.0106	2887.949		-44.67315	
57.06471	2885.833		-44.65582	
57.11882	2883.708		-44.63441	
57.17293	2881.573		-44.60891	
57.22704	2879.428		-44.57946	
57.28115	2877.267		-44.54628	
57.33525	2875.076		-44.50973	
57.38936	2872.843		-44.47023	
57.44347	2870.55		-44.42823	
57.49758	2868.191		-44.3842	
57.55169	2865.766		-44.33862	
57.6058	2863.278		-44.29195	
57.6599	2860.736		-44.24466	
57.71401	2858.149		-44.19724	
57.76812	2855.522		-44.15019	
57.82223	2852.863		-44.10397	
57.87634	2850.18		-44.05898	
57.93045	2847.487		-44.01549	
57.98455	2844.796		-43.97373	
58.03866	2842.126		-43.9338	
58.09277	2839.496		-43.89572	
58.14688	2836.917		-43.85941	
58.20098	2834.392		-43.82468	
58.25509	2831.917		-43.79131	
58.3092	2829.485		-43.75896	
58.36331	2827.085		-43.72725	
58.41742	2824.702		-43.69573	
58.47153	2822.324		-43.66386	
58.52563	2819.947		-43.63106	
58.57974	2817.568		-43.5967	
58.63385	2815.192		-43.56013	
58.68796	2812.827		-43.52069	
58.74207	2810.488		-43.47772	
58.79618	2808.18		-43.43062	
58.85028	2805.907		-43.37884	
58.90439	2803.67		-43.32193	
58.9585	2801.473		-43.25954	
59.01261	2799.303		-43.19139	
59.06672	2797.147		-43.11736	
59.12083	2794.985		-43.03746	
59.17493	2792.806		-42.95181	
59.22904	2790.603		-42.86069	
59.28315	2788.375		-42.76447	
59.33726	2786.125		-42.66361	
59.39137	2783.852		-42.55865	
59.44548	2781.55		-42.45022	
59.49958	2779.216		-42.33903	
59.55369	2776.853		-42.22585	
59.6078	2774.464		-42.11153	
59.66191	2772.056		-41.99693	
59.71601	2769.641		-41.88298	
59.77012	2767.229		-41.77055	
59.82423	2764.831		-41.6605	
59.87834	2762.453		-41.55358	
59.93245	2760.095		-41.45041	
59.98656	2757.753		-41.35152	
60.04066	2755.427		-41.25729	
60.09477	2753.121		-41.16802	
60.14888	2750.838		-41.08388	
60.20299	2748.577		-41.00492	
60.2571	2746.332		-40.93111	
60.31121	2744.102		-40.86224	
60.36531	2741.884		-40.79795	
60.41942	2739.676		-40.73782	
60.47353	2737.482		-40.68126	
60.52764	2735.303		-40.62764	
60.58175	2733.136		-40.57628	
60.63586	2730.982		-40.52645	
60.68996	2728.845		-40.47743	
60.74407	2726.73		-40.42848	
60.79818	2724.639		-40.37889	
60.85229	2722.575		-40.32795	
60.90639	2720.539		-40.27502	
60.96051	2718.533		-40.21954	
61.01461	2716.559		-40.16098	
61.06872	2714.615		-40.09897	
61.12283	2712.694		-40.03317	
61.17694	2710.782		-39.96336	
61.23104	2708.865		-39.88937	
61.28515	2706.929		-39.81109	
61.33926	2704.965		-39.72849	
61.39337	2702.962		-39.64161	
61.44748	2700.912		-39.55054	
61.50159	2698.811		-39.45546	
61.55569	2696.661		-39.35658	
61.6098	2694.467		-39.2542	
61.66391	2692.24		-39.14864	
61.71802	2689.993		-39.0402	
61.77213	2687.738		-38.92926	
61.82624	2685.489		-38.81609	
61.88034	2683.254		-38.70097	
61.93445	2681.032		-38.58407	
61.98856	2678.816		-38.4655	
62.04267	2676.605		-38.34526	
62.09678	2674.399		-38.22326	
62.15089	2672.199		-38.09929	
62.20499	2670		-37.973	
62.2591	2667.793		-37.84387	
62.31321	2665.569		-37.71126	
62.36732	2663.319		-37.57438	
62.42142	2661.043		-37.43238	
62.47554	2658.751		-37.28434	
62.52964	2656.455		-37.12935	
62.58375	2654.171		-36.9665	
62.63786	2651.913		-36.79491	
62.69197	2649.697		-36.61373	
62.74607	2647.535		-36.4221	
62.80018	2645.435		-36.21915	
62.85429	2643.403		-36.00404	
62.9084	2641.44		-35.77597	
62.96251	2639.542		-35.53415	
63.01662	2637.694		-35.27782	
63.07072	2635.884		-35.00629	
63.12483	2634.096		-34.71892	
63.17894	2632.317		-34.41511	
63.23305	2630.533		-34.09433	
63.28716	2628.738		-33.75612	
63.34127	2626.93		-33.40005	
63.39537	2625.112		-33.02574	
63.44948	2623.283		-32.63288	
63.50359	2621.449		-32.22121	
63.5577	2619.617		-31.79053	
63.61181	2617.795		-31.34067	
63.66592	2615.989		-30.87157	
63.72002	2614.198		-30.38312	
63.77413	2612.426		-29.87519	
63.82824	2610.678		-29.34769	
63.88235	2608.953		-28.80047	
63.93645	2607.247		-28.23338	
63.99057	2605.555		-27.64615	
64.04467	2603.869		-27.03855	
64.09878	2602.176		-26.41007	
64.15289	2600.473		-25.7602	
64.207	2598.764		-25.08817	
64.26111	2597.055		-24.39343	
64.31522	2595.359		-23.67503	
64.36932	2593.69		-22.93203	
64.42343	2592.065		-22.16349	
64.47754	2590.497		-21.36836	
64.53165	2588.998		-20.54555	
64.58575	2587.581		-19.69392	
64.63986	2586.256		-18.81224	
64.69397	2585.028		-17.89927	
64.74808	2583.893		-16.95366	
64.80219	2582.85		-15.97401	
64.85629	2581.895		-14.95886	
64.9104	2581.021		-13.90673	
64.96452	2580.212		-12.81593	
65.01862	2579.448		-11.68527	
65.07273	2578.712		-10.5131	
65.12684	2577.989		-9.29788	
65.18095	2577.269		-8.038149	
65.23505	2576.555		-6.732481	
65.28916	2575.86		-5.379513	
65.34327	2575.198		-3.977954	
65.39738	2574.586		-2.526571	
65.45148	2574.038		-1.024275	
65.50559	2573.564		0.530037	
65.5597	2573.17		2.137404	
65.61381	2572.861		3.798833	
65.66792	2572.631		5.515309	
65.72203	2572.479		7.288067	
65.77614	2572.405		9.117612	
65.83025	2572.408		11.0052	
65.88435	2572.486		12.95199	
65.93846	2572.643		14.9591	
65.99257	2572.885		17.02777	
66.04668	2573.216		19.15932	
66.10078	2573.644		21.35513	
66.15489	2574.178		23.61666	
66.209	2574.825		25.94529	
66.26311	2575.593		28.34252	
66.31721	2576.497		30.80981	
66.37132	2577.552		33.34861	
66.42543	2578.765		35.96038	
66.47955	2580.136		38.647	
66.53365	2581.659		41.40925	
66.58776	2583.333		44.249	
66.64187	2585.157		47.16799	
66.69598	2587.133		50.16772	
66.75008	2589.259		53.24989	
66.80419	2591.531		56.41606	
66.8583	2593.949		59.66807	
66.91241	2596.513		63.00754	
66.96651	2599.232		66.4359	
67.02062	2602.123		69.9548	
67.07473	2605.2		73.56573	
67.12884	2608.475		77.27016	
67.18295	2611.955		81.06935	
67.23706	2615.647		84.96507	
67.29117	2619.549		88.95718	
67.34528	2623.66		93.0471	
67.39938	2627.985		97.23549	
67.45349	2632.531		101.5229	
67.5076	2637.31		105.9098	
67.56171	2642.332		110.3965	
67.61581	2647.606		114.9834	
67.66992	2653.135		119.6709	
67.72403	2658.915		124.459	
67.77814	2664.938		129.3479	
67.83224	2671.201		134.3379	
67.88635	2677.704		139.4291	
67.94046	2684.453		144.6215	
67.99458	2691.457		149.9161	
68.04868	2698.725		155.3114	
68.10279	2706.273		160.8081	
68.1569	2714.108		166.4061	
68.21101	2722.236		172.1053	
68.26511	2730.665		177.9056	
68.31922	2739.41		183.8065	
68.37333	2748.489		189.8082	
68.42744	2757.916		195.91	
68.48154	2767.705		202.1116	
68.53565	2777.864		208.4124	
68.58976	2788.395		214.8121	
68.64387	2799.304		221.3102	
68.69798	2810.597		227.9061	
68.75209	2822.284		234.6001	
68.8062	2834.367		241.3897	
68.86031	2846.851		248.275	
68.91441	2859.733		255.2552	
68.96852	2873.019		262.3293	
69.02263	2886.71		269.4962	
69.07674	2900.809		276.7544	
69.13084	2915.321		284.1026	
69.18495	2930.257		291.539	
69.23906	2945.633		299.061	
69.29317	2961.452		306.6661	
69.34727	2977.719		314.3511	
69.40138	2994.432		322.1124	
69.45549	3011.588		329.9458	
69.50961	3029.181		337.8481	
69.56371	3047.2		345.8115	
69.61782	3065.656		353.8314	
69.67193	3084.557		361.9014	
69.72604	3103.907		370.0141	
69.78014	3123.708		378.1615	
69.83425	3143.958		386.3348	
69.88836	3164.657		394.5244	
69.94247	3185.81		402.7199	
69.99657	3207.427		410.9097	
70.05068	3229.531		419.0819	
70.10479	3252.148		427.2233	
70.1589	3275.292		435.3204	
70.21301	3298.976		443.3586	
70.26712	3323.213		451.3239	
70.32123	3347.996		459.1982	
70.37534	3373.319		466.9664	
70.42944	3399.17		474.6116	
70.48355	3425.537		482.1166	
70.53766	3452.408		489.4637	
70.59177	3479.774		496.6351	
70.64587	3507.627		503.6125	
70.69998	3535.966		510.3778	
70.75409	3564.799		516.913	
70.8082	3594.14		523.2001	
70.8623	3623.997		529.2215	
70.91641	3654.376		534.9598	
70.97052	3685.285		540.3983	
71.02464	3716.738		545.5216	
71.07874	3748.734		550.3127	
71.13285	3781.284		554.7578	
71.18696	3814.387		558.8427	
71.24107	3848.032		562.5546	
71.29517	3882.205		565.8815	
71.34928	3916.895		568.8129	
71.40339	3952.086		571.3383	
71.4575	3987.764		573.4496	
71.5116	4023.911		575.1389	
71.56571	4060.5		576.4009	
71.61982	4097.505		577.2304	
71.67393	4134.896		577.6235	
71.72803	4172.629		577.5778	
71.78215	4210.663		577.0918	
71.83626	4248.937		576.1654	
71.89037	4287.408		574.7996	
71.94447	4326.022		572.9965	
71.99858	4364.723		570.7595	
72.05269	4403.439		568.0927	
72.1068	4442.085		565.0021	
72.1609	4480.578		561.4929	
72.21501	4518.834		557.5728	
72.26912	4556.77		553.2496	
72.32323	4594.297		548.5333	
72.37733	4631.334		543.4332	
72.43144	4667.806		537.9598	
72.48555	4703.643		532.1246	
72.53967	4738.79		525.9384	
72.59377	4773.184		519.4156	
72.64788	4806.777		512.5683	
72.70199	4839.522		505.4102	
72.7561	4871.382		497.9553	
72.8102	4902.332		490.2183	
72.86431	4932.345		482.2146	
72.91842	4961.389		473.959	
72.97253	4989.435		465.4678	
73.02663	5016.466		456.7572	
73.08074	5042.471		447.8444	
73.13485	5067.436		438.7461	
73.18896	5091.352		429.4798	
73.24306	5114.215		420.0631	
73.29718	5136.033		410.5129	
73.35129	5156.815		400.8503	
73.4054	5176.59		391.0924	
73.4595	5195.395		381.2585	
73.51361	5213.264		371.3675	
73.56772	5230.239		361.4388	
73.62183	5246.36		351.4914	
73.67593	5261.659		341.5448	
73.73004	5276.159		331.618	
73.78415	5289.879		321.73	
73.83826	5302.851		311.8995	
73.89236	5315.112		302.1447	
73.94647	5326.705		292.4837	
74.00058	5337.666		282.9337	
74.05469	5348.028		273.5117	
74.1088	5357.835		264.2321	
74.16291	5367.136		255.1129	
74.21702	5375.986		246.1669	
74.27113	5384.443		237.4074	
74.32523	5392.561		228.8468	
74.37934	5400.385		220.496	
74.43345	5407.952		212.3655	
74.48756	5415.291		204.4638	
74.54166	5422.425		196.7988	
74.59577	5429.371		189.3761	
74.64988	5436.137		182.2011	
74.70399	5442.719		175.2773	
74.75809	5449.121		168.6069	
74.8122	5455.353		162.1908	
74.86632	5461.417		156.0279	
74.92043	5467.313		150.1181	
74.97453	5473.052		144.4576	
75.02864	5478.656		139.0424	
75.08275	5484.142		133.8674	
75.13686	5489.522		128.926	
75.19096	5494.803		124.2115	
75.24507	5499.977		119.7158	
75.29918	5505.033		115.4304	
75.35329	5509.959		111.3454	
75.40739	5514.748		107.4516	
75.4615	5519.39		103.7387	
75.51561	5523.883		100.1964	
75.56972	5528.226		96.81425	
75.62383	5532.415		93.581	
75.67794	5536.447		90.48683	
75.73205	5540.323		87.52056	
75.78616	5544.052		84.6716	
75.84026	5547.656		81.92957	
75.89437	5551.169		79.28424	
75.94848	5554.63		76.72595	
76.00259	5558.068		74.2452	
76.05669	5561.503		71.8331	
76.1108	5564.937		69.48114	
76.16491	5568.365		67.18159	
76.21902	5571.769		64.92731	
76.27312	5575.129		62.71191	
76.32723	5578.434		60.5298	
76.38135	5581.675		58.37582	
76.43546	5584.844		56.24654	
76.48956	5587.938		54.13834	
76.54367	5590.961		52.04866	
76.59778	5593.914		49.97564	
76.65189	5596.793		47.91806	
76.70599	5599.599		45.8753	
76.7601	5602.344		43.84725	
76.81421	5605.038		41.83436	
76.86832	5607.687		39.83753	
76.92242	5610.292		37.8581	
76.97653	5612.852		35.89774	
77.03064	5615.354		33.95844	
77.08475	5617.792		32.04236	
77.13886	5620.143		30.15158	
77.19297	5622.372		28.28906	
77.24708	5624.44		26.45708	
77.30119	5626.317		24.65826	
77.35529	5627.982		22.89523	
77.4094	5629.429		21.17059	
77.46351	5630.664		19.48688	
77.51762	5631.708		17.84662	
77.57172	5632.584		16.25214	
77.62583	5633.309		14.70557	
77.67994	5633.888		13.20889	
77.73405	5634.326		11.76383	
77.78815	5634.62		10.3719	
77.84226	5634.771		9.03436	
77.89638	5634.782		7.752072	
77.95049	5634.66		6.526192	
78.00459	5634.403		5.357137	
78.0587	5633.999		4.245348	
78.11281	5633.424		3.191138	
78.16692	5632.646		2.194743	
78.22102	5631.635		1.256317	
78.27513	5630.382		0.3762819	
78.32924	5628.89		-0.4450687	
78.38335	5627.182		-1.207614	
78.43745	5625.287		-1.91097	
78.49156	5623.251		-2.554823	
78.54567	5621.123		-3.138855	
78.59978	5618.952		-3.662755	
78.65389	5616.773		-4.126273	
78.708	5614.612		-4.528956	
78.76211	5612.494		-4.870545	
78.81622	5610.441		-5.150725	
78.87032	5608.471		-5.369252	
78.92443	5606.59		-5.526003	
78.97854	5604.795		-5.621085	
79.03265	5603.082		-5.654498	
79.08675	5601.449		-5.626595	
79.14086	5599.905		-5.538046	
79.19497	5598.455		-5.389412	
79.24908	5597.113		-5.181483	
79.30318	5595.906		-4.915242	
79.35729	5594.865		-4.591887	
79.41141	5594.015		-4.212759	
79.46552	5593.38		-3.779538	
79.51962	5592.979		-3.293939	
79.57373	5592.817		-2.757951	
79.62784	5592.882		-2.173798	
79.68195	5593.15		-1.543954	
79.73605	5593.586		-0.8711423	
79.79016	5594.154		-0.1582021	
79.84427	5594.814		0.591724	
79.89838	5595.532		1.375232	
79.95248	5596.274		2.18877	
80.00659	5597.028		3.028595	
80.0607	5597.8		3.890819	
80.11481	5598.602		4.771427	
80.16892	5599.432		5.666455	
80.22303	5600.292		6.571525	
80.27714	5601.171		7.482622	
80.33125	5602.066		8.395629	
80.38535	5602.974		9.30647	
80.43946	5603.895		10.21114	
80.49357	5604.825		11.10576	
80.54768	5605.777		11.98652	
80.60178	5606.77		12.84991	
80.65589	5607.807		13.69281	
80.71	5608.882		14.51234	
80.76411	5609.995		15.30598	
80.81821	5611.155		16.07148	
80.87232	5612.372		16.80683	
80.92644	5613.657		17.5103	
80.98055	5615.026		18.18007	
81.03465	5616.485		18.81481	
81.08876	5618.03		19.41327	
81.14287	5619.642		19.97437	
81.19698	5621.295		20.49723	
81.25108	5622.973		20.98111	
81.30519	5624.652		21.42529	
81.3593	5626.308		21.82917	
81.41341	5627.919		22.19234	
81.46751	5629.47		22.51441	
81.52162	5630.962		22.79513	
81.57573	5632.399		23.03442	
81.62984	5633.79		23.23236	
81.68395	5635.146		23.38917	
81.73806	5636.486		23.50515	
81.79217	5637.832		23.58074	
81.84628	5639.2		23.61642	
81.90038	5640.592		23.61266	
81.95449	5642.003		23.56993	
82.0086	5643.44		23.4887	
82.06271	5644.901		23.36924	
82.11681	5646.378		23.21185	
82.17092	5647.854		23.01667	
82.22503	5649.306		22.78391	
82.27914	5650.714		22.51361	
82.33324	5652.077		22.20575	
82.38735	5653.406		21.86028	
82.44147	5654.717		21.47704	
82.49557	5656.027		21.05606	
82.54968	5657.358		20.59731	
82.60379	5658.725		20.1009	
82.6579	5660.129		19.56707	
82.71201	5661.57		18.99623	
82.76611	5663.051		18.38893	
82.82022	5664.574		17.74576	
82.87433	5666.136		17.06751	
82.92844	5667.723		16.35497	
82.98254	5669.309		15.60909	
83.03665	5670.856		14.83074	
83.09076	5672.329		14.02085	
83.14487	5673.698		13.18034	
83.19898	5674.954		12.3099	
83.25309	5676.1		11.41052	
83.3072	5677.158		10.48267	
83.36131	5678.146		9.526752	
83.41541	5679.078		8.543081	
83.46952	5679.958		7.531896	
83.52363	5680.786		6.493466	
83.57774	5681.561		5.427979	
83.63184	5682.283		4.33576	
83.68595	5682.948		3.217108	
83.74006	5683.548		2.072467	
83.79417	5684.054		0.90223	
83.84827	5684.429		-0.2931294	
83.90238	5684.638		-1.513076	
83.9565	5684.677		-2.757198	
84.0106	5684.554		-4.024508	
84.06471	5684.293		-5.314499	
84.11882	5683.92		-6.626475	
84.17293	5683.456		-7.95972	
84.22704	5682.912		-9.313522	
84.28114	5682.302		-10.68717	
84.33525	5681.626		-12.08	
84.38936	5680.886		-13.49126	
84.44347	5680.074		-14.92017	
84.49757	5679.187		-16.36591	
84.55168	5678.207		-17.8276	
84.60579	5677.124		-19.30429	
84.6599	5675.926		-20.79487	
84.714	5674.605		-22.29805	
84.76812	5673.163		-23.8126	
84.82223	5671.612		-25.33649	
84.87634	5669.973		-26.86824	
84.93044	5668.271		-28.40601	
84.98455	5666.527		-29.94783	
85.03866	5664.751		-31.49169	
85.09277	5662.946		-33.03552	
85.14687	5661.109		-34.57727	
85.20098	5659.231		-36.11495	
85.25509	5657.292		-37.64668	
85.3092	5655.267		-39.17072	
85.3633	5653.134		-40.68544	
85.41741	5650.873		-42.18941	
85.47152	5648.471		-43.68134	
85.52563	5645.923		-45.16029	
85.57974	5643.24		-46.62479	
85.63385	5640.444		-48.07413	
85.68796	5637.561		-49.5075	
85.74207	5634.614		-50.92421	
85.79617	5631.62		-52.32368	
85.85028	5628.595		-53.70536	
85.90439	5625.542		-55.06881	
85.9585	5622.454		-56.41357	
86.0126	5619.325		-57.73927	
86.06671	5616.152		-59.04556	
86.12082	5612.925		-60.33214	
86.17493	5609.621		-61.59877	
86.22903	5606.217		-62.84526	
86.28315	5602.698		-64.07162	
86.33726	5599.055		-65.27737	
86.39137	5595.292		-66.46258	
86.44547	5591.414		-67.62723	
86.49958	5587.425		-68.77139	
86.55369	5583.329		-69.89522	
86.6078	5579.133		-70.9988	
86.6619	5574.846		-72.08231	
86.71601	5570.479		-73.14583	
86.77012	5566.043		-74.18948	
86.82423	5561.542		-75.21332	
86.87833	5556.976		-76.21735	
86.93244	5552.35		-77.20155	
86.98655	5547.66		-78.16581	
87.04066	5542.9		-79.11008	
87.09477	5538.076		-80.03381	
87.14888	5533.211		-80.93681	
87.20299	5528.326		-81.81873	
87.2571	5523.429		-82.67924	
87.3112	5518.524		-83.51808	
87.36531	5513.609		-84.33503	
87.41942	5508.688		-85.12984	
87.47353	5503.769		-85.90237	
87.52763	5498.855		-86.65254	
87.58174	5493.957		-87.38026	
87.63585	5489.07		-88.0855	
87.68996	5484.19		-88.76836	
87.74406	5479.302		-89.42896	
87.79818	5474.396		-90.0676	
87.85229	5469.469		-90.6844	
87.90639	5464.51		-91.2798	
87.9605	5459.504		-91.85423	
88.01461	5454.447		-92.40813	
88.06872	5449.34		-92.94202	
88.12283	5444.191		-93.45649	
88.17693	5439.005		-93.95212	
88.23104	5433.792		-94.42957	
88.28515	5428.553		-94.88954	
88.33926	5423.292		-95.33274	
88.39336	5418.003		-95.75993	
88.44747	5412.683		-96.17191	
88.50158	5407.327		-96.56953	
88.55569	5401.933		-96.9537	
88.6098	5396.492		-97.3252	
88.66391	5391.007		-97.68497	
88.71802	5385.484		-98.03381	
88.77213	5379.938		-98.37254	
88.82623	5374.383		-98.70192	
88.88034	5368.844		-99.02271	
88.93445	5363.332		-99.33561	
88.98856	5357.848		-99.64128	
89.04266	5352.382		-99.94032	
89.09677	5346.935		-100.2332	
89.15088	5341.505		-100.5204	
89.20499	5336.1		-100.8024	
89.25909	5330.712		-101.0796	
89.31321	5325.328		-101.3525	
89.36732	5319.927		-101.6213	
89.42142	5314.488		-101.8866	
89.47553	5308.998		-102.1487	
89.52964	5303.46		-102.408	
89.58375	5297.886		-102.6649	
89.63786	5292.291		-102.9198	
89.69196	5286.685		-103.1732	
89.74607	5281.066		-103.4256	
89.80018	5275.427		-103.6774	
89.85429	5269.771		-103.9292	
89.90839	5264.109		-104.1813	
89.9625	5258.442		-104.4342	
90.01661	5252.771		-104.6882	
90.07072	5247.091		-104.9438	
90.12483	5241.398		-105.2011	
90.17894	5235.688		-105.4606	
90.23305	5229.962		-105.7226	
90.28716	5224.223		-105.9874	
90.34126	5218.472		-106.2552	
90.39537	5212.709		-106.5262	
90.44948	5206.938		-106.8005	
90.50359	5201.17		-107.0784	
90.55769	5195.418		-107.3598	
90.6118	5189.682		-107.6446	
90.66591	5183.95		-107.9327	
90.72002	5178.207		-108.224	
90.77412	5172.437		-108.5181	
90.82824	5166.628		-108.8146	
90.88235	5160.78		-109.1131	
90.93645	5154.888		-109.4129	
90.99056	5148.954		-109.7133	
91.04467	5142.985		-110.0133	
91.09878	5136.997		-110.3121	
91.15289	5131.006		-110.6085	
91.20699	5125.031		-110.9013	
91.2611	5119.085		-111.1894	
91.31521	5113.173		-111.4717	
91.36932	5107.287		-111.7471	
91.42342	5101.413		-112.0145	
91.47753	5095.527		-112.273	
91.53164	5089.609		-112.5216	
91.58575	5083.643		-112.7596	
91.63986	5077.635		-112.9863	
91.69397	5071.594		-113.2011	
91.74808	5065.52		-113.4037	
91.80219	5059.405		-113.5937	
91.85629	5053.25		-113.7708	
91.9104	5047.049		-113.9351	
91.96451	5040.811		-114.0865	
92.01862	5034.537		-114.2249	
92.07272	5028.235		-114.3507	
92.12683	5021.902		-114.4641	
92.18094	5015.538		-114.5653	
92.23505	5009.133		-114.6546	
92.28915	5002.688		-114.7323	
92.34327	4996.188		-114.7988	
92.39738	4989.625		-114.8542	
92.45148	4982.987		-114.7732	
92.50559	4976.283		-114.6852	
92.5597	4969.527		-114.5938	
92.61381	4962.74		-114.5019	
92.66792	4955.933		-114.4112	
92.72202	4949.133		-114.3224	
92.77613	4942.366		-114.2355	
92.83024	4935.66		-114.1504	
92.88435	4929.026		-114.0666	
92.93845	4922.466		-113.9836	
92.99256	4915.964		-113.9011	
93.04667	4909.512		-113.8185	
93.10078	4903.099		-113.7355	
93.15489	4896.715		-113.6516	
93.209	4890.349		-113.5665	
93.26311	4883.996		-113.48	
93.31721	4877.65		-113.3918	
93.37132	4871.327		-113.3016	
93.42543	4865.039		-113.2092	
93.47954	4858.802		-113.1146	
93.53365	4852.623		-113.0174	
93.58775	4846.513		-112.9176	
93.64186	4840.477		-112.8152	
93.69597	4834.513		-112.7098	
93.75008	4828.608		-112.6016	
93.80418	4822.752		-112.4905	
93.8583	4816.928		-112.3763	
93.91241	4811.125		-112.2592	
93.96651	4805.327		-112.139	
94.02062	4799.517		-112.0158	
94.07473	4793.685		-111.8897	
94.12884	4787.872		-111.7605	
94.18295	4782.008		-111.6284	
94.23705	4776.128		-111.4935	
94.29116	4770.249		-111.3556	
94.34527	4764.379		-111.215	
94.39938	4758.52		-111.0716	
94.45348	4752.673		-110.9256	
94.50759	4746.836		-110.777	
94.5617	4741.009		-110.6258	
94.61581	4735.187		-110.4722	
94.66992	4729.37		-110.3162	
94.72403	4723.554		-110.158	
94.77814	4717.738		-109.9975	
94.83224	4711.919		-109.8349	
94.88635	4706.095		-109.6703	
94.94046	4700.264		-109.5038	
94.99457	4694.426		-109.3353	
