T[Â°C]	330nm [counts / mm]	S.D.	First derivative	S.D. of first derivative
19.99934	7964.694		-118.6706	
20.05333	7958.802		-118.5303	
20.10732	7952.908		-118.3884	
20.1613	7947.011		-118.245	
20.2153	7941.109		-118.1	
20.26929	7935.204		-117.9534	
20.32327	7929.294		-117.8053	
20.37726	7923.377		-117.6555	
20.43125	7917.452		-117.5041	
20.48524	7911.517		-117.3511	
20.53923	7905.571		-117.1966	
20.59322	7899.613		-117.0404	
20.64721	7893.645		-116.8827	
20.7012	7887.667		-116.7235	
20.75519	7881.682		-116.5629	
20.80918	7875.692		-116.4007	
20.86317	7869.704		-116.2372	
20.91716	7863.723		-116.0724	
20.97115	7857.754		-115.9062	
21.02514	7851.601		-115.7389	
21.07913	7845.404		-115.5704	
21.13312	7839.167		-115.4008	
21.18711	7832.887		-115.2302	
21.2411	7826.558		-115.0587	
21.29509	7820.179		-114.8864	
21.34908	7813.75		-114.7134	
21.40307	7807.279		-114.5397	
21.45706	7800.772		-114.3655	
21.51105	7794.241		-114.191	
21.56504	7787.701		-114.0161	
21.61903	7781.16		-113.841	
21.67302	7774.627		-113.6659	
21.72701	7768.11		-113.4907	
21.781	7761.617		-113.3157	
21.83499	7755.149		-113.1409	
21.88898	7748.708		-112.9663	
21.94296	7742.297		-112.7921	
21.99695	7735.912		-112.6183	
22.05094	7729.561		-112.4448	
22.10493	7723.257		-112.2717	
22.15892	7717.02		-112.0989	
22.21291	7710.874		-111.9261	
22.2669	7704.831		-111.753	
22.32089	7698.883		-111.579	
22.37488	7693.009		-111.4032	
22.42887	7687.185		-111.2241	
22.48286	7681.398		-111.0394	
22.53685	7675.631		-110.8462	
22.59084	7669.858		-110.6416	
22.64483	7664.057		-110.4065	
22.69882	7658.213		-110.1714	
22.75281	7652.328		-109.9374	
22.8068	7646.417		-109.7055	
22.86079	7640.498		-109.4769	
22.91478	7634.579		-109.2525	
22.96877	7628.667		-109.0335	
23.02276	7622.768		-108.8209	
23.07675	7616.889		-108.6157	
23.13074	7611.042		-108.4188	
23.18473	7605.234		-108.2312	
23.23872	7599.463		-108.0536	
23.29271	7593.72		-107.8867	
23.3467	7587.994		-107.731	
23.40069	7582.271		-107.587	
23.45468	7576.535		-107.455	
23.50867	7570.777		-107.3351	
23.56265	7564.999		-107.2276	
23.61665	7559.202		-107.1325	
23.67064	7553.398		-107.0497	
23.72462	7547.615		-106.979	
23.77861	7541.885		-106.9202	
23.8326	7536.233		-106.8727	
23.88659	7530.671		-106.8361	
23.94058	7525.202		-106.8098	
23.99457	7519.823		-106.7929	
24.04856	7514.52		-106.7848	
24.10255	7509.258		-106.7845	
24.15654	7504.003		-106.7912	
24.21053	7498.731		-106.8038	
24.26452	7493.423		-106.8213	
24.31851	7488.076		-106.8427	
24.3725	7482.692		-106.8671	
24.42649	7477.272		-106.8936	
24.48048	7471.809		-106.9214	
24.53447	7466.295		-106.9498	
24.58846	7460.733		-106.9785	
24.64245	7455.13		-107.0069	
24.69644	7449.497		-107.0348	
24.75043	7443.837		-107.0619	
24.80442	7438.159		-107.088	
24.85841	7432.471		-107.1128	
24.9124	7426.76		-107.1361	
24.96639	7421.006		-107.1575	
25.02038	7415.185		-107.1767	
25.07437	7409.277		-107.1934	
25.12836	7403.279		-107.2072	
25.18235	7397.195		-107.2177	
25.23634	7391.035		-107.2244	
25.29033	7384.812		-107.2269	
25.34431	7378.547		-107.2247	
25.3983	7372.261		-107.2173	
25.45229	7365.966		-107.2041	
25.50628	7359.675		-107.1846	
25.56027	7353.394		-107.1584	
25.61426	7347.126		-107.1251	
25.66825	7340.874		-107.0844	
25.72224	7334.64		-107.0359	
25.77623	7328.431		-106.9795	
25.83022	7322.249		-106.9149	
25.88421	7316.108		-106.842	
25.9382	7310.033		-106.7605	
25.99219	7304.038		-106.6705	
26.04618	7298.13		-106.5718	
26.10017	7292.3		-106.4645	
26.15416	7286.537		-106.3489	
26.20815	7280.823		-106.225	
26.26214	7275.143		-106.0932	
26.31613	7269.493		-105.9537	
26.37012	7263.867		-105.8071	
26.42411	7258.258		-105.6539	
26.4781	7252.658		-105.4947	
26.53209	7247.058		-105.3302	
26.58608	7241.449		-105.1613	
26.64007	7235.817		-104.9888	
26.69406	7230.154		-104.8137	
26.74805	7224.465		-104.6368	
26.80204	7218.759		-104.4593	
26.85603	7213.045		-104.282	
26.91002	7207.328		-104.1061	
26.964	7201.611		-103.9321	
27.018	7195.898		-103.7609	
27.07199	7190.195		-103.5929	
27.12597	7184.511		-103.4287	
27.17996	7178.853		-103.2686	
27.23395	7173.224		-103.113	
27.28794	7167.631		-102.9622	
27.34193	7162.088		-102.8166	
27.39592	7156.613		-102.6763	
27.44991	7151.221		-102.5416	
27.5039	7145.92		-102.4128	
27.55789	7140.723		-102.29	
27.61188	7135.635		-102.1735	
27.66587	7130.645		-102.0636	
27.71986	7125.725		-101.9604	
27.77385	7120.837		-101.8641	
27.82784	7115.953		-101.7748	
27.88183	7111.052		-101.6924	
27.93582	7106.123		-101.617	
27.98981	7101.152		-101.5483	
28.0438	7096.129		-101.4861	
28.09779	7091.038		-101.4303	
28.15178	7085.861		-101.3804	
28.20577	7080.592		-101.3363	
28.25976	7075.235		-101.2976	
28.31375	7069.795		-101.2639	
28.36774	7064.29		-101.235	
28.42173	7058.739		-101.2106	
28.47572	7053.158		-101.1906	
28.52971	7047.55		-101.1744	
28.5837	7041.906		-101.1619	
28.63769	7036.211		-101.1525	
28.69168	7030.465		-101.1458	
28.74566	7024.678		-101.1413	
28.79965	7018.868		-101.1385	
28.85364	7013.056		-101.1368	
28.90763	7007.252		-101.1355	
28.96162	7001.463		-101.1338	
29.01561	6995.688		-101.1309	
29.0696	6989.938		-101.1257	
29.12359	6984.224		-101.1174	
29.17758	6978.559		-101.1049	
29.23157	6972.941		-101.0876	
29.28556	6967.371		-101.0644	
29.33955	6961.847		-101.035	
29.39354	6956.364		-100.9985	
29.44753	6950.915		-100.9548	
29.50152	6945.498		-100.9033	
29.55551	6940.116		-100.844	
29.6095	6934.771		-100.7767	
29.66349	6929.458		-100.7016	
29.71748	6924.15		-100.6187	
29.77147	6918.818		-100.5285	
29.82546	6913.438		-100.4312	
29.87945	6907.994		-100.3274	
29.93344	6902.482		-100.2179	
29.98743	6896.917		-100.1033	
30.04142	6891.309		-99.98458	
30.09541	6885.67		-99.86251	
30.1494	6880.011		-99.73798	
30.20339	6874.351		-99.61185	
30.25738	6868.7		-99.48492	
30.31137	6863.068		-99.35799	
30.36535	6857.469		-99.23184	
30.41935	6851.918		-99.10724	
30.47334	6846.419		-98.98496	
30.52732	6840.968		-98.86576	
30.58131	6835.556		-98.75031	
30.6353	6830.177		-98.63927	
30.68929	6824.823		-98.53319	
30.74328	6819.489		-98.43257	
30.79727	6814.172		-98.33781	
30.85126	6808.873		-98.24921	
30.90525	6803.591		-98.1669	
30.95924	6798.33		-98.09094	
31.01323	6793.099		-98.02123	
31.06722	6787.915		-97.95756	
31.12121	6782.798		-97.89959	
31.1752	6777.765		-97.84692	
31.22919	6772.821		-97.7991	
31.28318	6767.957		-97.75571	
31.33717	6763.156		-97.71631	
31.39116	6758.399		-97.68044	
31.44515	6753.666		-97.64766	
31.49914	6748.931		-97.61759	
31.55313	6744.181		-97.58988	
31.60712	6739.408		-97.56425	
31.66111	6734.6		-97.54048	
31.7151	6729.747		-97.51839	
31.76909	6724.833		-97.49792	
31.82308	6719.847		-97.47908	
31.87707	6714.783		-97.46205	
31.93106	6709.64		-97.44711	
31.98505	6704.421		-97.43463	
32.03904	6699.137		-97.425	
32.09303	6693.796		-97.4186	
32.14701	6688.415		-97.41581	
32.201	6683.016		-97.41687	
32.25499	6677.616		-97.42188	
32.30898	6672.225		-97.43082	
32.36297	6666.837		-97.4435	
32.41696	6661.442		-97.45966	
32.47095	6656.021		-97.47894	
32.52494	6650.554		-97.50088	
32.57893	6645.03		-97.52498	
32.63292	6639.46		-97.55067	
32.68691	6633.853		-97.57734	
32.7409	6628.224		-97.60439	
32.79489	6622.6		-97.6312	
32.84888	6617.003		-97.65715	
32.90287	6611.456		-97.68169	
32.95686	6605.967		-97.70428	
33.01085	6600.54		-97.72445	
33.06484	6595.162		-97.74174	
33.11883	6589.818		-97.75571	
33.17282	6584.497		-97.7659	
33.22681	6579.187		-97.7719	
33.2808	6573.874		-97.77332	
33.33479	6568.553		-97.76979	
33.38878	6563.231		-97.76098	
33.44277	6557.915		-97.74657	
33.49676	6552.606		-97.72633	
33.55075	6547.304		-97.70007	
33.60474	6542.006		-97.66769	
33.65873	6536.716		-97.62917	
33.71272	6531.44		-97.58461	
33.7667	6526.184		-97.5342	
33.82069	6520.944		-97.47827	
33.87468	6515.711		-97.41727	
33.92867	6510.482		-97.35181	
33.98266	6505.249		-97.28249	
34.03666	6499.995		-97.21001	
34.09064	6494.703		-97.13503	
34.14463	6489.366		-97.05817	
34.19862	6483.996		-96.98	
34.25261	6478.617		-96.90104	
34.3066	6473.25		-96.82174	
34.36059	6467.912		-96.74251	
34.41458	6462.617		-96.66368	
34.46857	6457.369		-96.58553	
34.52256	6452.169		-96.50824	
34.57655	6447.028		-96.43193	
34.63054	6441.946		-96.35667	
34.68453	6436.902		-96.28249	
34.73852	6431.873		-96.20934	
34.79251	6426.847		-96.13716	
34.8465	6421.825		-96.06581	
34.90049	6416.809		-95.99512	
34.95448	6411.804		-95.92496	
35.00847	6406.817		-95.85519	
35.06246	6401.853		-95.78571	
35.11645	6396.909		-95.71646	
35.17044	6391.979		-95.64743	
35.22443	6387.052		-95.57856	
35.27842	6382.119		-95.5098	
35.33241	6377.169		-95.44109	
35.38639	6372.2		-95.37241	
35.44038	6367.203		-95.30367	
35.49437	6362.165		-95.23476	
35.54837	6357.067		-95.16553	
35.60236	6351.898		-95.09579	
35.65635	6346.665		-95.02536	
35.71033	6341.387		-94.95406	
35.76432	6336.084		-94.88174	
35.81831	6330.766		-94.80824	
35.8723	6325.438		-94.73347	
35.92629	6320.106		-94.65745	
35.98028	6314.773		-94.58021	
36.03427	6309.442		-94.50185	
36.08826	6304.12		-94.42252	
36.14225	6298.813		-94.34234	
36.19624	6293.531		-94.26147	
36.25023	6288.276		-94.18005	
36.30422	6283.053		-94.09825	
36.35821	6277.863		-94.0162	
36.4122	6272.692		-93.93407	
36.46619	6267.528		-93.85203	
36.52018	6262.371		-93.77022	
36.57417	6257.239		-93.68879	
36.62816	6252.148		-93.60789	
36.68215	6247.104		-93.52766	
36.73614	6242.107		-93.44817	
36.79013	6237.146		-93.36946	
36.84412	6232.203		-93.2915	
36.89811	6227.255		-93.21416	
36.9521	6222.283		-93.13729	
37.00608	6217.279		-93.06074	
37.06008	6212.239		-92.98435	
37.11407	6207.167		-92.90807	
37.16806	6202.069		-92.83184	
37.22205	6196.95		-92.75563	
37.27604	6191.821		-92.67944	
37.33002	6186.699		-92.60332	
37.38401	6181.607		-92.52732	
37.438	6176.569		-92.45152	
37.49199	6171.586		-92.37595	
37.54598	6166.652		-92.30062	
37.59997	6161.753		-92.22556	
37.65396	6156.873		-92.15077	
37.70795	6152		-92.07623	
37.76194	6147.136		-92.00185	
37.81593	6142.286		-91.92756	
37.86992	6137.458		-91.85321	
37.92391	6132.647		-91.77866	
37.9779	6127.844		-91.7038	
38.03189	6123.048		-91.62849	
38.08588	6118.269		-91.55271	
38.13987	6113.509		-91.47648	
38.19386	6108.764		-91.39992	
38.24785	6104.033		-91.32325	
38.30184	6099.328		-91.24678	
38.35583	6094.659		-91.17094	
38.40982	6090.018		-91.09622	
38.46381	6085.382		-91.02324	
38.5178	6080.717		-90.95269	
38.57179	6075.986		-90.88528	
38.62578	6071.167		-90.82178	
38.67977	6066.255		-90.76283	
38.73376	6061.266		-90.70898	
38.78775	6056.226		-90.66065	
38.84174	6051.161		-90.6181	
38.89573	6046.086		-90.58144	
38.94971	6041.012		-90.55058	
39.0037	6035.936		-90.52531	
39.05769	6030.854		-90.50534	
39.11168	6025.769		-90.49028	
39.16567	6020.678		-90.47969	
39.21966	6015.583		-90.47305	
39.27365	6010.494		-90.46974	
39.32764	6005.419		-90.46904	
39.38163	6000.372		-90.47014	
39.43562	5995.351		-90.47217	
39.48961	5990.352		-90.47421	
39.5436	5985.374		-90.47533	
39.59759	5980.41		-90.47459	
39.65158	5975.455		-90.47107	
39.70557	5970.507		-90.46379	
39.75956	5965.569		-90.45179	
39.81355	5960.652		-90.43408	
39.86754	5955.773		-90.40968	
39.92153	5950.942		-90.37759	
39.97552	5946.165		-90.33684	
40.02951	5941.452		-90.28648	
40.0835	5936.801		-90.22567	
40.13749	5932.192		-90.15367	
40.19148	5927.595		-90.06995	
40.24547	5922.98		-89.97416	
40.29946	5918.334		-89.86624	
40.35345	5913.656		-89.74641	
40.40744	5908.959		-89.61515	
40.46143	5904.261		-89.47322	
40.51542	5899.564		-89.32163	
40.5694	5894.864		-89.16169	
40.62339	5890.149		-88.99484	
40.67738	5885.403		-88.82265	
40.73137	5880.612		-88.64673	
40.78536	5875.773		-88.46871	
40.83936	5870.877		-88.29025	
40.89334	5865.916		-88.11292	
40.94733	5860.883		-87.93813	
41.00132	5855.778		-87.76708	
41.05531	5850.609		-87.60078	
41.1093	5845.383		-87.44008	
41.16329	5840.105		-87.28561	
41.21728	5834.801		-87.1379	
41.27127	5829.509		-86.99728	
41.32526	5824.267		-86.86394	
41.37925	5819.099		-86.73789	
41.43324	5814.024		-86.61903	
41.48723	5809.065		-86.5071	
41.54122	5804.233		-86.40175	
41.59521	5799.525		-86.30251	
41.6492	5794.919		-86.20885	
41.70319	5790.383		-86.12016	
41.75718	5785.88		-86.03574	
41.81117	5781.381		-85.95489	
41.86516	5776.874		-85.87688	
41.91915	5772.364		-85.80093	
41.97314	5767.873		-85.72625	
42.02713	5763.423		-85.65206	
42.08112	5759.038		-85.57758	
42.13511	5754.742		-85.50212	
42.18909	5750.548		-85.42506	
42.24308	5746.459		-85.34592	
42.29707	5742.464		-85.26442	
42.35107	5738.543		-85.18042	
42.40506	5734.671		-85.09406	
42.45905	5730.81		-85.00565	
42.51303	5726.921		-84.91572	
42.56702	5722.965		-84.82501	
42.62101	5718.908		-84.73441	
42.675	5714.721		-84.6449	
42.72899	5710.4		-84.55762	
42.78298	5705.952		-84.47381	
42.83697	5701.387		-84.3948	
42.89096	5696.726		-84.32194	
42.94495	5691.997		-84.25652	
42.99894	5687.225		-84.19969	
43.05293	5682.434		-84.15237	
43.10692	5677.635		-84.11526	
43.16091	5672.837		-84.08884	
43.2149	5668.052		-84.07334	
43.26889	5663.288		-84.06878	
43.32288	5658.538		-84.075	
43.37687	5653.784		-84.09159	
43.43086	5649.012		-84.118	
43.48485	5644.22		-84.15347	
43.53884	5639.414		-84.19711	
43.59283	5634.61		-84.24795	
43.64682	5629.825		-84.3049	
43.70081	5625.063		-84.36687	
43.7548	5620.323		-84.43275	
43.80878	5615.612		-84.50143	
43.86278	5610.94		-84.57182	
43.91677	5606.312		-84.64275	
43.97076	5601.727		-84.71308	
44.02475	5597.181		-84.78168	
44.07874	5592.675		-84.84744	
44.13272	5588.209		-84.90923	
44.18671	5583.784		-84.96594	
44.2407	5579.395		-85.01653	
44.29469	5575.03		-85.06001	
44.34868	5570.681		-85.09548	
44.40267	5566.336		-85.12222	
44.45666	5561.98		-85.13966	
44.51065	5557.604		-85.14741	
44.56464	5553.194		-85.14533	
44.61863	5548.739		-85.13349	
44.67262	5544.232		-85.11214	
44.72661	5539.677		-85.08177	
44.7806	5535.073		-85.04303	
44.83459	5530.422		-84.99675	
44.88858	5525.735		-84.94389	
44.94257	5521.015		-84.88549	
44.99656	5516.256		-84.82259	
45.05055	5511.464		-84.75626	
45.10454	5506.638		-84.68749	
45.15853	5501.785		-84.61726	
45.21252	5496.923		-84.54641	
45.26651	5492.074		-84.47564	
45.3205	5487.249		-84.40556	
45.37449	5482.453		-84.33659	
45.42848	5477.685		-84.26906	
45.48247	5472.945		-84.20316	
45.53646	5468.241		-84.13898	
45.59045	5463.583		-84.07652	
45.64444	5458.975		-84.01572	
45.69843	5454.416		-83.9565	
45.75241	5449.902		-83.89877	
45.8064	5445.432		-83.84248	
45.86039	5440.996		-83.78754	
45.91438	5436.576		-83.7339	
45.96837	5432.154		-83.6815	
46.02236	5427.719		-83.63027	
46.07635	5423.264		-83.58019	
46.13034	5418.793		-83.53115	
46.18433	5414.316		-83.48301	
46.23832	5409.841		-83.43555	
46.29231	5405.376		-83.38847	
46.3463	5400.935		-83.34144	
46.40029	5396.526		-83.29405	
46.45428	5392.16		-83.2459	
46.50827	5387.832		-83.19657	
46.56226	5383.525		-83.14574	
46.61625	5379.213		-83.09316	
46.67024	5374.875		-83.03865	
46.72423	5370.498		-82.98209	
46.77822	5366.071		-82.92346	
46.83221	5361.597		-82.86279	
46.8862	5357.095		-82.80013	
46.94019	5352.584		-82.7356	
46.99418	5348.086		-82.66936	
47.04817	5343.606		-82.60162	
47.10216	5339.142		-82.53257	
47.15615	5334.689		-82.46244	
47.21014	5330.255		-82.39142	
47.26413	5325.852		-82.31965	
47.31812	5321.486		-82.24721	
47.3721	5317.155		-82.1741	
47.42609	5312.851		-82.1003	
47.48008	5308.564		-82.02567	
47.53407	5304.285		-81.95005	
47.58806	5299.999		-81.87318	
47.64205	5295.688		-81.79478	
47.69604	5291.336		-81.71456	
47.75003	5286.935		-81.63229	
47.80402	5282.49		-81.54774	
47.85801	5278.009		-81.46082	
47.912	5273.496		-81.37143	
47.96599	5268.954		-81.2796	
48.01998	5264.384		-81.18542	
48.07397	5259.798		-81.08906	
48.12796	5255.208		-80.99072	
48.18195	5250.629		-80.89068	
48.23594	5246.07		-80.78919	
48.28993	5241.527		-80.68651	
48.34392	5236.993		-80.58285	
48.39791	5232.463		-80.47839	
48.4519	5227.938		-80.37325	
48.50589	5223.422		-80.2676	
48.55988	5218.916		-80.16152	
48.61387	5214.424		-80.05514	
48.66786	5209.957		-79.94854	
48.72185	5205.513		-79.84184	
48.77584	5201.085		-79.73515	
48.82983	5196.667		-79.62856	
48.88382	5192.26		-79.52219	
48.93781	5187.876		-79.41623	
48.99179	5183.535		-79.31091	
49.04578	5179.248		-79.20652	
49.09977	5175.016		-79.10335	
49.15376	5170.831		-79.00173	
49.20776	5166.683		-78.90203	
49.26175	5162.565		-78.80463	
49.31573	5158.462		-78.70992	
49.36972	5154.361		-78.61823	
49.42371	5150.257		-78.52993	
49.4777	5146.147		-78.44528	
49.53169	5142.036		-78.36449	
49.58568	5137.925		-78.28771	
49.63967	5133.813		-78.21503	
49.69366	5129.696		-78.14645	
49.74765	5125.578		-78.08199	
49.80164	5121.47		-78.02168	
49.85563	5117.388		-77.96555	
49.90962	5113.339		-77.91369	
49.96361	5109.315		-77.86617	
50.0176	5105.302		-77.82314	
50.07159	5101.292		-77.78474	
50.12558	5097.28		-77.75115	
50.17957	5093.271		-77.72251	
50.23356	5089.269		-77.699	
50.28755	5085.269		-77.6807	
50.34154	5081.266		-77.66771	
50.39553	5077.254		-77.66	
50.44952	5073.227		-77.65744	
50.50351	5069.18		-77.65984	
50.5575	5065.11		-77.66692	
50.61148	5061.019		-77.67835	
50.66547	5056.906		-77.69375	
50.71947	5052.774		-77.71268	
50.77346	5048.624		-77.73463	
50.82745	5044.454		-77.759	
50.88144	5040.272		-77.7851	
50.93542	5036.09		-77.81223	
50.98941	5031.903		-77.83961	
51.0434	5027.705		-77.86646	
51.09739	5023.491		-77.89195	
51.15138	5019.252		-77.91529	
51.20537	5014.989		-77.93565	
51.25936	5010.702		-77.95226	
51.31335	5006.396		-77.96443	
51.36734	5002.08		-77.97153	
51.42133	4997.767		-77.97301	
51.47532	4993.456		-77.96841	
51.52931	4989.142		-77.95737	
51.5833	4984.819		-77.93957	
51.63729	4980.484		-77.91471	
51.69128	4976.131		-77.88258	
51.74527	4971.762		-77.84298	
51.79926	4967.379		-77.79581	
51.85325	4962.989		-77.74102	
51.90724	4958.594		-77.67867	
51.96123	4954.197		-77.60893	
52.01522	4949.808		-77.53204	
52.06921	4945.429		-77.44831	
52.1232	4941.055		-77.35807	
52.17719	4936.689		-77.2617	
52.23118	4932.335		-77.15955	
52.28517	4928.003		-77.05209	
52.33916	4923.69		-76.9398	
52.39315	4919.389		-76.82322	
52.44714	4915.087		-76.70293	
52.50113	4910.783		-76.57955	
52.55511	4906.475		-76.45374	
52.6091	4902.161		-76.32622	
52.66309	4897.848		-76.19776	
52.71708	4893.542		-76.06915	
52.77107	4889.247		-75.94112	
52.82506	4884.965		-75.81434	
52.87905	4880.715		-75.6894	
52.93304	4876.513		-75.56683	
52.98703	4872.366		-75.44704	
53.04102	4868.285		-75.33043	
53.09501	4864.27		-75.21724	
53.149	4860.313		-75.10767	
53.20299	4856.396		-75.00178	
53.25698	4852.493		-74.89955	
53.31097	4848.588		-74.80093	
53.36496	4844.683		-74.70585	
53.41895	4840.789		-74.61425	
53.47294	4836.909		-74.52608	
53.52693	4833.05		-74.44132	
53.58092	4829.227		-74.35995	
53.63491	4825.444		-74.28198	
53.6889	4821.71		-74.20747	
53.74289	4818.032		-74.13651	
53.79688	4814.411		-74.06919	
53.85087	4810.831		-74.00568	
53.90486	4807.269		-73.94612	
53.95885	4803.714		-73.89073	
54.01284	4800.156		-73.83968	
54.06683	4796.571		-73.79315	
54.12082	4792.942		-73.75132	
54.1748	4789.258		-73.71432	
54.22879	4785.521		-73.68228	
54.28278	4781.735		-73.65528	
54.33677	4777.912		-73.63339	
54.39076	4774.053		-73.61668	
54.44475	4770.161		-73.60517	
54.49874	4766.237		-73.59888	
54.55273	4762.275		-73.59782	
54.60672	4758.273		-73.60194	
54.66071	4754.239		-73.61114	
54.7147	4750.184		-73.62531	
54.76869	4746.119		-73.64425	
54.82268	4742.049		-73.66766	
54.87667	4737.969		-73.69517	
54.93066	4733.866		-73.72626	
54.98465	4729.729		-73.76032	
55.03864	4725.557		-73.79665	
55.09263	4721.35		-73.83439	
55.14662	4717.118		-73.8726	
55.20061	4712.866		-73.91021	
55.2546	4708.603		-73.94606	
55.30859	4704.342		-73.97894	
55.36258	4700.098		-74.00765	
55.41657	4695.882		-74.03101	
55.47056	4691.694		-74.04781	
55.52455	4687.535		-74.05694	
55.57854	4683.401		-74.05729	
55.63253	4679.288		-74.04788	
55.68652	4675.188		-74.02784	
55.74051	4671.108		-73.99644	
55.79449	4667.057		-73.95315	
55.84848	4663.032		-73.89757	
55.90247	4659.031		-73.82955	
55.95646	4655.043		-73.74911	
56.01046	4651.055		-73.65643	
56.06445	4647.057		-73.5519	
56.11843	4643.045		-73.43612	
56.17242	4639.014		-73.30988	
56.22641	4634.969		-73.17414	
56.2804	4630.918		-73.03004	
56.33439	4626.879		-72.87878	
56.38838	4622.866		-72.72164	
56.44237	4618.89		-72.5599	
56.49636	4614.949		-72.39489	
56.55035	4611.032		-72.22792	
56.60434	4607.117		-72.06025	
56.65833	4603.18		-71.8931	
56.71232	4599.196		-71.72762	
56.76631	4595.158		-71.5649	
56.8203	4591.071		-71.40592	
56.87429	4586.947		-71.25155	
56.92828	4582.805		-71.10247	
56.98227	4578.671		-70.95924	
57.03626	4574.569		-70.82225	
57.09025	4570.517		-70.69174	
57.14424	4566.521		-70.56787	
57.19823	4562.582		-70.45065	
57.25222	4558.695		-70.34002	
57.30621	4554.865		-70.23582	
57.3602	4551.101		-70.1378	
57.41418	4547.404		-70.0456	
57.46817	4543.772		-69.95874	
57.52217	4540.206		-69.8766	
57.57616	4536.698		-69.7985	
57.63015	4533.243		-69.72367	
57.68414	4529.834		-69.65131	
57.73812	4526.473		-69.5806	
57.79211	4523.163		-69.51074	
57.8461	4519.9		-69.44098	
57.90009	4516.67		-69.37066	
57.95408	4513.457		-69.29918	
58.00807	4510.247		-69.22607	
58.06206	4507.044		-69.15099	
58.11605	4503.839		-69.07383	
58.17004	4500.617		-68.99466	
58.22403	4497.356		-68.91374	
58.27802	4494.036		-68.83149	
58.33201	4490.641		-68.74843	
58.386	4487.165		-68.66512	
58.43999	4483.601		-68.58212	
58.49398	4479.956		-68.50005	
58.54797	4476.242		-68.41949	
58.60196	4472.47		-68.34105	
58.65595	4468.641		-68.26528	
58.70994	4464.75		-68.19267	
58.76393	4460.796		-68.12358	
58.81792	4456.778		-68.0583	
58.87191	4452.704		-67.99691	
58.9259	4448.585		-67.93941	
58.97989	4444.438		-67.88562	
59.03388	4440.275		-67.83519	
59.08787	4436.113		-67.7877	
59.14186	4431.963		-67.7426	
59.19585	4427.837		-67.69929	
59.24984	4423.75		-67.65709	
59.30383	4419.713		-67.61527	
59.35781	4415.736		-67.57307	
59.4118	4411.822		-67.52962	
59.46579	4407.969		-67.48405	
59.51978	4404.174		-67.43539	
59.57377	4400.428		-67.38266	
59.62776	4396.727		-67.32483	
59.68175	4393.063		-67.26087	
59.73574	4389.433		-67.18973	
59.78973	4385.841		-67.11036	
59.84372	4382.281		-67.02175	
59.89771	4378.743		-66.92297	
59.9517	4375.21		-66.81313	
60.00569	4371.685		-66.69144	
60.05968	4368.176		-66.55725	
60.11367	4364.69		-66.41013	
60.16766	4361.23		-66.24977	
60.22165	4357.789		-66.07613	
60.27564	4354.36		-65.88936	
60.32963	4350.938		-65.68975	
60.38362	4347.515		-65.47775	
60.43761	4344.086		-65.25393	
60.4916	4340.649		-65.01894	
60.54559	4337.202		-64.77357	
60.59958	4333.745		-64.51871	
60.65357	4330.27		-64.25528	
60.70756	4326.77		-63.98419	
60.76155	4323.229		-63.70632	
60.81554	4319.649		-63.42246	
60.86953	4316.045		-63.13334	
60.92352	4312.442		-62.83961	
60.9775	4308.867		-62.5418	
61.03149	4305.337		-62.24034	
61.08548	4301.856		-61.93553	
61.13947	4298.421		-61.62751	
61.19346	4295.03		-61.31631	
61.24745	4291.68		-61.00184	
61.30145	4288.362		-60.68388	
61.35543	4285.072		-60.36219	
61.40942	4281.802		-60.03641	
61.46341	4278.542		-59.70615	
61.5174	4275.282		-59.37097	
61.57139	4272.017		-59.03036	
61.62538	4268.745		-58.68377	
61.67937	4265.466		-58.33059	
61.73336	4262.188		-57.97009	
61.78735	4258.923		-57.60155	
61.84134	4255.681		-57.22417	
61.89533	4252.475		-56.83717	
61.94932	4249.31		-56.43974	
62.00331	4246.189		-56.03106	
62.0573	4243.118		-55.61027	
62.11129	4240.096		-55.17664	
62.16528	4237.117		-54.72942	
62.21927	4234.166		-54.2679	
62.27326	4231.232		-53.79149	
62.32725	4228.312		-53.29971	
62.38124	4225.401		-52.79221	
62.43523	4222.497		-52.26873	
62.48922	4219.595		-51.72917	
62.54321	4216.7		-51.17348	
62.59719	4213.824		-50.60178	
62.65118	4210.976		-50.01413	
62.70517	4208.154		-49.41064	
62.75916	4205.353		-48.79133	
62.81316	4202.565		-48.1562	
62.86715	4199.786		-47.50529	
62.92113	4197.011		-46.83842	
62.97512	4194.25		-46.15536	
63.02911	4191.514		-45.45572	
63.0831	4188.816		-44.73896	
63.13709	4186.165		-44.00437	
63.19108	4183.56		-43.25112	
63.24507	4180.999		-42.4782	
63.29906	4178.48		-41.68458	
63.35305	4176.01		-40.86906	
63.40704	4173.595		-40.0305	
63.46103	4171.235		-39.16764	
63.51502	4168.929		-38.27925	
63.56901	4166.675		-37.36385	
63.623	4164.475		-36.42015	
63.67699	4162.327		-35.44657	
63.73098	4160.224		-34.44151	
63.78497	4158.153		-33.40337	
63.83896	4156.11		-32.3305	
63.89295	4154.105		-31.22125	
63.94694	4152.148		-30.07389	
64.00093	4150.252		-28.88663	
64.05492	4148.427		-27.65794	
64.10891	4146.68		-26.38568	
64.1629	4145.012		-25.06841	
64.21689	4143.427		-23.70393	
64.27087	4141.932		-22.29088	
64.32487	4140.528		-20.82719	
64.37885	4139.212		-19.31169	
64.43285	4137.966		-17.7425	
64.48683	4136.78		-16.11872	
64.54082	4135.651		-14.43865	
64.59481	4134.582		-12.70169	
64.6488	4133.569		-10.90634	
64.7028	4132.61		-9.051897	
64.75678	4131.703		-7.137797	
64.81078	4130.848		-5.162732	
64.86476	4130.04		-3.126563	
64.91875	4129.269		-1.028017	
64.97274	4128.531		1.133055	
65.02673	4127.837		3.358111	
65.08072	4127.202		5.647489	
65.13471	4126.645		8.002947	
65.1887	4126.187		10.4251	
65.24269	4125.845		12.91611	
65.29668	4125.633		15.4769	
65.35067	4125.558		18.10997	
65.40466	4125.622		20.81646	
65.45865	4125.822		23.59916	
65.51264	4126.163		26.45982	
65.56663	4126.651		29.40029	
65.62062	4127.301		32.4238	
65.67461	4128.121		35.53204	
65.7286	4129.114		38.72853	
65.78259	4130.282		42.0151	
65.83658	4131.634		45.39545	
65.89056	4133.177		48.8715	
65.94456	4134.928		52.44715	
65.99854	4136.898		56.12442	
66.05254	4139.101		59.90744	
66.10652	4141.544		63.7983	
66.16051	4144.241		67.80132	
66.21451	4147.207		71.91922	
66.26849	4150.453		76.15463	
66.32249	4153.978		80.51201	
66.37647	4157.767		84.99335	
66.43047	4161.799		89.60308	
66.48445	4166.054		94.34301	
66.53844	4170.514		99.21754	
66.59243	4175.167		104.2282	
66.64642	4180.005		109.3794	
66.70041	4185.035		114.6724	
66.7544	4190.271		120.1114	
66.80839	4195.734		125.6975	
66.86238	4201.44		131.435	
66.91637	4207.408		137.3247	
66.97036	4213.655		143.371	
67.02435	4220.187		149.5757	
67.07834	4227.004		155.9405	
67.13233	4234.106		162.4702	
67.18632	4241.493		169.1662	
67.24031	4249.179		176.0335	
67.2943	4257.174		183.0739	
67.34829	4265.487		190.2934	
67.40228	4274.111		197.6939	
67.45627	4283.046		205.2822	
67.51025	4292.296		213.0607	
67.56425	4301.881		221.0367	
67.61823	4311.824		229.2128	
67.67223	4322.154		237.5967	
67.72622	4332.901		246.1922	
67.7802	4344.099		255.0032	
67.8342	4355.781		264.0369	
67.88818	4367.967		273.2953	
67.94218	4380.67		282.7849	
67.99616	4393.885		292.5066	
68.05016	4407.617		302.4661	
68.10414	4421.87		312.6628	
68.15813	4436.661		323.101	
68.21212	4452		333.7783	
68.26611	4467.906		344.6973	
68.3201	4484.382		355.8537	
68.37409	4501.445		367.2484	
68.42808	4519.102		378.8751	
68.48207	4537.375		390.7327	
68.53606	4556.275		402.8145	
68.59005	4575.815		415.1125	
68.64404	4596.016		427.623	
68.69803	4616.884		440.3341	
68.75202	4638.43		453.2403	
68.80601	4660.643		466.3277	
68.86	4683.528		479.5887	
68.91399	4707.079		493.0075	
68.96798	4731.313		506.5747	
69.02197	4756.24		520.2723	
69.07596	4781.879		534.0892	
69.12994	4808.244		548.0056	
69.18394	4835.364		562.0084	
69.23793	4863.27		576.0781	
69.29192	4892		590.1943	
69.34591	4921.604		604.342	
69.39989	4952.108		618.4974	
69.45389	4983.557		632.6441	
69.50787	5015.966		646.7575	
69.56187	5049.368		660.8203	
69.61585	5083.775		674.8069	
69.66985	5119.225		688.6992	
69.72383	5155.74		702.4709	
69.77782	5193.361		716.1033	
69.83181	5232.109		729.5691	
69.8858	5272.032		742.8488	
69.93979	5313.143		755.9146	
69.99378	5355.476		768.7461	
70.04778	5399.051		781.3168	
70.10176	5443.883		793.5999	
70.15575	5489.995		805.5736	
70.20974	5537.372		817.2089	
70.26373	5586.002		828.483	
70.31772	5635.822		839.3668	
70.37171	5686.776		849.8372	
70.4257	5738.768		859.8653	
70.47969	5791.722		869.428	
70.53368	5845.529		878.4974	
70.58767	5900.12		887.051	
70.64165	5955.398		895.0623	
70.69565	6011.299		902.5103	
70.74963	6067.733		909.3704	
70.80363	6124.658		915.6235	
70.85762	6182.024		921.2488	
70.91161	6239.801		926.2272	
70.9656	6297.988		930.5432	
71.01958	6356.546		934.1803	
71.07358	6415.467		937.1262	
71.12756	6474.699		939.3683	
71.18156	6534.222		940.8978	
71.23554	6593.981		941.7063	
71.28954	6653.948		941.7886	
71.34352	6714.047		941.1411	
71.39751	6774.244		939.7621	
71.4515	6834.467		937.653	
71.50549	6894.675		934.816	
71.55949	6954.806		931.2563	
71.61347	7014.8		926.9818	
71.66747	7074.627		922.0002	
71.72145	7134.226		916.3242	
71.77544	7193.57		909.9651	
71.82943	7252.59		902.9396	
71.88342	7311.237		895.2621	
71.93741	7369.405		886.9531	
71.9914	7427.021		878.0298	
72.04539	7483.964		868.5161	
72.09938	7540.14		858.4313	
72.15337	7595.417		847.8019	
72.20736	7649.7		836.6491	
72.26134	7702.859		825.0012	
72.31534	7754.803		812.8807	
72.36933	7805.417		800.3153	
72.42332	7854.604		787.3336	
72.47731	7902.311		773.9589	
72.5313	7948.49		760.2219	
72.58529	7993.145		746.146	
72.63927	8036.27		731.7623	
72.69327	8077.888		717.0941	
72.74725	8117.999		702.1725	
72.80125	8156.621		687.0209	
72.85523	8193.76		671.6707	
72.90923	8229.442		656.1448	
72.96321	8263.677		640.4748	
73.0172	8296.496		624.6833	
73.0712	8327.92		608.7998	
73.12518	8357.975		592.8533	
73.17918	8386.706		576.8664	
73.23316	8414.148		560.8702	
73.28716	8440.346		544.8867	
73.34114	8465.33		528.9462	
73.39513	8489.147		513.0701	
73.44912	8511.822		497.2876	
73.50311	8533.4		481.6185	
73.5571	8553.919		466.0908	
73.61109	8573.44		450.7228	
73.66508	8592.012		435.5406	
73.71907	8609.699		420.5609	
73.77306	8626.557		405.8076	
73.82705	8642.64		391.2952	
73.88104	8657.991		377.0433	
73.93503	8672.659		363.0701	
73.98902	8686.689		349.3866	
74.04301	8700.11		336.0101	
74.097	8712.951		322.9491	
74.15099	8725.226		310.2177	
74.20498	8736.964		297.8216	
74.25896	8748.193		285.7716	
74.31296	8758.94		274.0702	
74.36694	8769.209		262.725	
74.42094	8779.016		251.7353	
74.47492	8788.374		241.105	
74.52892	8797.31		230.8305	
74.58291	8805.836		220.9108	
74.63689	8813.962		211.3434	
74.69089	8821.712		202.1203	
74.74487	8829.11		193.2374	
74.79887	8836.188		184.6844	
74.85285	8842.966		176.4548	
74.90685	8849.453		168.5368	
74.96083	8855.65		160.9222	
75.01482	8861.568		153.5979	
75.06881	8867.211		146.5544	
75.1228	8872.584		139.7783	
75.17679	8877.691		133.2596	
75.23078	8882.547		126.9849	
75.28477	8887.176		120.9444	
75.33876	8891.619		115.1251	
75.39275	8895.91		109.5166	
75.44674	8900.076		104.1091	
75.50073	8904.136		98.89035	
75.55472	8908.095		93.85195	
75.60871	8911.959		88.98291	
75.6627	8915.733		84.27561	
75.71669	8919.437		79.72023	
75.77068	8923.065		75.31008	
75.82467	8926.602		71.0364	
75.87865	8930.017		66.89339	
75.93265	8933.282		62.87332	
75.98663	8936.368		58.97124	
76.04063	8939.258		55.1804	
76.09462	8941.946		51.49611	
76.14861	8944.447		47.91402	
76.2026	8946.792		44.4286	
76.25658	8949.012		41.03654	
76.31058	8951.119		37.73283	
76.36456	8953.109		34.51455	
76.41856	8954.974		31.37715	
76.47254	8956.704		28.31811	
76.52654	8958.297		25.33334	
76.58052	8959.737		22.42068	
76.63451	8961.01		19.5765	
76.6885	8962.1		16.79897	
76.74249	8962.984		14.08479	
76.79648	8963.657		11.43235	
76.85047	8964.109		8.838652	
76.90446	8964.32		6.301994	
76.95845	8964.297		3.820762	
77.01244	8964.057		1.392378	
77.06643	8963.629		-0.9842882	
77.12042	8963.033		-3.311644	
77.17441	8962.271		-5.590674	
77.2284	8961.342		-7.823543	
77.28239	8960.239		-10.01099	
77.33638	8958.962		-12.15483	
77.39037	8957.515		-14.25541	
77.44436	8955.898		-16.31409	
77.49834	8954.103		-18.33083	
77.55234	8952.107		-20.30652	
77.60633	8949.884		-22.24095	
77.66032	8947.422		-24.13367	
77.71431	8944.743		-25.98481	
77.7683	8941.889		-27.79322	
77.82229	8938.915		-29.55863	
77.87627	8935.89		-31.27961	
77.93027	8932.866		-32.95557	
77.98425	8929.878		-34.58488	
78.03825	8926.936		-36.16676	
78.09223	8924.035		-37.69943	
78.14622	8921.181		-39.18206	
78.20021	8918.392		-40.61304	
78.2542	8915.677		-41.99173	
78.30819	8913.028		-43.31682	
78.36218	8910.416		-44.58786	
78.41618	8907.808		-45.80397	
78.47016	8905.178		-46.96446	
78.52415	8902.501		-48.06929	
78.57814	8899.757		-49.11798	
78.63213	8896.952		-50.11089	
78.68612	8894.104		-51.04803	
78.74011	8891.229		-51.93031	
78.7941	8888.33		-52.7583	
78.84809	8885.391		-53.53329	
78.90208	8882.396		-54.25621	
78.95607	8879.34		-54.92854	
79.01006	8876.23		-55.55151	
79.06405	8873.074		-56.12689	
79.11804	8869.875		-56.65631	
79.17203	8866.632		-57.14159	
79.22602	8863.334		-57.58482	
79.28001	8859.963		-57.98788	
79.334	8856.504		-58.35293	
79.38799	8852.951		-58.68185	
79.44198	8849.32		-58.97667	
79.49596	8845.644		-59.23921	
79.54996	8841.956		-59.47141	
79.60394	8838.277		-59.675	
79.65794	8834.613		-59.8517	
79.71192	8830.965		-60.00301	
79.76591	8827.339		-60.13039	
79.8199	8823.741		-60.23511	
79.87389	8820.18		-60.31838	
79.92789	8816.657		-60.38127	
79.98187	8813.174		-60.4247	
80.03587	8809.705		-60.44949	
80.08985	8806.225		-60.4563	
80.14384	8802.721		-60.44572	
80.19783	8799.196		-60.41831	
80.25182	8795.654		-60.37461	
80.30581	8792.109		-60.31521	
80.3598	8788.577		-60.24066	
80.41379	8785.072		-60.15161	
80.46778	8781.592		-60.04872	
80.52177	8778.121		-59.93279	
80.57576	8774.652		-59.80468	
80.62975	8771.196		-59.66547	
80.68374	8767.777		-59.51643	
80.73773	8764.407		-59.35891	
80.79172	8761.089		-59.19446	
80.84571	8757.818		-59.02462	
80.8997	8754.594		-58.85109	
80.95369	8751.414		-58.67551	
81.00768	8748.266		-58.49971	
81.06167	8745.137		-58.32557	
81.11565	8742.024		-58.15517	
81.16965	8738.934		-57.99063	
81.22363	8735.874		-57.83418	
81.27763	8732.842		-57.68792	
81.33161	8729.818		-57.55396	
81.3856	8726.789		-57.43421	
81.4396	8723.76		-57.33054	
81.49358	8720.751		-57.24472	
81.54758	8717.776		-57.17836	
81.60156	8714.833		-57.13298	
81.65556	8711.898		-57.10991	
81.70954	8708.955		-57.11031	
81.76353	8705.996		-57.13519	
81.81752	8703.029		-57.18537	
81.87151	8700.067		-57.26162	
81.9255	8697.133		-57.36453	
81.97949	8694.249		-57.49465	
82.03348	8691.433		-57.65235	
82.08747	8688.693		-57.83796	
82.14146	8686.039		-58.05159	
82.19545	8683.457		-58.29327	
82.24944	8680.929		-58.56307	
82.30343	8678.444		-58.86092	
82.35742	8675.992		-59.18695	
82.41141	8673.551		-59.54117	
82.4654	8671.098		-59.92382	
82.51939	8668.617		-60.33502	
82.57338	8666.106		-60.7752	
82.62737	8663.568		-61.24465	
82.68136	8660.998		-61.744	
82.73534	8658.386		-62.27369	
82.78934	8655.718		-62.83452	
82.84332	8652.983		-63.42709	
82.89732	8650.168		-64.05237	
82.95131	8647.253		-64.71115	
83.00529	8644.23		-65.40425	
83.05929	8641.102		-66.13285	
83.11327	8637.866		-66.89777	
83.16727	8634.525		-67.7003	
83.22125	8631.087		-68.54129	
83.27525	8627.557		-69.422	
83.32923	8623.936		-70.34309	
83.38322	8620.209		-71.30566	
83.43721	8616.371		-72.31014	
83.4912	8612.43		-73.35738	
83.54519	8608.403		-74.44743	
83.59918	8604.297		-75.58077	
83.65318	8600.106		-76.75716	
83.70716	8595.827		-77.97606	
83.76115	8591.46		-79.23721	
83.81514	8587.018		-80.53932	
83.86913	8582.516		-81.88161	
83.92312	8577.974		-83.26228	
83.97711	8573.404		-84.68021	
84.0311	8568.821		-86.13325	
84.08509	8564.234		-87.61983	
84.13908	8559.663		-89.13731	
84.19307	8555.119		-90.68368	
84.24706	8550.601		-92.25592	
84.30105	8546.094		-93.85178	
84.35503	8541.576		-95.46804	
84.40903	8537.017		-97.10233	
84.46302	8532.374		-98.75159	
84.51701	8527.623		-100.4128	
84.571	8522.736		-102.0835	
84.62498	8517.707		-103.7605	
84.67898	8512.542		-105.4416	
84.73296	8507.259		-107.1237	
84.78696	8501.875		-108.8049	
84.84094	8496.408		-110.4824	
84.89494	8490.867		-112.1546	
84.94892	8485.262		-113.819	
85.00291	8479.588		-115.4743	
85.0569	8473.837		-117.1183	
85.11089	8467.968		-118.7498	
85.16489	8461.941		-120.3672	
85.21887	8455.732		-121.9691	
85.27287	8449.321		-123.5548	
85.32685	8442.694		-125.123	
85.38084	8435.846		-126.6735	
85.43483	8428.775		-128.2052	
85.48882	8421.502		-129.7182	
85.54281	8414.054		-131.2117	
85.5968	8406.457		-132.6861	
85.65079	8398.732		-134.141	
85.70478	8390.893		-135.5767	
85.75877	8382.943		-136.9931	
85.81276	8374.893		-138.3906	
85.86674	8366.735		-139.7691	
85.92074	8358.47		-141.1288	
85.97473	8350.086		-142.4696	
86.02872	8341.576		-143.7913	
86.08271	8332.933		-145.0938	
86.1367	8324.165		-146.3763	
86.19069	8315.271		-147.6384	
86.24467	8306.267		-148.879	
86.29867	8297.164		-150.0976	
86.35265	8287.994		-151.2928	
86.40665	8278.783		-152.4642	
86.46063	8269.564		-153.6106	
86.51463	8260.34		-154.7317	
86.56861	8251.117		-155.8264	
86.6226	8241.909		-156.8945	
86.6766	8232.744		-157.9353	
86.73058	8223.635		-158.9484	
86.78458	8214.579		-159.9337	
86.83856	8205.573		-160.8907	
86.89256	8196.619		-161.8195	
86.94654	8187.709		-162.7197	
87.00053	8178.831		-163.5913	
87.05452	8169.963		-164.4339	
87.10851	8161.093		-165.2476	
87.1625	8152.229		-166.0321	
87.21649	8143.374		-166.7876	
87.27048	8134.517		-167.5139	
87.32447	8125.646		-168.2114	
87.37846	8116.742		-168.8802	
87.43245	8107.797		-169.5206	
87.48644	8098.814		-170.133	
87.54043	8089.805		-170.7178	
87.59442	8080.795		-171.2759	
87.64841	8071.813		-171.808	
87.7024	8062.85		-172.3155	
87.75639	8053.892		-172.7997	
87.81038	8044.91		-173.2622	
87.86436	8035.884		-173.7045	
87.91836	8026.791		-174.1283	
87.97234	8017.628		-174.5354	
88.02634	8008.396		-174.9272	
88.08032	7999.09		-175.3054	
88.13432	7989.7		-175.6712	
88.18831	7980.221		-176.0257	
88.24229	7970.652		-176.3698	
88.29629	7960.993		-176.7044	
88.35027	7951.267		-177.0302	
88.40427	7941.503		-177.3477	
88.45825	7931.72		-177.6575	
88.51225	7921.906		-177.9601	
88.56623	7912.06		-178.2561	
88.62022	7902.177		-178.5459	
88.67421	7892.264		-178.8297	
88.7282	7882.314		-179.1079	
88.78219	7872.333		-179.3808	
88.83618	7862.315		-179.6483	
88.89017	7852.27		-179.9106	
88.94416	7842.179		-180.1675	
88.99815	7832.024		-180.4188	
89.05214	7821.792		-180.6639	
89.10613	7811.484		-180.9025	
89.16012	7801.125		-181.1337	
89.21411	7790.754		-181.3569	
89.2681	7780.401		-181.5716	
89.32209	7770.091		-181.7769	
89.37608	7759.836		-181.9721	
89.43007	7749.637		-182.1564	
89.48405	7739.484		-182.3289	
89.53805	7729.383		-182.4888	
89.59203	7719.348		-182.6351	
89.64603	7709.392		-182.7672	
89.70002	7699.518		-182.8844	
89.75401	7689.719		-182.9865	
89.808	7679.959		-183.0732	
89.86198	7670.208		-183.1446	
89.91598	7660.444		-183.2007	
89.96996	7650.675		-183.2419	
90.02396	7640.902		-183.269	
90.07794	7631.138		-183.2826	
90.13194	7621.375		-183.2837	
90.18592	7611.606		-183.2734	
90.23991	7601.806		-183.2527	
90.2939	7591.969		-183.2226	
90.34789	7582.099		-183.1846	
90.40188	7572.22		-183.1397	
90.45587	7562.338		-183.0893	
90.50986	7552.469		-183.0346	
90.56385	7542.618		-182.9768	
90.61784	7532.789		-182.9171	
90.67183	7522.98		-182.8565	
90.72582	7513.203		-182.796	
90.77981	7503.463		-182.7365	
90.8338	7493.754		-182.6788	
90.88779	7484.048		-182.6237	
90.94178	7474.313		-182.5717	
90.99577	7464.524		-182.5234	
91.04976	7454.668		-182.479	
91.10374	7444.737		-182.4388	
91.15774	7434.737		-182.4031	
91.21173	7424.685		-182.3721	
91.26572	7414.611		-182.3459	
91.31971	7404.542		-182.3246	
91.3737	7394.506		-182.3083	
91.42769	7384.52		-182.2967	
91.48167	7374.603		-182.2896	
91.53567	7364.766		-182.2866	
91.58965	7355.021		-182.2871	
91.64365	7345.376		-182.2904	
91.69763	7335.821		-182.2958	
91.75163	7326.314		-182.3025	
91.80561	7316.8		-182.3097	
91.8596	7307.225		-182.3166	
91.91359	7297.554		-182.3224	
91.96758	7287.777		-182.3265	
92.02158	7277.913		-182.3283	
92.07556	7268.008		-182.3274	
92.12955	7258.104		-182.3237	
92.18354	7248.235		-182.3169	
92.23753	7238.411		-182.3072	
92.29152	7228.644		-182.2945	
92.34551	7218.924		-182.279	
92.3995	7209.247		-182.2608	
92.45349	7199.59		-182.22	
92.50748	7189.945		-182.1759	
92.56147	7180.276		-182.1297	
92.61546	7170.549		-182.0827	
92.66945	7160.731		-182.0356	
92.72344	7150.823		-181.989	
92.77743	7140.836		-181.9431	
92.83142	7130.773		-181.8979	
92.88541	7120.637		-181.8535	
92.9394	7110.441		-181.8099	
92.99339	7100.21		-181.7669	
93.04738	7089.973		-181.7245	
93.10136	7079.755		-181.6825	
93.15536	7069.586		-181.6409	
93.20934	7059.474		-181.5995	
93.26334	7049.426		-181.5582	
93.31732	7039.441		-181.5171	
93.37132	7029.521		-181.4759	
93.4253	7019.66		-181.4345	
93.47929	7009.844		-181.393	
93.53329	7000.058		-181.3512	
93.58727	6990.299		-181.309	
93.64127	6980.571		-181.2664	
93.69525	6970.876		-181.2234	
93.74924	6961.201		-181.1798	
93.80323	6951.546		-181.1358	
93.85722	6941.906		-181.0911	
93.91121	6932.276		-181.0458	
93.9652	6922.632		-180.9999	
94.01919	6912.969		-180.9533	
94.07318	6903.178		-180.9059	
94.12717	6893.419		-180.8578	
94.18116	6883.705		-180.809	
94.23515	6874.024		-180.7594	
94.28914	6864.364		-180.7089	
94.34313	6854.712		-180.6577	
94.39712	6845.065		-180.6057	
94.45111	6835.413		-180.5529	
94.5051	6825.756		-180.4993	
94.55909	6816.087		-180.4448	
94.61308	6806.409		-180.3896	
94.66707	6796.717		-180.3337	
94.72105	6787.014		-180.2769	
94.77505	6777.298		-180.2195	
94.82903	6767.573		-180.1613	
94.88303	6757.836		-180.1024	
94.93701	6748.093		-180.0428	
94.991	6738.344		-179.9825	
