T[Â°C]	350nm [counts / mm]	S.D.	First derivative	S.D. of first derivative
20.00046	2791.591		-37.66428	
20.05441	2789.533		-37.6954	
20.10835	2787.476		-37.72651	
20.1623	2785.42		-37.7576	
20.21625	2783.364		-37.78868	
20.2702	2781.309		-37.81976	
20.32415	2779.255		-37.85081	
20.3781	2777.203		-37.88186	
20.43205	2775.152		-37.91289	
20.486	2773.104		-37.94391	
20.53995	2771.059		-37.97491	
20.59389	2769.017		-38.0059	
20.64784	2766.978		-38.03688	
20.70179	2764.94		-38.06784	
20.75574	2762.904		-38.0988	
20.80969	2760.867		-38.12975	
20.86364	2758.827		-38.1607	
20.91759	2756.783		-38.19165	
20.97154	2754.73		-38.2226	
21.02549	2752.677		-38.25357	
21.07944	2750.621		-38.28455	
21.13338	2748.559		-38.31556	
21.18733	2746.492		-38.34659	
21.24128	2744.428		-38.37767	
21.29523	2742.369		-38.4088	
21.34918	2740.313		-38.43998	
21.40313	2738.262		-38.47122	
21.45708	2736.211		-38.50253	
21.51103	2734.149		-38.53392	
21.56498	2732.065		-38.56539	
21.61892	2729.954		-38.59694	
21.67287	2727.812		-38.62857	
21.72682	2725.636		-38.66029	
21.78077	2723.435		-38.69209	
21.83472	2721.221		-38.72396	
21.88867	2719.008		-38.75591	
21.94262	2716.808		-38.78793	
21.99656	2714.63		-38.82	
22.05051	2712.479		-38.85212	
22.10446	2710.355		-38.88425	
22.15841	2708.254		-38.91639	
22.21236	2706.174		-38.94849	
22.26631	2704.11		-38.98051	
22.32026	2702.059		-39.01241	
22.37421	2700.018		-39.0441	
22.42816	2697.983		-39.07549	
22.48211	2695.959		-39.10643	
22.53605	2693.953		-39.13674	
22.59	2691.966		-39.16616	
22.64395	2689.994		-39.18195	
22.6979	2688.029		-39.19503	
22.75185	2686.057		-39.20546	
22.8058	2684.063		-39.21331	
22.85975	2682.039		-39.21872	
22.9137	2679.98		-39.22186	
22.96765	2677.891		-39.22294	
23.0216	2675.781		-39.22227	
23.07554	2673.655		-39.22019	
23.12949	2671.513		-39.21707	
23.18344	2669.359		-39.21332	
23.23739	2667.187		-39.20937	
23.29134	2664.996		-39.20565	
23.34529	2662.787		-39.20253	
23.39924	2660.558		-39.20036	
23.45319	2658.305		-39.19939	
23.50713	2656.027		-39.19982	
23.56108	2653.725		-39.20177	
23.61503	2651.403		-39.20529	
23.66898	2649.066		-39.21033	
23.72293	2646.723		-39.21682	
23.77688	2644.39		-39.22461	
23.83083	2642.076		-39.23354	
23.88478	2639.796		-39.24344	
23.93872	2637.562		-39.25412	
23.99267	2635.389		-39.26543	
24.04662	2633.286		-39.27719	
24.10057	2631.248		-39.28927	
24.15452	2629.265		-39.30152	
24.20847	2627.321		-39.31379	
24.26242	2625.392		-39.32594	
24.31637	2623.456		-39.33777	
24.37032	2621.49		-39.34908	
24.42426	2619.482		-39.35958	
24.47821	2617.43		-39.36905	
24.53216	2615.34		-39.37719	
24.58611	2613.232		-39.38378	
24.64006	2611.124		-39.38858	
24.69401	2609.029		-39.39141	
24.74796	2606.954		-39.39214	
24.80191	2604.904		-39.39066	
24.85586	2602.879		-39.38688	
24.90981	2600.881		-39.38078	
24.96375	2598.903		-39.37231	
25.0177	2596.932		-39.36153	
25.07165	2594.948		-39.34846	
25.1256	2592.933		-39.33319	
25.17955	2590.868		-39.31579	
25.2335	2588.744		-39.2964	
25.28745	2586.563		-39.27516	
25.3414	2584.341		-39.25225	
25.39534	2582.099		-39.22789	
25.44929	2579.861		-39.20231	
25.50324	2577.642		-39.17575	
25.55719	2575.452		-39.14844	
25.61114	2573.29		-39.12057	
25.66509	2571.154		-39.09227	
25.71904	2569.036		-39.06364	
25.77299	2566.926		-39.0347	
25.82693	2564.808		-39.00544	
25.88088	2562.67		-38.97578	
25.93483	2560.503		-38.94563	
25.98878	2558.309		-38.91484	
26.04273	2556.096		-38.88324	
26.09668	2553.871		-38.85067	
26.15063	2551.644		-38.81698	
26.20458	2549.431		-38.78204	
26.25853	2547.246		-38.74577	
26.31248	2545.096		-38.70816	
26.36642	2542.983		-38.66922	
26.42037	2540.896		-38.62906	
26.47432	2538.818		-38.58777	
26.52827	2536.736		-38.54554	
26.58222	2534.643		-38.5025	
26.63617	2532.536		-38.4588	
26.69012	2530.414		-38.41456	
26.74407	2528.274		-38.36992	
26.79802	2526.115		-38.32499	
26.85196	2523.944		-38.2799	
26.90591	2521.777		-38.23476	
26.95986	2519.632		-38.18973	
27.01381	2517.518		-38.14498	
27.06776	2515.439		-38.1007	
27.12171	2513.398		-38.05705	
27.17566	2511.39		-38.01421	
27.2296	2509.402		-37.97231	
27.28355	2507.42		-37.93146	
27.3375	2505.43		-37.89178	
27.39145	2503.42		-37.85342	
27.4454	2501.393		-37.81651	
27.49935	2499.355		-37.78117	
27.5533	2497.319		-37.74757	
27.60725	2495.298		-37.71582	
27.6612	2493.304		-37.68605	
27.71515	2491.346		-37.65838	
27.76909	2489.425		-37.63292	
27.82304	2487.538		-37.60976	
27.87699	2485.679		-37.58894	
27.93094	2483.838		-37.57043	
27.98489	2482.01		-37.55415	
28.03884	2480.186		-37.53992	
28.09279	2478.353		-37.52756	
28.14674	2476.494		-37.51679	
28.20069	2474.598		-37.50737	
28.25463	2472.664		-37.49908	
28.30858	2470.692		-37.49172	
28.36253	2468.69		-37.48518	
28.41648	2466.671		-37.47941	
28.47043	2464.646		-37.47444	
28.52438	2462.625		-37.47032	
28.57833	2460.615		-37.46712	
28.63228	2458.617		-37.46491	
28.68623	2456.631		-37.46374	
28.74017	2454.648		-37.46365	
28.79412	2452.657		-37.46466	
28.84807	2450.649		-37.46678	
28.90202	2448.623		-37.46997	
28.95597	2446.578		-37.47414	
29.00992	2444.51		-37.4792	
29.06387	2442.422		-37.48505	
29.11782	2440.323		-37.49155	
29.17176	2438.221		-37.4986	
29.22571	2436.125		-37.50608	
29.27966	2434.039		-37.51386	
29.33361	2431.958		-37.52185	
29.38756	2429.877		-37.52998	
29.44151	2427.797		-37.53816	
29.49546	2425.712		-37.54635	
29.54941	2423.615		-37.55444	
29.60336	2421.497		-37.56232	
29.6573	2419.359		-37.56987	
29.71125	2417.207		-37.577	
29.7652	2415.051		-37.58361	
29.81915	2412.9		-37.58961	
29.8731	2410.758		-37.59491	
29.92705	2408.627		-37.59943	
29.981	2406.511		-37.60303	
30.03495	2404.412		-37.60558	
30.0889	2402.333		-37.60692	
30.14285	2400.275		-37.60685	
30.19679	2398.238		-37.60517	
30.25074	2396.218		-37.60165	
30.30469	2394.208		-37.59609	
30.35864	2392.205		-37.58827	
30.41259	2390.207		-37.57804	
30.46654	2388.216		-37.56527	
30.52049	2386.233		-37.5499	
30.57444	2384.259		-37.53187	
30.62838	2382.295		-37.51116	
30.68233	2380.344		-37.48777	
30.73628	2378.408		-37.46175	
30.79023	2376.479		-37.4332	
30.84418	2374.55		-37.4022	
30.89813	2372.615		-37.3689	
30.95208	2370.665		-37.33346	
31.00603	2368.691		-37.29607	
31.05997	2366.691		-37.25692	
31.11392	2364.672		-37.21626	
31.16787	2362.647		-37.17435	
31.22182	2360.629		-37.13149	
31.27577	2358.623		-37.08802	
31.32972	2356.627		-37.04427	
31.38367	2354.642		-37.0006	
31.43762	2352.672		-36.95737	
31.49157	2350.719		-36.91492	
31.54552	2348.78		-36.87358	
31.59946	2346.846		-36.83362	
31.65341	2344.909		-36.7953	
31.70736	2342.959		-36.75884	
31.76131	2340.987		-36.72445	
31.81526	2338.988		-36.69227	
31.86921	2336.96		-36.66243	
31.92316	2334.904		-36.63501	
31.97711	2332.827		-36.61004	
32.03106	2330.74		-36.58751	
32.085	2328.659		-36.56737	
32.13895	2326.596		-36.54951	
32.1929	2324.557		-36.53384	
32.24685	2322.537		-36.5202	
32.3008	2320.531		-36.50841	
32.35475	2318.529		-36.49829	
32.4087	2316.527		-36.4896	
32.46265	2314.522		-36.48209	
32.51659	2312.521		-36.47549	
32.57054	2310.524		-36.46952	
32.62449	2308.535		-36.46389	
32.67844	2306.558		-36.4583	
32.73239	2304.595		-36.45245	
32.78634	2302.652		-36.44604	
32.84029	2300.732		-36.43881	
32.89424	2298.836		-36.43052	
32.94818	2296.959		-36.42103	
33.00213	2295.094		-36.41022	
33.05608	2293.232		-36.39804	
33.11003	2291.371		-36.38449	
33.16398	2289.513		-36.3696	
33.21793	2287.662		-36.35344	
33.27188	2285.818		-36.33611	
33.32583	2283.982		-36.3177	
33.37978	2282.152		-36.29829	
33.43372	2280.323		-36.27803	
33.48767	2278.481		-36.25705	
33.54162	2276.611		-36.2355	
33.59557	2274.705		-36.21358	
33.64952	2272.762		-36.19149	
33.70347	2270.785		-36.16947	
33.75742	2268.775		-36.14775	
33.81137	2266.734		-36.12655	
33.86531	2264.669		-36.10605	
33.91927	2262.587		-36.0864	
33.97321	2260.492		-36.06775	
34.02716	2258.392		-36.05019	
34.08111	2256.296		-36.03381	
34.13506	2254.22		-36.01867	
34.18901	2252.174		-36.00479	
34.24296	2250.162		-35.99218	
34.29691	2248.177		-35.98081	
34.35086	2246.21		-35.9706	
34.4048	2244.249		-35.96146	
34.45875	2242.285		-35.9533	
34.5127	2240.317		-35.94601	
34.56665	2238.348		-35.93948	
34.6206	2236.378		-35.9336	
34.67455	2234.412		-35.92825	
34.7285	2232.456		-35.92328	
34.78245	2230.519		-35.91856	
34.8364	2228.607		-35.91394	
34.89034	2226.72		-35.90931	
34.94429	2224.855		-35.9046	
34.99824	2223.013		-35.89976	
35.05219	2221.19		-35.89475	
35.10614	2219.375		-35.88957	
35.16009	2217.555		-35.88421	
35.21404	2215.719		-35.87867	
35.26799	2213.856		-35.87291	
35.32193	2211.963		-35.8669	
35.37589	2210.041		-35.86055	
35.42983	2208.093		-35.85378	
35.48378	2206.124		-35.8465	
35.53773	2204.139		-35.83861	
35.59168	2202.148		-35.83002	
35.64563	2200.157		-35.82066	
35.69958	2198.174		-35.81046	
35.75352	2196.201		-35.79937	
35.80748	2194.239		-35.78735	
35.86142	2192.297		-35.77434	
35.91537	2190.378		-35.76031	
35.96932	2188.479		-35.74519	
36.02327	2186.591		-35.72892	
36.07722	2184.707		-35.71144	
36.13117	2182.826		-35.69271	
36.18512	2180.946		-35.67269	
36.23907	2179.064		-35.65134	
36.29301	2177.177		-35.62862	
36.34696	2175.283		-35.60446	
36.40091	2173.384		-35.57885	
36.45486	2171.484		-35.55179	
36.50881	2169.587		-35.52332	
36.56276	2167.694		-35.49351	
36.61671	2165.798		-35.46245	
36.67066	2163.894		-35.43024	
36.72461	2161.981		-35.39698	
36.77855	2160.065		-35.36277	
36.8325	2158.149		-35.32773	
36.88645	2156.23		-35.29197	
36.9404	2154.302		-35.25563	
36.99435	2152.363		-35.21891	
37.0483	2150.404		-35.18203	
37.10225	2148.417		-35.14524	
37.1562	2146.406		-35.10881	
37.21014	2144.378		-35.07299	
37.2641	2142.342		-35.03806	
37.31804	2140.312		-35.00432	
37.37199	2138.295		-34.97202	
37.42594	2136.294		-34.94142	
37.47989	2134.313		-34.91273	
37.53384	2132.348		-34.88615	
37.58779	2130.402		-34.8618	
37.64174	2128.474		-34.83976	
37.69569	2126.563		-34.82004	
37.74963	2124.658		-34.8026	
37.80359	2122.751		-34.78736	
37.85753	2120.843		-34.77419	
37.91148	2118.937		-34.76292	
37.96543	2117.039		-34.75335	
38.01938	2115.152		-34.74524	
38.07333	2113.284		-34.73831	
38.12728	2111.446		-34.73225	
38.18122	2109.645		-34.72677	
38.23517	2107.884		-34.72155	
38.28912	2106.158		-34.71628	
38.34307	2104.459		-34.71072	
38.39702	2102.773		-34.70462	
38.45097	2101.096		-34.6978	
38.50492	2099.425		-34.69009	
38.55887	2097.755		-34.68138	
38.61282	2096.08		-34.67156	
38.66676	2094.39		-34.66057	
38.72071	2092.672		-34.64835	
38.77466	2090.924		-34.63489	
38.82861	2089.149		-34.62017	
38.88256	2087.357		-34.60423	
38.93651	2085.555		-34.58707	
38.99046	2083.747		-34.56873	
39.04441	2081.935		-34.54926	
39.09835	2080.119		-34.52868	
39.15231	2078.295		-34.50703	
39.20625	2076.46		-34.48437	
39.2602	2074.606		-34.4608	
39.31415	2072.728		-34.43644	
39.3681	2070.826		-34.41146	
39.42205	2068.898		-34.38602	
39.476	2066.945		-34.36028	
39.52995	2064.968		-34.33442	
39.5839	2062.97		-34.30858	
39.63784	2060.956		-34.28292	
39.69179	2058.933		-34.25756	
39.74574	2056.911		-34.23261	
39.79969	2054.897		-34.20816	
39.85364	2052.896		-34.18428	
39.90759	2050.909		-34.161	
39.96154	2048.938		-34.13831	
40.01549	2046.976		-34.11618	
40.06944	2045.025		-34.09453	
40.12338	2043.083		-34.07325	
40.17733	2041.15		-34.05219	
40.23128	2039.231		-34.03116	
40.28523	2037.327		-34.00996	
40.33918	2035.436		-33.98839	
40.39313	2033.553		-33.96626	
40.44708	2031.672		-33.94342	
40.50103	2029.79		-33.91975	
40.55497	2027.907		-33.89516	
40.60892	2026.027		-33.86958	
40.66287	2024.155		-33.84299	
40.71682	2022.298		-33.81538	
40.77077	2020.467		-33.78678	
40.82472	2018.667		-33.75721	
40.87867	2016.896		-33.72673	
40.93262	2015.151		-33.69539	
40.98656	2013.423		-33.66323	
41.04052	2011.708		-33.63031	
41.09446	2009.996		-33.59668	
41.14841	2008.287		-33.56237	
41.20236	2006.577		-33.52744	
41.25631	2004.863		-33.49193	
41.31026	2003.14		-33.45593	
41.36421	2001.407		-33.41953	
41.41816	1999.666		-33.38283	
41.47211	1997.927		-33.34595	
41.52605	1996.2		-33.30903	
41.58	1994.49		-33.27226	
41.63395	1992.799		-33.23585	
41.6879	1991.131		-33.20005	
41.74185	1989.481		-33.16513	
41.7958	1987.84		-33.13136	
41.84975	1986.197		-33.09903	
41.9037	1984.543		-33.06845	
41.95765	1982.872		-33.03988	
42.01159	1981.18		-33.0136	
42.06554	1979.462		-32.98981	
42.11949	1977.714		-32.96871	
42.17344	1975.935		-32.95041	
42.22739	1974.131		-32.93497	
42.28134	1972.313		-32.92237	
42.33529	1970.489		-32.91255	
42.38924	1968.667		-32.90536	
42.44318	1966.85		-32.90062	
42.49714	1965.038		-32.89809	
42.55108	1963.226		-32.89751	
42.60503	1961.407		-32.89859	
42.65898	1959.573		-32.90102	
42.71293	1957.72		-32.90448	
42.76688	1955.85		-32.90862	
42.82083	1953.97		-32.91308	
42.87477	1952.083		-32.91751	
42.92873	1950.193		-32.92154	
42.98267	1948.302		-32.92481	
43.03662	1946.41		-32.92699	
43.09057	1944.522		-32.92776	
43.14452	1942.643		-32.92685	
43.19847	1940.784		-32.92397	
43.25242	1938.961		-32.91887	
43.30637	1937.177		-32.91131	
43.36032	1935.427		-32.90105	
43.41426	1933.703		-32.88785	
43.46821	1931.995		-32.87147	
43.52216	1930.294		-32.85169	
43.57611	1928.592		-32.82833	
43.63006	1926.883		-32.80125	
43.68401	1925.166		-32.77037	
43.73796	1923.442		-32.73563	
43.79191	1921.709		-32.69709	
43.84586	1919.967		-32.65485	
43.8998	1918.214		-32.60911	
43.95375	1916.457		-32.56013	
44.0077	1914.696		-32.50832	
44.06165	1912.927		-32.45415	
44.1156	1911.146		-32.39815	
44.16955	1909.351		-32.34088	
44.2235	1907.546		-32.28293	
44.27745	1905.735		-32.22486	
44.33139	1903.925		-32.16723	
44.38535	1902.116		-32.11055	
44.43929	1900.308		-32.05532	
44.49324	1898.499		-32.00197	
44.54719	1896.686		-31.95087	
44.60114	1894.87		-31.90234	
44.65509	1893.05		-31.85663	
44.70904	1891.231		-31.81397	
44.76299	1889.416		-31.7745	
44.81694	1887.616		-31.73832	
44.87088	1885.84		-31.70549	
44.92484	1884.095		-31.67599	
44.97878	1882.385		-31.64981	
45.03273	1880.714		-31.62689	
45.08668	1879.081		-31.60717	
45.14063	1877.477		-31.5906	
45.19458	1875.894		-31.57712	
45.24853	1874.323		-31.56668	
45.30247	1872.755		-31.55926	
45.35642	1871.186		-31.55478	
45.41037	1869.609		-31.55316	
45.46432	1868.026		-31.55423	
45.51827	1866.44		-31.5578	
45.57222	1864.854		-31.56362	
45.62617	1863.264		-31.57139	
45.68012	1861.669		-31.58079	
45.73407	1860.069		-31.59148	
45.78801	1858.463		-31.60316	
45.84196	1856.852		-31.61551	
45.89591	1855.24		-31.62825	
45.94986	1853.635		-31.64113	
46.00381	1852.041		-31.65397	
46.05776	1850.457		-31.66663	
46.11171	1848.875		-31.67903	
46.16566	1847.289		-31.69111	
46.2196	1845.692		-31.70287	
46.27356	1844.076		-31.71431	
46.3275	1842.432		-31.72549	
46.38145	1840.757		-31.73646	
46.4354	1839.056		-31.7473	
46.48935	1837.332		-31.75808	
46.5433	1835.589		-31.76886	
46.59725	1833.824		-31.77964	
46.6512	1832.037		-31.79042	
46.70515	1830.233		-31.80115	
46.75909	1828.424		-31.81175	
46.81304	1826.618		-31.82211	
46.86699	1824.816		-31.83209	
46.92094	1823.014		-31.84149	
46.97489	1821.209		-31.85009	
47.02884	1819.399		-31.85766	
47.08279	1817.583		-31.86397	
47.13674	1815.756		-31.8688	
47.19069	1813.917		-31.87197	
47.24463	1812.063		-31.87329	
47.29858	1810.197		-31.8726	
47.35253	1808.327		-31.86978	
47.40648	1806.458		-31.86471	
47.46043	1804.591		-31.85731	
47.51438	1802.733		-31.84748	
47.56833	1800.886		-31.83516	
47.62228	1799.056		-31.82032	
47.67622	1797.246		-31.8029	
47.73018	1795.458		-31.78289	
47.78412	1793.689		-31.76028	
47.83807	1791.937		-31.73508	
47.89202	1790.196		-31.70729	
47.94597	1788.462		-31.67693	
47.99992	1786.734		-31.644	
48.05387	1785.008		-31.60853	
48.10781	1783.287		-31.57056	
48.16177	1781.576		-31.53014	
48.21571	1779.882		-31.48736	
48.26966	1778.207		-31.44238	
48.32361	1776.547		-31.39539	
48.37756	1774.895		-31.34661	
48.43151	1773.247		-31.29634	
48.48546	1771.605		-31.24489	
48.53941	1769.966		-31.1926	
48.59336	1768.326		-31.13978	
48.6473	1766.685		-31.0868	
48.70125	1765.047		-31.03397	
48.7552	1763.413		-30.98161	
48.80915	1761.784		-30.93001	
48.8631	1760.161		-30.87941	
48.91705	1758.548		-30.83004	
48.971	1756.943		-30.78209	
49.02495	1755.351		-30.73569	
49.0789	1753.773		-30.69096	
49.13284	1752.214		-30.648	
49.18679	1750.671		-30.60691	
49.24074	1749.132		-30.56778	
49.29469	1747.588		-30.53069	
49.34864	1746.034		-30.49572	
49.40259	1744.467		-30.46293	
49.45654	1742.885		-30.43237	
49.51049	1741.285		-30.40405	
49.56443	1739.667		-30.37799	
49.61839	1738.035		-30.35418	
49.67233	1736.388		-30.33256	
49.72628	1734.731		-30.31306	
49.78023	1733.075		-30.29558	
49.83418	1731.427		-30.28001	
49.88813	1729.792		-30.26619	
49.94208	1728.175		-30.25394	
49.99603	1726.576		-30.24305	
50.04998	1724.99		-30.23327	
50.10392	1723.411		-30.22435	
50.15788	1721.826		-30.21599	
50.21182	1720.231		-30.20791	
50.26577	1718.624		-30.19981	
50.31972	1716.999		-30.19139	
50.37367	1715.358		-30.18237	
50.42762	1713.703		-30.17249	
50.48157	1712.035		-30.1615	
50.53551	1710.356		-30.14924	
50.58946	1708.67		-30.13554	
50.64341	1706.982		-30.12028	
50.69736	1705.295		-30.10339	
50.75131	1703.614		-30.08483	
50.80526	1701.941		-30.06457	
50.85921	1700.279		-30.0426	
50.91316	1698.625		-30.01892	
50.96711	1696.976		-29.99354	
51.02105	1695.325		-29.96651	
51.075	1693.671		-29.93791	
51.12895	1692.01		-29.90783	
51.1829	1690.339		-29.87643	
51.23685	1688.659		-29.84387	
51.2908	1686.975		-29.81035	
51.34475	1685.292		-29.7761	
51.3987	1683.613		-29.74133	
51.45264	1681.944		-29.7063	
51.5066	1680.291		-29.67121	
51.56054	1678.661		-29.6363	
51.61449	1677.052		-29.60177	
51.66844	1675.455		-29.56783	
51.72239	1673.861		-29.53465	
51.77634	1672.261		-29.5024	
51.83029	1670.652		-29.47122	
51.88424	1669.03		-29.44127	
51.93819	1667.395		-29.41266	
51.99213	1665.751		-29.38549	
52.04609	1664.106		-29.35985	
52.10003	1662.471		-29.33579	
52.15398	1660.857		-29.31337	
52.20793	1659.269		-29.2926	
52.26188	1657.712		-29.27348	
52.31583	1656.184		-29.25598	
52.36978	1654.676		-29.24007	
52.42373	1653.183		-29.22567	
52.47767	1651.697		-29.21268	
52.53162	1650.216		-29.20098	
52.58557	1648.736		-29.19042	
52.63952	1647.253		-29.1808	
52.69347	1645.765		-29.17194	
52.74742	1644.276		-29.16361	
52.80137	1642.786		-29.15563	
52.85532	1641.299		-29.14779	
52.90926	1639.819		-29.13992	
52.96321	1638.35		-29.13186	
53.01716	1636.897		-29.1235	
53.07111	1635.461		-29.11476	
53.12506	1634.041		-29.10563	
53.17901	1632.629		-29.0961	
53.23296	1631.219		-29.08619	
53.28691	1629.8		-29.07594	
53.34085	1628.36		-29.06539	
53.39481	1626.889		-29.05462	
53.44875	1625.377		-29.04368	
53.5027	1623.827		-29.03265	
53.55665	1622.24		-29.02161	
53.6106	1620.619		-29.01063	
53.66455	1618.965		-28.99978	
53.7185	1617.288		-28.98914	
53.77245	1615.6		-28.97876	
53.8264	1613.911		-28.96873	
53.88034	1612.226		-28.95911	
53.93429	1610.547		-28.94995	
53.98824	1608.876		-28.94132	
54.04219	1607.214		-28.93324	
54.09614	1605.559		-28.92572	
54.15009	1603.906		-28.91876	
54.20404	1602.253		-28.9123	
54.25799	1600.599		-28.90627	
54.31194	1598.941		-28.9006	
54.36588	1597.277		-28.89518	
54.41983	1595.607		-28.8899	
54.47378	1593.932		-28.88464	
54.52773	1592.259		-28.87924	
54.58168	1590.592		-28.87353	
54.63563	1588.933		-28.86734	
54.68958	1587.285		-28.86045	
54.74353	1585.653		-28.85266	
54.79747	1584.04		-28.84377	
54.85143	1582.452		-28.83355	
54.90537	1580.889		-28.82181	
54.95932	1579.347		-28.80838	
55.01327	1577.826		-28.79312	
55.06722	1576.322		-28.7759	
55.12117	1574.83		-28.75665	
55.17512	1573.351		-28.73531	
55.22906	1571.882		-28.71187	
55.28302	1570.417		-28.68633	
55.33696	1568.952		-28.65876	
55.39091	1567.478		-28.62924	
55.44486	1565.998		-28.59789	
55.49881	1564.515		-28.56487	
55.55276	1563.031		-28.53035	
55.60671	1561.545		-28.4945	
55.66066	1560.055		-28.45754	
55.71461	1558.566		-28.41965	
55.76855	1557.082		-28.38105	
55.8225	1555.609		-28.34195	
55.87645	1554.147		-28.30256	
55.9304	1552.691		-28.26311	
55.98435	1551.238		-28.22383	
56.0383	1549.783		-28.18493	
56.09225	1548.324		-28.14664	
56.1462	1546.862		-28.10913	
56.20015	1545.395		-28.07259	
56.25409	1543.916		-28.0372	
56.30804	1542.421		-28.00312	
56.36199	1540.907		-27.97049	
56.41594	1539.37		-27.93943	
56.46989	1537.808		-27.91004	
56.52384	1536.229		-27.8824	
56.57779	1534.637		-27.85656	
56.63174	1533.042		-27.83258	
56.68568	1531.45		-27.81045	
56.73964	1529.873		-27.79017	
56.79358	1528.314		-27.77171	
56.84753	1526.778		-27.75498	
56.90148	1525.262		-27.7399	
56.95543	1523.766		-27.72635	
57.00938	1522.286		-27.71416	
57.06333	1520.817		-27.70317	
57.11728	1519.351		-27.69318	
57.17123	1517.882		-27.68395	
57.22517	1516.407		-27.67526	
57.27913	1514.922		-27.66686	
57.33307	1513.425		-27.65855	
57.38702	1511.916		-27.65011	
57.44097	1510.397		-27.64132	
57.49492	1508.875		-27.63199	
57.54887	1507.356		-27.6219	
57.60282	1505.841		-27.6109	
57.65676	1504.331		-27.59879	
57.71071	1502.828		-27.58542	
57.76466	1501.335		-27.57061	
57.81861	1499.852		-27.55418	
57.87256	1498.379		-27.53592	
57.92651	1496.914		-27.51564	
57.98046	1495.455		-27.49313	
58.03441	1493.995		-27.4682	
58.08836	1492.531		-27.44068	
58.1423	1491.06		-27.41042	
58.19625	1489.581		-27.37731	
58.2502	1488.098		-27.34133	
58.30415	1486.617		-27.30247	
58.3581	1485.146		-27.26081	
58.41205	1483.687		-27.21646	
58.466	1482.242		-27.16959	
58.51995	1480.81		-27.12042	
58.57389	1479.386		-27.06921	
58.62785	1477.968		-27.01623	
58.68179	1476.55		-26.96175	
58.73574	1475.126		-26.90606	
58.78969	1473.692		-26.84941	
58.84364	1472.244		-26.79205	
58.89759	1470.782		-26.73418	
58.95154	1469.308		-26.67602	
59.00549	1467.822		-26.61775	
59.05944	1466.326		-26.55952	
59.11338	1464.823		-26.50149	
59.16734	1463.316		-26.44377	
59.22128	1461.81		-26.38647	
59.27523	1460.306		-26.32969	
59.32918	1458.803		-26.27351	
59.38313	1457.299		-26.21801	
59.43708	1455.793		-26.16324	
59.49103	1454.285		-26.10922	
59.54498	1452.774		-26.05597	
59.59892	1451.263		-26.00348	
59.65287	1449.759		-25.95171	
59.70682	1448.269		-25.90063	
59.76077	1446.802		-25.85014	
59.81472	1445.361		-25.80019	
59.86867	1443.944		-25.75064	
59.92262	1442.549		-25.70138	
59.97657	1441.179		-25.65225	
60.03051	1439.838		-25.60309	
60.08447	1438.527		-25.55373	
60.13841	1437.244		-25.504	
60.19236	1435.98		-25.45373	
60.24631	1434.726		-25.40278	
60.30026	1433.476		-25.35101	
60.35421	1432.226		-25.29832	
60.40816	1430.971		-25.24463	
60.4621	1429.71		-25.18991	
60.51606	1428.448		-25.13419	
60.57	1427.189		-25.0775	
60.62395	1425.934		-25.01995	
60.6779	1424.684		-24.96165	
60.73185	1423.435		-24.90271	
60.7858	1422.182		-24.84324	
60.83975	1420.922		-24.78333	
60.8937	1419.653		-24.72303	
60.94765	1418.372		-24.66234	
61.00159	1417.075		-24.60125	
61.05555	1415.754		-24.53969	
61.10949	1414.403		-24.47757	
61.16344	1413.028		-24.41476	
61.21739	1411.639		-24.35109	
61.27134	1410.243		-24.28639	
61.32529	1408.849		-24.22043	
61.37924	1407.462		-24.15299	
61.43319	1406.085		-24.08385	
61.48713	1404.719		-24.01275	
61.54108	1403.362		-23.93945	
61.59503	1402.011		-23.86367	
61.64898	1400.664		-23.78513	
61.70293	1399.32		-23.70351	
61.75688	1397.982		-23.61848	
61.81083	1396.654		-23.52972	
61.86478	1395.332		-23.4369	
61.91872	1394.012		-23.3397	
61.97268	1392.697		-23.2378	
62.02662	1391.393		-23.13096	
62.08057	1390.103		-23.0189	
62.13452	1388.828		-22.90143	
62.18847	1387.566		-22.77836	
62.24242	1386.319		-22.64952	
62.29637	1385.085		-22.51478	
62.35032	1383.858		-22.37402	
62.40427	1382.629		-22.22712	
62.45821	1381.393		-22.074	
62.51217	1380.149		-21.91461	
62.56611	1378.897		-21.74896	
62.62006	1377.637		-21.57709	
62.67401	1376.369		-21.39909	
62.72796	1375.096		-21.21507	
62.78191	1373.821		-21.02516	
62.83586	1372.548		-20.82948	
62.8898	1371.286		-20.6282	
62.94375	1370.042		-20.42139	
62.9977	1368.817		-20.20915	
63.05165	1367.609		-19.99156	
63.1056	1366.411		-19.76858	
63.15955	1365.223		-19.54019	
63.2135	1364.04		-19.30624	
63.26745	1362.862		-19.06655	
63.3214	1361.694		-18.82087	
63.37534	1360.546		-18.56888	
63.42929	1359.427		-18.31019	
63.48324	1358.346		-18.04443	
63.53719	1357.311		-17.77107	
63.59114	1356.321		-17.48961	
63.64509	1355.374		-17.19945	
63.69904	1354.467		-16.89994	
63.75299	1353.6		-16.59046	
63.80693	1352.77		-16.27031	
63.86089	1351.968		-15.93876	
63.91483	1351.186		-15.59517	
63.96878	1350.419		-15.23883	
64.02273	1349.661		-14.86919	
64.07668	1348.905		-14.48553	
64.13063	1348.15		-14.08744	
64.18458	1347.403		-13.67433	
64.23853	1346.673		-13.24571	
64.29247	1345.969		-12.80109	
64.34643	1345.292		-12.33993	
64.40038	1344.639		-11.8619	
64.45432	1344.006		-11.36646	
64.50827	1343.382		-10.85315	
64.56222	1342.758		-10.32157	
64.61617	1342.127		-9.771195	
64.67012	1341.487		-9.201799	
64.72407	1340.834		-8.612876	
64.77802	1340.169		-8.004033	
64.83196	1339.494		-7.374864	
64.88591	1338.816		-6.72495	
64.93987	1338.148		-6.053748	
64.99381	1337.504		-5.361039	
65.04776	1336.892		-4.646238	
65.10171	1336.32		-3.908863	
65.15565	1335.788		-3.14837	
65.20961	1335.294		-2.364042	
65.26356	1334.832		-1.555494	
65.3175	1334.4		-0.7218735	
65.37145	1333.996		0.1375766	
65.4254	1333.627		1.023693	
65.47935	1333.298		1.937379	
65.5333	1333.015		2.879749	
65.58725	1332.779		3.851513	
65.6412	1332.594		4.853909	
65.69514	1332.464		5.887998	
65.74909	1332.398		6.954853	
65.80305	1332.399		8.055706	
65.85699	1332.473		9.191237	
65.91094	1332.626		10.36267	
65.96489	1332.863		11.57097	
66.01884	1333.183		12.81707	
66.07279	1333.585		14.10207	
66.12674	1334.064		15.42636	
66.18069	1334.619		16.79097	
66.23463	1335.252		18.19663	
66.28858	1335.966		19.64402	
66.34253	1336.759		21.13379	
66.39648	1337.634		22.66678	
66.45043	1338.592		24.24302	
66.50438	1339.629		25.86326	
66.55833	1340.74		27.52792	
66.61227	1341.923		29.23736	
66.66623	1343.176		30.99218	
66.72018	1344.503		32.79214	
66.77412	1345.909		34.63775	
66.82807	1347.4		36.52921	
66.88202	1348.983		38.46672	
66.93597	1350.665		40.45047	
66.98992	1352.453		42.48089	
67.04387	1354.351		44.5576	
67.09782	1356.361		46.68103	
67.15176	1358.483		48.85139	
67.20571	1360.715		51.06885	
67.25967	1363.05		53.33396	
67.31361	1365.485		55.64632	
67.36756	1368.019		58.00647	
67.42151	1370.655		60.41469	
67.47546	1373.4		62.87126	
67.52941	1376.264		65.37685	
67.58336	1379.258		67.93111	
67.63731	1382.393		70.53471	
67.69125	1385.688		73.18797	
67.7452	1389.156		75.89119	
67.79915	1392.803		78.64461	
67.8531	1396.631		81.44882	
67.90705	1400.64		84.30318	
67.961	1404.829		87.20818	
68.01495	1409.192		90.16382	
68.06889	1413.719		93.17007	
68.12285	1418.401		96.22724	
68.1768	1423.228		99.33427	
68.23074	1428.193		102.4913	
68.28469	1433.296		105.6979	
68.33864	1438.538		108.9536	
68.39259	1443.93		112.258	
68.44654	1449.498		115.6107	
68.50049	1455.258		119.0103	
68.55444	1461.223		122.4562	
68.60838	1467.397		125.9478	
68.66233	1473.778		129.4839	
68.71629	1480.363		133.0641	
68.77023	1487.149		136.6862	
68.82418	1494.141		140.3495	
68.87813	1501.341		144.0526	
68.93208	1508.749		147.7942	
68.98603	1516.363		151.5733	
69.03998	1524.174		155.3873	
69.09393	1532.185		159.235	
69.14787	1540.399		163.1145	
69.20182	1548.823		167.0237	
69.25577	1557.47		170.9605	
69.30972	1566.351		174.9229	
69.36367	1575.477		178.9071	
69.41762	1584.855		182.9106	
69.47157	1594.488		186.9304	
69.52551	1604.376		190.9628	
69.57947	1614.521		195.0048	
69.63342	1624.922		199.0511	
69.68736	1635.583		203.0982	
69.74131	1646.507		207.1412	
69.79526	1657.692		211.1753	
69.84921	1669.137		215.1959	
69.90316	1680.832		219.1961	
69.95711	1692.773		223.1706	
70.01105	1704.961		227.1132	
70.065	1717.405		231.0172	
70.11895	1730.112		234.8756	
70.1729	1743.087		238.6817	
70.22685	1756.326		242.4268	
70.2808	1769.822		246.1034	
70.33475	1783.566		249.7035	
70.38869	1797.555		253.2185	
70.44265	1811.789		256.6404	
70.4966	1826.266		259.9597	
70.55054	1840.986		263.1681	
70.60449	1855.949		266.2569	
70.65844	1871.149		269.2175	
70.71239	1886.574		272.0415	
70.76634	1902.219		274.7209	
70.82029	1918.075		277.2469	
70.87424	1934.142		279.6122	
70.92818	1950.425		281.8093	
70.98213	1966.928		283.8314	
71.03609	1983.66		285.6721	
71.09003	2000.621		287.3249	
71.14398	2017.816		288.7845	
71.19793	2035.245		290.0459	
71.25188	2052.906		291.1046	
71.30583	2070.792		291.957	
71.35978	2088.889		292.5996	
71.41373	2107.19		293.0299	
71.46767	2125.683		293.2459	
71.52162	2144.355		293.2465	
71.57557	2163.187		293.0309	
71.62952	2182.156		292.5991	
71.68347	2201.228		291.9518	
71.73742	2220.378		291.0901	
71.79137	2239.58		290.016	
71.84531	2258.809		288.7318	
71.89927	2278.04		287.2403	
71.95322	2297.235		285.5454	
72.00716	2316.365		283.6508	
72.06111	2335.395		281.5608	
72.11506	2354.295		279.2802	
72.16901	2373.027		276.814	
72.22296	2391.555		274.1671	
72.27691	2409.834		271.3459	
72.33086	2427.837		268.3558	
72.3848	2445.532		265.2029	
72.43875	2462.89		261.8932	
72.49271	2479.885		258.4327	
72.54665	2496.483		254.829	
72.6006	2512.657		251.0885	
72.65455	2528.388		247.2179	
72.7085	2543.658		243.2245	
72.76245	2558.454		239.1149	
72.8164	2572.752		234.8977	
72.87035	2586.538		230.58	
72.92429	2599.8		226.1696	
72.97824	2612.536		221.6743	
73.03219	2624.75		217.1023	
73.08614	2636.45		212.4612	
73.14009	2647.641		207.7604	
73.19404	2658.333		203.008	
73.24799	2668.539		198.2125	
73.30193	2678.262		193.3828	
73.35589	2687.51		188.5269	
73.40984	2696.295		183.6553	
73.46378	2704.64		178.7762	
73.51773	2712.557		173.8988	
73.57168	2720.063		169.0321	
73.62563	2727.175		164.1851	
73.67958	2733.911		159.3661	
73.73353	2740.291		154.5853	
73.78748	2746.346		149.8508	
73.84142	2752.11		145.171	
73.89537	2757.616		140.5542	
73.94933	2762.894		136.0075	
74.00327	2767.97		131.5399	
74.05722	2772.873		127.1578	
74.11117	2777.621		122.8679	
74.16512	2782.228		118.6762	
74.21907	2786.699		114.5878	
74.27302	2791.036		110.6089	
74.32697	2795.243		106.7432	
74.38091	2799.326		102.9945	
74.43486	2803.293		99.36565	
74.48881	2807.152		95.85907	
74.54276	2810.903		92.47597	
74.59671	2814.547		89.21831	
74.65066	2818.089		86.08595	
74.70461	2821.535		83.07856	
74.75855	2824.891		80.1952	
74.81251	2828.156		77.43394	
74.86646	2831.325		74.79348	
74.9204	2834.391		72.27081	
74.97435	2837.357		69.86289	
75.0283	2840.229		67.5663	
75.08225	2843.015		65.37695	
75.1362	2845.725		63.2914	
75.19015	2848.364		61.30505	
75.24409	2850.932		59.41344	
75.29804	2853.422		57.61206	
75.35199	2855.828		55.89631	
75.40594	2858.158		54.26139	
75.45989	2860.423		52.70319	
75.51384	2862.632		51.21697	
75.56779	2864.789		49.79836	
75.62173	2866.9		48.44313	
75.67569	2868.964		47.14711	
75.72964	2870.984		45.90688	
75.78358	2872.966		44.71872	
75.83753	2874.92		43.57936	
75.89148	2876.851		42.48579	
75.94543	2878.77		41.43521	
75.99938	2880.689		40.42498	
76.05333	2882.621		39.45317	
76.10728	2884.573		38.51765	
76.16122	2886.549		37.61672	
76.21517	2888.545		36.74886	
76.26913	2890.554		35.91264	
76.32307	2892.565		35.10707	
76.37702	2894.568		34.33098	
76.43097	2896.549		33.58336	
76.48492	2898.498		32.86332	
76.53887	2900.406		32.16991	
76.59282	2902.269		31.50256	
76.64677	2904.082		30.86042	
76.70071	2905.848		30.24275	
76.75466	2907.572		29.64879	
76.80861	2909.258		29.07774	
76.86256	2910.898		28.52869	
76.91651	2912.481		28.00091	
76.97046	2913.998		27.49341	
77.02441	2915.446		27.00527	
77.07835	2916.828		26.53552	
77.13231	2918.148		26.08316	
77.18626	2919.406		25.64735	
77.2402	2920.599		25.22709	
77.29415	2921.716		24.82146	
77.3481	2922.751		24.42958	
77.40205	2923.713		24.05063	
77.456	2924.614		23.68381	
77.50995	2925.465		23.32848	
77.5639	2926.28		22.98397	
77.61784	2927.07		22.64971	
77.67179	2927.837		22.32526	
77.72575	2928.587		22.01025	
77.77969	2929.331		21.70457	
77.83364	2930.079		21.4081	
77.88759	2930.841		21.12088	
77.94154	2931.623		20.84307	
77.99549	2932.427		20.57486	
78.04944	2933.244		20.31674	
78.10339	2934.074		20.06916	
78.15733	2934.912		19.8327	
78.21128	2935.758		19.60799	
78.26523	2936.615		19.3957	
78.31918	2937.492		19.19641	
78.37313	2938.396		19.01079	
78.42708	2939.325		18.83932	
78.48103	2940.272		18.68248	
78.53497	2941.236		18.54063	
78.58893	2942.219		18.41402	
78.64288	2943.224		18.30289	
78.69682	2944.252		18.20732	
78.75077	2945.302		18.12732	
78.80472	2946.375		18.06278	
78.85867	2947.465		18.01351	
78.91262	2948.555		17.97922	
78.96657	2949.634		17.95952	
79.02052	2950.693		17.95391	
79.07446	2951.731		17.96182	
79.12841	2952.757		17.98256	
79.18237	2953.779		18.0154	
79.23631	2954.802		18.05949	
79.29026	2955.822		18.11394	
79.34421	2956.832		18.17782	
79.39816	2957.829		18.25021	
79.45211	2958.812		18.33018	
79.50606	2959.778		18.4168	
79.56001	2960.727		18.50917	
79.61395	2961.655		18.60645	
79.6679	2962.561		18.70785	
79.72185	2963.445		18.81267	
79.7758	2964.305		18.92032	
79.82975	2965.14		19.03023	
79.8837	2965.954		19.14197	
79.93764	2966.755		19.25511	
79.99159	2967.553		19.36933	
80.04555	2968.361		19.48435	
80.09949	2969.195		19.59993	
80.15344	2970.066		19.71595	
80.20739	2970.978		19.83231	
80.26134	2971.932		19.94895	
80.31529	2972.93		20.06581	
80.36924	2973.973		20.18278	
80.42319	2975.052		20.29978	
80.47713	2976.155		20.41673	
80.53108	2977.272		20.5335	
80.58503	2978.402		20.64997	
80.63898	2979.543		20.76598	
80.69293	2980.697		20.88132	
80.74688	2981.863		20.99578	
80.80083	2983.046		21.10907	
80.85477	2984.247		21.22087	
80.90873	2985.467		21.33083	
80.96268	2986.705		21.43852	
81.01662	2987.951		21.54349	
81.07057	2989.199		21.64523	
81.12452	2990.442		21.74316	
81.17847	2991.682		21.83669	
81.23242	2992.923		21.92524	
81.28637	2994.164		22.00813	
81.34032	2995.407		22.08474	
81.39426	2996.657		22.15443	
81.44821	2997.919		22.21656	
81.50217	2999.192		22.27052	
81.55611	3000.473		22.3157	
81.61006	3001.754		22.35152	
81.66401	3003.033		22.37742	
81.71796	3004.312		22.39287	
81.77191	3005.593		22.39732	
81.82586	3006.875		22.3903	
81.87981	3008.16		22.37131	
81.93375	3009.449		22.33989	
81.9877	3010.748		22.29559	
82.04165	3012.064		22.23794	
82.0956	3013.406		22.1665	
82.14955	3014.78		22.08084	
82.2035	3016.188		21.98051	
82.25745	3017.63		21.86511	
82.31139	3019.1		21.73417	
82.36535	3020.588		21.58724	
82.4193	3022.082		21.42386	
82.47324	3023.571		21.24355	
82.52719	3025.036		21.04583	
82.58114	3026.464		20.83027	
82.63509	3027.848		20.59644	
82.68904	3029.182		20.34394	
82.74299	3030.471		20.07248	
82.79694	3031.719		19.78172	
82.85088	3032.935		19.47137	
82.90483	3034.12		19.14117	
82.95879	3035.281		18.79087	
83.01273	3036.423		18.42039	
83.06668	3037.553		18.02958	
83.12063	3038.674		17.61834	
83.17458	3039.788		17.18666	
83.22853	3040.887		16.7345	
83.28248	3041.962		16.26208	
83.33643	3043.001		15.76952	
83.39037	3043.992		15.25708	
83.44432	3044.925		14.72508	
83.49827	3045.8		14.1739	
83.55222	3046.618		13.60394	
83.60617	3047.387		13.01587	
83.66012	3048.121		12.41015	
83.71407	3048.84		11.78739	
83.76801	3049.561		11.14818	
83.82197	3050.293		10.49308	
83.87592	3051.04		9.822949	
83.92986	3051.798		9.138418	
83.98381	3052.56		8.440242	
84.03776	3053.317		7.729213	
84.09171	3054.059		7.00604	
84.14566	3054.779		6.271759	
84.19961	3055.471		5.527105	
84.25356	3056.118		4.772921	
84.3075	3056.701		4.01004	
84.36145	3057.205		3.239278	
84.41541	3057.623		2.461289	
84.46935	3057.955		1.676995	
84.5233	3058.2		0.8869112	
84.57725	3058.361		0.09159223	
84.6312	3058.438		-0.7084777	
84.68515	3058.434		-1.512981	
84.7391	3058.36		-2.321304	
84.79305	3058.229		-3.133186	
84.84699	3058.045		-3.948254	
84.90094	3057.804		-4.766113	
84.95489	3057.493		-5.586329	
85.00884	3057.099		-6.40852	
85.06279	3056.617		-7.231903	
85.11674	3056.044		-8.055997	
85.17068	3055.385		-8.880182	
85.22463	3054.652		-9.703805	
85.27859	3053.855		-10.52631	
85.33253	3053.008		-11.34674	
85.38648	3052.126		-12.16446	
85.44043	3051.221		-12.9787	
85.49438	3050.299		-13.78866	
85.54833	3049.362		-14.59365	
85.60228	3048.413		-15.39265	
85.65623	3047.448		-16.18503	
85.71017	3046.462		-16.97004	
85.76412	3045.448		-17.74696	
85.81807	3044.4		-18.51508	
85.87202	3043.309		-19.2738	
85.92597	3042.177		-20.02223	
85.97992	3040.996		-20.75977	
86.03387	3039.764		-21.48578	
86.08781	3038.478		-22.19962	
86.14177	3037.143		-22.90082	
86.19572	3035.764		-23.58866	
86.24966	3034.345		-24.26274	
86.30361	3032.888		-24.92267	
86.35756	3031.396		-25.56806	
86.41151	3029.869		-26.19862	
86.46546	3028.31		-26.81422	
86.51941	3026.721		-27.41456	
86.57336	3025.101		-27.99973	
86.6273	3023.441		-28.56983	
86.68125	3021.733		-29.12508	
86.73521	3019.974		-29.66585	
86.78915	3018.177		-30.19238	
86.8431	3016.35		-30.70513	
86.89705	3014.499		-31.20459	
86.951	3012.629		-31.69125	
87.00495	3010.744		-32.16567	
87.0589	3008.844		-32.62822	
87.11285	3006.928		-33.07945	
87.16679	3004.994		-33.51985	
87.22074	3003.04		-33.94987	
87.27469	3001.058		-34.36996	
87.32864	2999.049		-34.78059	
87.38259	2997.011		-35.18201	
87.43654	2994.947		-35.57459	
87.49049	2992.858		-35.95863	
87.54443	2990.755		-36.3344	
87.59839	2988.649		-36.70228	
87.65234	2986.548		-37.06248	
87.70628	2984.452		-37.41541	
87.76023	2982.355		-37.76139	
87.81418	2980.249		-38.10077	
87.86813	2978.133		-38.4338	
87.92208	2976.005		-38.76084	
87.97603	2973.861		-39.08204	
88.02998	2971.704		-39.39769	
88.08392	2969.537		-39.70803	
88.13787	2967.366		-40.01329	
88.19183	2965.188		-40.31371	
88.24577	2962.998		-40.60937	
88.29972	2960.793		-40.90045	
88.35367	2958.575		-41.18706	
88.40762	2956.347		-41.4693	
88.46157	2954.112		-41.7473	
88.51552	2951.873		-42.02106	
88.56947	2949.633		-42.29071	
88.62341	2947.387		-42.55632	
88.67736	2945.129		-42.81795	
88.73131	2942.853		-43.07567	
88.78526	2940.557		-43.32956	
88.83921	2938.24		-43.57958	
88.89316	2935.9		-43.82581	
88.94711	2933.541		-44.0683	
89.00105	2931.165		-44.30714	
89.05501	2928.776		-44.54243	
89.10896	2926.378		-44.77417	
89.1629	2923.974		-45.00247	
89.21685	2921.566		-45.22736	
89.2708	2919.149		-45.44886	
89.32475	2916.72		-45.66698	
89.3787	2914.278		-45.88159	
89.43265	2911.818		-46.09262	
89.4866	2909.336		-46.29993	
89.54054	2906.833		-46.50333	
89.59449	2904.313		-46.70267	
89.64845	2901.777		-46.89782	
89.70239	2899.225		-47.08853	
89.75634	2896.657		-47.27469	
89.81029	2894.075		-47.45614	
89.86423	2891.479		-47.63279	
89.91819	2888.865		-47.80457	
89.97214	2886.227		-47.97143	
90.02608	2883.561		-48.13342	
90.08003	2880.874		-48.29063	
90.13398	2878.164		-48.44315	
90.18793	2875.425		-48.5911	
90.24188	2872.653		-48.73464	
90.29583	2869.852		-48.87386	
90.34978	2867.029		-49.00894	
90.40372	2864.196		-49.14006	
90.45767	2861.357		-49.26744	
90.51163	2858.519		-49.39135	
90.56557	2855.687		-49.512	
90.61952	2852.869		-49.62965	
90.67347	2850.06		-49.74453	
90.72742	2847.26		-49.8568	
90.78137	2844.471		-49.96667	
90.83532	2841.698		-50.07426	
90.88927	2838.935		-50.17977	
90.94321	2836.178		-50.28337	
90.99716	2833.419		-50.38527	
91.05111	2830.651		-50.48568	
91.10506	2827.872		-50.58484	
91.15901	2825.09		-50.68296	
91.21296	2822.308		-50.78032	
91.26691	2819.53		-50.87715	
91.32085	2816.759		-50.97371	
91.37481	2814		-51.0703	
91.42876	2811.25		-51.16712	
91.4827	2808.508		-51.2644	
91.53665	2805.772		-51.36233	
91.5906	2803.044		-51.46099	
91.64455	2800.32		-51.56044	
91.6985	2797.597		-51.66071	
91.75245	2794.872		-51.76174	
91.8064	2792.144		-51.86347	
91.86034	2789.415		-51.96584	
91.91429	2786.687		-52.06881	
91.96825	2783.961		-52.17234	
92.02219	2781.242		-52.27636	
92.07614	2778.538		-52.3809	
92.13009	2775.842		-52.48596	
92.18404	2773.147		-52.59156	
92.23799	2770.448		-52.69775	
92.29194	2767.746		-52.80453	
92.34589	2765.042		-52.91197	
92.39983	2762.335		-53.02016	
92.45378	2759.623		-53.15628	
92.50773	2756.908		-53.28826	
92.56168	2754.185		-53.41663	
92.61563	2751.449		-53.54213	
92.66958	2748.696		-53.66553	
92.72353	2745.924		-53.78748	
92.77747	2743.125		-53.90852	
92.83143	2740.297		-54.02909	
92.88538	2737.439		-54.14947	
92.93932	2734.551		-54.26992	
92.99327	2731.628		-54.39064	
93.04722	2728.665		-54.51175	
93.10117	2725.658		-54.63339	
93.15512	2722.61		-54.75559	
93.20907	2719.524		-54.87842	
93.26302	2716.413		-55.00191	
93.31696	2713.284		-55.12611	
93.37091	2710.147		-55.251	
93.42487	2707.012		-55.37661	
93.47881	2703.883		-55.50291	
93.53276	2700.762		-55.62989	
93.58671	2697.648		-55.75755	
93.64066	2694.537		-55.88585	
93.69461	2691.417		-56.01477	
93.74856	2688.28		-56.14425	
93.80251	2685.13		-56.27427	
93.85645	2681.971		-56.40477	
93.9104	2678.804		-56.53572	
93.96435	2675.631		-56.66706	
94.0183	2672.463		-56.79877	
94.07225	2669.337		-56.93074	
94.1262	2666.271		-57.06295	
94.18015	2663.248		-57.19535	
94.23409	2660.25		-57.32789	
94.28805	2657.265		-57.46054	
94.342	2654.29		-57.59321	
94.39594	2651.319		-57.72588	
94.44989	2648.35		-57.85851	
94.50384	2645.381		-57.99106	
94.55779	2642.411		-58.1235	
94.61174	2639.439		-58.25578	
94.66569	2636.465		-58.38787	
94.71964	2633.491		-58.51974	
94.77358	2630.517		-58.65137	
94.82753	2627.542		-58.78275	
94.88148	2624.569		-58.91386	
94.93543	2621.598		-59.04466	
94.98938	2618.632		-59.17516	
