T[Â°C]	330nm [counts / mm]	S.D.	First derivative	S.D. of first derivative
19.99929	7983.413		-112.884	
20.05328	7976.815		-112.8531	
20.10727	7970.224		-112.8223	
20.16126	7963.638		-112.7916	
20.21525	7957.061		-112.7608	
20.26924	7950.491		-112.7302	
20.32323	7943.931		-112.6995	
20.37722	7937.384		-112.6689	
20.43121	7930.85		-112.6383	
20.4852	7924.33		-112.6076	
20.53919	7917.823		-112.577	
20.59318	7911.33		-112.5462	
20.64717	7904.848		-112.5154	
20.70116	7898.374		-112.4845	
20.75515	7891.904		-112.4535	
20.80914	7885.434		-112.4223	
20.86312	7878.958		-112.391	
20.91712	7872.47		-112.3594	
20.97111	7865.973		-112.3276	
21.02509	7859.831		-112.2955	
21.07909	7853.768		-112.2631	
21.13308	7847.774		-112.2303	
21.18707	7841.849		-112.1971	
21.24105	7835.998		-112.1635	
21.29505	7830.21		-112.1293	
21.34904	7824.461		-112.0945	
21.40302	7818.72		-112.0591	
21.45702	7812.978		-112.0231	
21.51101	7807.234		-111.9863	
21.56499	7801.489		-111.9487	
21.61898	7795.742		-111.9103	
21.67298	7789.995		-111.871	
21.72696	7784.251		-111.8309	
21.78095	7778.501		-111.79	
21.83494	7772.725		-111.7482	
21.88894	7766.9		-111.7057	
21.94292	7761.007		-111.6624	
21.99691	7755.036		-111.6185	
22.05091	7748.983		-111.574	
22.10489	7742.853		-111.5291	
22.15888	7736.651		-111.4839	
22.21287	7730.376		-111.4386	
22.26686	7724.035		-111.3934	
22.32085	7717.643		-111.3487	
22.37484	7711.227		-111.3046	
22.42883	7704.821		-111.2618	
22.48282	7698.457		-111.2207	
22.53681	7692.157		-111.1819	
22.5908	7685.923		-111.1462	
22.64479	7679.734		-111.1011	
22.69878	7673.567		-111.0553	
22.75277	7667.399		-111.008	
22.80676	7661.217		-110.9583	
22.86075	7655.01		-110.9054	
22.91474	7648.783		-110.8482	
22.96873	7642.553		-110.7859	
23.02272	7636.35		-110.7176	
23.07671	7630.196		-110.6424	
23.1307	7624.109		-110.5599	
23.18469	7618.121		-110.4693	
23.23868	7612.255		-110.3703	
23.29267	7606.515		-110.2627	
23.34666	7600.869		-110.1462	
23.40065	7595.288		-110.0208	
23.45464	7589.746		-109.8863	
23.50863	7584.218		-109.7428	
23.56262	7578.673		-109.5902	
23.61661	7573.077		-109.4287	
23.6706	7567.403		-109.2588	
23.72459	7561.637		-109.0809	
23.77858	7555.775		-108.8958	
23.83257	7549.825		-108.7044	
23.88656	7543.81		-108.5078	
23.94055	7537.767		-108.3073	
23.99454	7531.729		-108.1044	
24.04853	7525.729		-107.9008	
24.10252	7519.779		-107.6982	
24.15651	7513.878		-107.4982	
24.2105	7508.002		-107.3025	
24.26449	7502.114		-107.1125	
24.31848	7496.188		-106.9297	
24.37247	7490.209		-106.7552	
24.42646	7484.163		-106.5898	
24.48045	7478.041		-106.4345	
24.53444	7471.85		-106.2895	
24.58843	7465.61		-106.1552	
24.64242	7459.365		-106.0315	
24.69641	7453.167		-105.9185	
24.7504	7447.063		-105.816	
24.80439	7441.09		-105.7235	
24.85838	7435.273		-105.6408	
24.91237	7429.62		-105.5675	
24.96636	7424.124		-105.5029	
25.02035	7418.762		-105.4466	
25.07434	7413.513		-105.3978	
25.12833	7408.352		-105.3558	
25.18232	7403.259		-105.3198	
25.23631	7398.202		-105.2891	
25.2903	7393.14		-105.2631	
25.34429	7388.038		-105.241	
25.39828	7382.879		-105.2223	
25.45227	7377.664		-105.2063	
25.50626	7372.405		-105.1925	
25.56025	7367.124		-105.1804	
25.61424	7361.833		-105.1695	
25.66823	7356.531		-105.1591	
25.72222	7351.212		-105.149	
25.77621	7345.866		-105.1385	
25.8302	7340.478		-105.1275	
25.88419	7335.034		-105.1157	
25.93818	7329.53		-105.1027	
25.99217	7323.964		-105.0885	
26.04616	7318.345		-105.0732	
26.10015	7312.683		-105.0567	
26.15414	7306.98		-105.0391	
26.20813	7301.228		-105.0206	
26.26212	7295.429		-105.0013	
26.31611	7289.59		-104.9815	
26.3701	7283.722		-104.9612	
26.42409	7277.828		-104.9405	
26.47808	7271.903		-104.9196	
26.53207	7265.945		-104.8984	
26.58606	7259.962		-104.8768	
26.64005	7253.975		-104.8546	
26.69404	7248.005		-104.8316	
26.74803	7242.066		-104.8073	
26.80202	7236.166		-104.7815	
26.85601	7230.307		-104.7537	
26.91	7224.495		-104.7235	
26.96399	7218.723		-104.6907	
27.01798	7212.984		-104.6548	
27.07197	7207.267		-104.6154	
27.12596	7201.566		-104.5725	
27.17995	7195.869		-104.5259	
27.23394	7190.15		-104.4754	
27.28793	7184.382		-104.4212	
27.34192	7178.542		-104.3633	
27.39591	7172.622		-104.3018	
27.4499	7166.628		-104.2367	
27.50389	7160.582		-104.1684	
27.55788	7154.519		-104.0971	
27.61187	7148.473		-104.0229	
27.66586	7142.47		-103.9462	
27.71985	7136.533		-103.8671	
27.77384	7130.671		-103.7857	
27.82783	7124.886		-103.7023	
27.88182	7119.173		-103.6167	
27.93581	7113.518		-103.529	
27.9898	7107.906		-103.4391	
28.04379	7102.334		-103.3469	
28.09778	7096.801		-103.2524	
28.15177	7091.3		-103.1554	
28.20576	7085.839		-103.0559	
28.25975	7080.433		-102.9538	
28.31374	7075.092		-102.8493	
28.36773	7069.814		-102.7425	
28.42172	7064.589		-102.6338	
28.47571	7059.406		-102.5238	
28.5297	7054.26		-102.4132	
28.58369	7049.149		-102.3027	
28.63768	7044.068		-102.1929	
28.69167	7039.018		-102.0848	
28.74566	7033.983		-101.9789	
28.79965	7028.939		-101.8757	
28.85364	7023.866		-101.7757	
28.90763	7018.755		-101.6793	
28.96162	7013.597		-101.5867	
29.01561	7008.383		-101.4981	
29.0696	7003.117		-101.4136	
29.12359	6997.81		-101.3335	
29.17758	6992.472		-101.258	
29.23157	6987.102		-101.1873	
29.28556	6981.696		-101.1217	
29.33955	6976.262		-101.0616	
29.39354	6970.799		-101.007	
29.44753	6965.303		-100.9584	
29.50152	6959.766		-100.916	
29.55551	6954.182		-100.88	
29.6095	6948.548		-100.8503	
29.66349	6942.866		-100.827	
29.71748	6937.142		-100.8099	
29.77147	6931.39		-100.7983	
29.82546	6925.631		-100.7919	
29.87945	6919.882		-100.7897	
29.93344	6914.154		-100.7909	
29.98743	6908.464		-100.7946	
30.04142	6902.823		-100.7995	
30.09541	6897.224		-100.8044	
30.1494	6891.657		-100.8081	
30.20339	6886.122		-100.8092	
30.25738	6880.618		-100.8065	
30.31137	6875.141		-100.7989	
30.36536	6869.685		-100.7852	
30.41935	6864.243		-100.7647	
30.47334	6858.814		-100.7368	
30.52732	6853.405		-100.7013	
30.58132	6848.011		-100.658	
30.63531	6842.631		-100.6071	
30.68929	6837.268		-100.549	
30.74329	6831.92		-100.4842	
30.79728	6826.587		-100.4134	
30.85126	6821.265		-100.3373	
30.90525	6815.949		-100.2566	
30.95925	6810.625		-100.1722	
31.01324	6805.282		-100.0849	
31.06722	6799.913		-99.99536	
31.12122	6794.509		-99.90446	
31.17521	6789.062		-99.81292	
31.22919	6783.56		-99.72144	
31.28318	6778.007		-99.63074	
31.33718	6772.414		-99.54153	
31.39116	6766.788		-99.45455	
31.44515	6761.14		-99.37055	
31.49914	6755.487		-99.29026	
31.55313	6749.85		-99.21432	
31.60712	6744.246		-99.14328	
31.66111	6738.683		-99.07755	
31.71511	6733.162		-99.01738	
31.76909	6727.68		-98.96285	
31.82308	6722.23		-98.9139	
31.87707	6716.809		-98.87032	
31.93106	6711.423		-98.83172	
31.98505	6706.079		-98.79757	
32.03904	6700.785		-98.76717	
32.09303	6695.548		-98.73969	
32.14702	6690.384		-98.7142	
32.20102	6685.309		-98.6897	
32.255	6680.328		-98.66521	
32.30899	6675.436		-98.63975	
32.36298	6670.61		-98.61245	
32.41697	6665.819		-98.58253	
32.47096	6661.039		-98.54935	
32.52495	6656.254		-98.5125	
32.57895	6651.439		-98.47171	
32.63293	6646.58		-98.42693	
32.68692	6641.668		-98.37828	
32.74091	6636.701		-98.32607	
32.7949	6631.674		-98.27082	
32.84889	6626.581		-98.21315	
32.90288	6621.416		-98.15375	
32.95687	6616.178		-98.09335	
33.01086	6610.875		-98.03269	
33.06485	6605.512		-97.97245	
33.11884	6600.091		-97.9132	
33.17283	6594.619		-97.85544	
33.22682	6589.106		-97.79955	
33.28081	6583.557		-97.74585	
33.3348	6577.971		-97.69456	
33.38879	6572.35		-97.64584	
33.44278	6566.705		-97.59982	
33.49677	6561.042		-97.5565	
33.55076	6555.377		-97.51579	
33.60475	6549.725		-97.47755	
33.65874	6544.101		-97.44154	
33.71273	6538.513		-97.40741	
33.76672	6532.958		-97.3748	
33.82071	6527.435		-97.34326	
33.8747	6521.941		-97.31228	
33.92869	6516.47		-97.28123	
33.98268	6511.01		-97.24942	
34.03667	6505.553		-97.21605	
34.09066	6500.107		-97.18027	
34.14465	6494.686		-97.14116	
34.19864	6489.305		-97.09777	
34.25263	6483.986		-97.0492	
34.30662	6478.745		-96.99459	
34.36061	6473.582		-96.93317	
34.4146	6468.495		-96.86428	
34.46859	6463.479		-96.78743	
34.52258	6458.52		-96.70228	
34.57657	6453.598		-96.60876	
34.63056	6448.694		-96.50699	
34.68455	6443.79		-96.39735	
34.73854	6438.87		-96.28046	
34.79253	6433.92		-96.1572	
34.84652	6428.926		-96.02859	
34.90051	6423.883		-95.89581	
34.9545	6418.798		-95.76015	
35.00849	6413.676		-95.62294	
35.06248	6408.51		-95.48559	
35.11647	6403.301		-95.34947	
35.17046	6398.064		-95.21594	
35.22445	6392.814		-95.08624	
35.27844	6387.561		-94.96149	
35.33243	6382.306		-94.84272	
35.38642	6377.054		-94.73071	
35.44041	6371.806		-94.62611	
35.4944	6366.561		-94.52943	
35.54839	6361.325		-94.44102	
35.60238	6356.102		-94.36105	
35.65637	6350.9		-94.28959	
35.71036	6345.734		-94.22662	
35.76435	6340.615		-94.17201	
35.81834	6335.55		-94.12556	
35.87233	6330.537		-94.08697	
35.92632	6325.559		-94.05587	
35.98031	6320.592		-94.03181	
36.0343	6315.632		-94.01425	
36.08829	6310.678		-94.00256	
36.14228	6305.736		-93.99601	
36.19627	6300.817		-93.99384	
36.25026	6295.933		-93.99519	
36.30425	6291.083		-93.99918	
36.35824	6286.267		-94.00483	
36.41223	6281.475		-94.01117	
36.46622	6276.701		-94.01723	
36.52021	6271.937		-94.02209	
36.5742	6267.174		-94.02499	
36.62819	6262.401		-94.02525	
36.68218	6257.612		-94.02235	
36.73617	6252.794		-94.0159	
36.79016	6247.932		-94.00565	
36.84415	6243.005		-93.99149	
36.89814	6238.009		-93.97338	
36.95213	6232.952		-93.95142	
37.00612	6227.843		-93.92577	
37.06011	6222.693		-93.89669	
37.1141	6217.51		-93.86447	
37.16809	6212.298		-93.82943	
37.22208	6207.068		-93.79185	
37.27607	6201.833		-93.75196	
37.33006	6196.588		-93.70993	
37.38405	6191.322		-93.6658	
37.43804	6186.034		-93.61951	
37.49203	6180.731		-93.57092	
37.54602	6175.417		-93.51983	
37.60001	6170.088		-93.46598	
37.654	6164.744		-93.40914	
37.70799	6159.387		-93.3491	
37.76198	6154.029		-93.28564	
37.81597	6148.688		-93.2186	
37.86996	6143.382		-93.14778	
37.92395	6138.123		-93.07307	
37.97794	6132.91		-92.99442	
38.03193	6127.739		-92.91185	
38.08592	6122.601		-92.82539	
38.13991	6117.488		-92.7351	
38.1939	6112.398		-92.6411	
38.24789	6107.325		-92.54346	
38.30188	6102.268		-92.44219	
38.35587	6097.223		-92.33728	
38.40986	6092.192		-92.22863	
38.46385	6087.18		-92.11615	
38.51784	6082.189		-91.99979	
38.57183	6077.223		-91.87952	
38.62582	6072.293		-91.7554	
38.67981	6067.406		-91.62756	
38.7338	6062.558		-91.49622	
38.78779	6057.731		-91.36163	
38.84178	6052.905		-91.22421	
38.89577	6048.063		-91.08439	
38.94976	6043.197		-90.94273	
39.00375	6038.313		-90.7999	
39.05774	6033.409		-90.65658	
39.11172	6028.475		-90.51351	
39.16572	6023.515		-90.37143	
39.21971	6018.561		-90.23105	
39.2737	6013.633		-90.09303	
39.32769	6008.74		-89.95796	
39.38168	6003.881		-89.82635	
39.43567	5999.06		-89.69865	
39.48965	5994.29		-89.57523	
39.54365	5989.578		-89.45638	
39.59764	5984.926		-89.34237	
39.65163	5980.332		-89.23341	
39.70562	5975.783		-89.12965	
39.75961	5971.271		-89.03123	
39.81359	5966.783		-88.93821	
39.86758	5962.3		-88.85056	
39.92158	5957.808		-88.7682	
39.97557	5953.297		-88.69115	
40.02956	5948.764		-88.61938	
40.08355	5944.209		-88.55291	
40.13754	5939.625		-88.49177	
40.19152	5935.004		-88.43599	
40.24551	5930.334		-88.38558	
40.29951	5925.617		-88.3405	
40.3535	5920.861		-88.30064	
40.40749	5916.083		-88.26582	
40.46148	5911.291		-88.23576	
40.51546	5906.482		-88.21016	
40.56945	5901.655		-88.18859	
40.62344	5896.814		-88.17057	
40.67743	5891.967		-88.15558	
40.73143	5887.115		-88.14304	
40.78542	5882.261		-88.13237	
40.83941	5877.414		-88.12294	
40.89339	5872.583		-88.11414	
40.94738	5867.779		-88.1054	
41.00137	5862.998		-88.09619	
41.05536	5858.221		-88.08607	
41.10936	5853.435		-88.07464	
41.16335	5848.637		-88.06159	
41.21733	5843.833		-88.04666	
41.27132	5839.031		-88.02959	
41.32531	5834.235		-88.01015	
41.3793	5829.443		-87.98816	
41.43329	5824.657		-87.96346	
41.48729	5819.877		-87.9359	
41.54128	5815.102		-87.9054	
41.59526	5810.328		-87.87183	
41.64925	5805.554		-87.83502	
41.70324	5800.781		-87.79484	
41.75723	5796.012		-87.75113	
41.81122	5791.244		-87.70378	
41.86522	5786.474		-87.65267	
41.9192	5781.692		-87.59771	
41.97319	5776.896		-87.53886	
42.02718	5772.087		-87.47616	
42.08117	5767.27		-87.40971	
42.13516	5762.444		-87.33968	
42.18915	5757.601		-87.26634	
42.24314	5752.731		-87.19	
42.29713	5747.831		-87.11105	
42.35112	5742.909		-87.02987	
42.40511	5737.994		-86.94691	
42.4591	5733.111		-86.86259	
42.51309	5728.275		-86.77734	
42.56708	5723.497		-86.69154	
42.62107	5718.776		-86.60551	
42.67506	5714.105		-86.51942	
42.72905	5709.46		-86.4334	
42.78304	5704.827		-86.34745	
42.83703	5700.197		-86.26157	
42.89102	5695.567		-86.17572	
42.94501	5690.945		-86.08985	
42.999	5686.327		-86.00391	
43.05299	5681.711		-85.91782	
43.10698	5677.103		-85.83161	
43.16097	5672.509		-85.74534	
43.21496	5667.938		-85.65918	
43.26895	5663.399		-85.5734	
43.32294	5658.899		-85.48843	
43.37693	5654.44		-85.40479	
43.43092	5650.023		-85.32307	
43.48491	5645.648		-85.24397	
43.5389	5641.303		-85.1681	
43.59289	5636.975		-85.09603	
43.64688	5632.642		-85.02824	
43.70087	5628.276		-84.96511	
43.75486	5623.858		-84.90691	
43.80885	5619.381		-84.85379	
43.86284	5614.847		-84.80583	
43.91683	5610.259		-84.76297	
43.97082	5605.631		-84.72509	
44.02481	5600.983		-84.69202	
44.0788	5596.333		-84.66351	
44.13279	5591.698		-84.63928	
44.18678	5587.094		-84.61906	
44.24077	5582.536		-84.60253	
44.29476	5578.019		-84.58936	
44.34875	5573.525		-84.57915	
44.40274	5569.038		-84.57146	
44.45673	5564.537		-84.56583	
44.51072	5560.011		-84.56165	
44.56471	5555.457		-84.55829	
44.6187	5550.88		-84.55499	
44.67269	5546.289		-84.5509	
44.72668	5541.688		-84.54512	
44.78067	5537.079		-84.53669	
44.83466	5532.469		-84.5247	
44.88865	5527.87		-84.50829	
44.94264	5523.291		-84.48664	
44.99663	5518.737		-84.459	
45.05062	5514.213		-84.42467	
45.10461	5509.717		-84.38304	
45.1586	5505.242		-84.33364	
45.21259	5500.781		-84.27611	
45.26658	5496.331		-84.2103	
45.32057	5491.879		-84.13628	
45.37456	5487.412		-84.05439	
45.42855	5482.921		-83.96515	
45.48254	5478.397		-83.86929	
45.53653	5473.844		-83.76773	
45.59052	5469.269		-83.66149	
45.64451	5464.673		-83.55174	
45.6985	5460.057		-83.43973	
45.75249	5455.421		-83.32672	
45.80648	5450.762		-83.214	
45.86047	5446.071		-83.10278	
45.91446	5441.337		-82.99416	
45.96845	5436.552		-82.88909	
46.02244	5431.719		-82.78838	
46.07643	5426.841		-82.69266	
46.13042	5421.93		-82.60239	
46.18441	5417.01		-82.51794	
46.2384	5412.109		-82.43946	
46.29239	5407.256		-82.36708	
46.34638	5402.468		-82.30077	
46.40037	5397.754		-82.24039	
46.45436	5393.117		-82.18573	
46.50835	5388.549		-82.13643	
46.56234	5384.045		-82.09205	
46.61633	5379.591		-82.052	
46.67032	5375.176		-82.01562	
46.72431	5370.79		-81.98211	
46.7783	5366.43		-81.95065	
46.83229	5362.104		-81.92036	
46.88628	5357.827		-81.89033	
46.94027	5353.62		-81.8597	
46.99426	5349.498		-81.82764	
47.04825	5345.469		-81.79346	
47.10224	5341.536		-81.75654	
47.15623	5337.697		-81.71642	
47.21022	5333.951		-81.67274	
47.26421	5330.28		-81.62528	
47.3182	5326.653		-81.57398	
47.37219	5323.032		-81.5189	
47.42618	5319.369		-81.46022	
47.48017	5315.623		-81.39829	
47.53416	5311.764		-81.33354	
47.58815	5307.773		-81.26657	
47.64214	5303.64		-81.1981	
47.69613	5299.373		-81.12902	
47.75012	5294.999		-81.06027	
47.80411	5290.552		-80.99291	
47.8581	5286.058		-80.92798	
47.91209	5281.531		-80.86647	
47.96608	5276.984		-80.80931	
48.02007	5272.422		-80.75729	
48.07406	5267.843		-80.71104	
48.12805	5263.238		-80.67106	
48.18204	5258.596		-80.63761	
48.23603	5253.905		-80.61076	
48.29002	5249.157		-80.59039	
48.34401	5244.349		-80.57613	
48.39799	5239.491		-80.56741	
48.45199	5234.605		-80.56351	
48.50598	5229.723		-80.56355	
48.55997	5224.873		-80.5666	
48.61396	5220.083		-80.57166	
48.66795	5215.369		-80.57769	
48.72194	5210.736		-80.58363	
48.77592	5206.184		-80.58835	
48.82992	5201.697		-80.59071	
48.88391	5197.264		-80.58952	
48.9379	5192.875		-80.5836	
48.99189	5188.514		-80.57178	
49.04588	5184.167		-80.55299	
49.09986	5179.829		-80.52625	
49.15385	5175.502		-80.49076	
49.20785	5171.2		-80.44587	
49.26184	5166.946		-80.39114	
49.31583	5162.757		-80.32633	
49.36982	5158.636		-80.25146	
49.42381	5154.578		-80.16671	
49.47779	5150.568		-80.07245	
49.53178	5146.591		-79.96921	
49.58578	5142.616		-79.85772	
49.63977	5138.606		-79.73889	
49.69376	5134.528		-79.61375	
49.74775	5130.364		-79.48345	
49.80173	5126.099		-79.34925	
49.85572	5121.729		-79.21243	
49.90971	5117.261		-79.07432	
49.96371	5112.723		-78.93625	
50.0177	5108.151		-78.79961	
50.07169	5103.584		-78.66572	
50.12568	5099.058		-78.5359	
50.17966	5094.594		-78.41139	
50.23365	5090.2		-78.29337	
50.28764	5085.876		-78.18281	
50.34163	5081.614		-78.08055	
50.39563	5077.398		-77.98714	
50.44962	5073.212		-77.90292	
50.5036	5069.04		-77.82797	
50.55759	5064.873		-77.76221	
50.61158	5060.705		-77.70535	
50.66557	5056.537		-77.65701	
50.71956	5052.377		-77.61663	
50.77356	5048.229		-77.58359	
50.82755	5044.107		-77.55715	
50.88153	5040.034		-77.53648	
50.93552	5036.031		-77.52073	
50.98951	5032.107		-77.509	
51.0435	5028.264		-77.50042	
51.09749	5024.482		-77.49409	
51.15149	5020.728		-77.48922	
51.20547	5016.97		-77.48503	
51.25946	5013.176		-77.4809	
51.31345	5009.329		-77.47626	
51.36744	5005.417		-77.47066	
51.42143	5001.441		-77.46378	
51.47542	4997.406		-77.45535	
51.52942	4993.318		-77.44526	
51.5834	4989.185		-77.43343	
51.63739	4985.018		-77.41991	
51.69138	4980.826		-77.4048	
51.74537	4976.615		-77.38832	
51.79936	4972.386		-77.3707	
51.85335	4968.139		-77.3522	
51.90734	4963.87		-77.33307	
51.96133	4959.586		-77.31355	
52.01532	4955.292		-77.29387	
52.06931	4951.003		-77.27424	
52.1233	4946.723		-77.25483	
52.17729	4942.448		-77.23579	
52.23128	4938.175		-77.21724	
52.28527	4933.899		-77.19924	
52.33926	4929.613		-77.18182	
52.39325	4925.313		-77.16496	
52.44724	4920.987		-77.14855	
52.50123	4916.636		-77.13245	
52.55522	4912.263		-77.11643	
52.60921	4907.875		-77.10015	
52.6632	4903.476		-77.08319	
52.71719	4899.067		-77.06502	
52.77118	4894.645		-77.04504	
52.82517	4890.21		-77.02257	
52.87916	4885.768		-76.99693	
52.93315	4881.334		-76.96742	
52.98714	4876.93		-76.93343	
53.04113	4872.581		-76.89444	
53.09512	4868.304		-76.85001	
53.14911	4864.11		-76.7998	
53.2031	4859.995		-76.74361	
53.25709	4855.942		-76.68134	
53.31108	4851.932		-76.61295	
53.36507	4847.946		-76.53859	
53.41906	4843.976		-76.45849	
53.47305	4840.013		-76.37301	
53.52704	4836.048		-76.28262	
53.58103	4832.081		-76.18781	
53.63502	4828.112		-76.08913	
53.68901	4824.136		-75.9872	
53.743	4820.141		-75.88264	
53.79699	4816.117		-75.77613	
53.85098	4812.057		-75.66836	
53.90497	4807.966		-75.55998	
53.95896	4803.852		-75.45165	
54.01295	4799.732		-75.34395	
54.06694	4795.617		-75.23743	
54.12093	4791.517		-75.13258	
54.17492	4787.443		-75.02987	
54.22891	4783.4		-74.92965	
54.2829	4779.384		-74.83227	
54.33689	4775.381		-74.73798	
54.39088	4771.378		-74.64702	
54.44487	4767.368		-74.55953	
54.49886	4763.343		-74.47566	
54.55285	4759.303		-74.39548	
54.60684	4755.243		-74.31894	
54.66083	4751.172		-74.24596	
54.71482	4747.105		-74.17632	
54.76881	4743.056		-74.10969	
54.8228	4739.033		-74.0457	
54.87679	4735.048		-73.9839	
54.93078	4731.108		-73.92378	
54.98477	4727.219		-73.86485	
55.03876	4723.377		-73.80663	
55.09275	4719.582		-73.74863	
55.14674	4715.832		-73.69043	
55.20073	4712.116		-73.63157	
55.25472	4708.42		-73.57164	
55.30871	4704.725		-73.5103	
55.3627	4701.012		-73.44731	
55.41669	4697.264		-73.38257	
55.47068	4693.467		-73.31607	
55.52467	4689.606		-73.24786	
55.57866	4685.671		-73.17804	
55.63265	4681.667		-73.10667	
55.68664	4677.609		-73.03383	
55.74063	4673.518		-72.95958	
55.79462	4669.414		-72.88393	
55.84861	4665.313		-72.80692	
55.9026	4661.224		-72.72855	
55.95659	4657.144		-72.64887	
56.01058	4653.07		-72.56792	
56.06457	4648.997		-72.48569	
56.11856	4644.92		-72.40219	
56.17255	4640.85		-72.31744	
56.22654	4636.792		-72.23144	
56.28053	4632.735		-72.14416	
56.33452	4628.677		-72.05555	
56.38851	4624.624		-71.9656	
56.4425	4620.587		-71.87434	
56.49649	4616.57		-71.78185	
56.55048	4612.572		-71.68822	
56.60447	4608.592		-71.59361	
56.65846	4604.63		-71.49816	
56.71245	4600.677		-71.40199	
56.76644	4596.726		-71.30521	
56.82043	4592.776		-71.20786	
56.87442	4588.842		-71.10994	
56.92841	4584.937		-71.01143	
56.9824	4581.073		-70.91228	
57.03639	4577.258		-70.81244	
57.09038	4573.5		-70.71179	
57.14437	4569.792		-70.61028	
57.19836	4566.127		-70.50782	
57.25235	4562.49		-70.40437	
57.30634	4558.863		-70.29991	
57.36033	4555.235		-70.19451	
57.41432	4551.6		-70.08828	
57.46831	4547.958		-69.98145	
57.5223	4544.301		-69.87431	
57.57629	4540.618		-69.76723	
57.63028	4536.892		-69.66059	
57.68427	4533.121		-69.55483	
57.73826	4529.315		-69.45039	
57.79225	4525.493		-69.34772	
57.84624	4521.674		-69.24729	
57.90023	4517.864		-69.14955	
57.95422	4514.069		-69.0549	
58.00821	4510.298		-68.96365	
58.06219	4506.566		-68.87601	
58.11619	4502.888		-68.79207	
58.17018	4499.272		-68.71183	
58.22417	4495.718		-68.63517	
58.27816	4492.209		-68.56186	
58.33215	4488.733		-68.49158	
58.38614	4485.271		-68.42392	
58.44012	4481.792		-68.35844	
58.49412	4478.275		-68.29466	
58.54811	4474.711		-68.23217	
58.6021	4471.107		-68.17054	
58.65609	4467.47		-68.10941	
58.71008	4463.805		-68.04844	
58.76406	4460.122		-67.98732	
58.81805	4456.436		-67.92574	
58.87205	4452.764		-67.86335	
58.92604	4449.119		-67.79987	
58.98003	4445.504		-67.73499	
59.03402	4441.914		-67.66841	
59.08801	4438.332		-67.59982	
59.14199	4434.75		-67.52888	
59.19598	4431.158		-67.45531	
59.24998	4427.546		-67.37875	
59.30397	4423.906		-67.29885	
59.35796	4420.232		-67.21526	
59.41195	4416.526		-67.12769	
59.46593	4412.79		-67.0359	
59.51992	4409.023		-66.93971	
59.57391	4405.225		-66.83905	
59.62791	4401.397		-66.73386	
59.6819	4397.554		-66.62421	
59.73589	4393.712		-66.51014	
59.78988	4389.898		-66.39178	
59.84386	4386.133		-66.26928	
59.89785	4382.433		-66.14275	
59.95184	4378.795		-66.01227	
60.00583	4375.206		-65.87785	
60.05983	4371.645		-65.73939	
60.11382	4368.087		-65.59666	
60.1678	4364.509		-65.44938	
60.22179	4360.896		-65.29713	
60.27578	4357.247		-65.13948	
60.32977	4353.568		-64.9759	
60.38376	4349.86		-64.80579	
60.43776	4346.131		-64.62852	
60.49174	4342.396		-64.44343	
60.54573	4338.68		-64.24989	
60.59972	4335.003		-64.04736	
60.65371	4331.371		-63.83535	
60.7077	4327.787		-63.61346	
60.76169	4324.253		-63.38138	
60.81569	4320.772		-63.13881	
60.86967	4317.343		-62.88556	
60.92366	4313.968		-62.62143	
60.97765	4310.647		-62.34626	
61.03164	4307.374		-62.05992	
61.08563	4304.136		-61.7623	
61.13962	4300.924		-61.45333	
61.19361	4297.724		-61.13294	
61.2476	4294.521		-60.80112	
61.30159	4291.303		-60.45788	
61.35558	4288.074		-60.10329	
61.40957	4284.848		-59.73752	
61.46356	4281.637		-59.36079	
61.51755	4278.453		-58.97342	
61.57154	4275.296		-58.57573	
61.62553	4272.167		-58.1682	
61.67952	4269.052		-57.75122	
61.73351	4265.934		-57.3252	
61.7875	4262.801		-56.89058	
61.84149	4259.655		-56.44775	
61.89548	4256.497		-55.9971	
61.94947	4253.324		-55.53897	
62.00346	4250.137		-55.07369	
62.05745	4246.934		-54.60138	
62.11144	4243.714		-54.12209	
62.16543	4240.486		-53.63576	
62.21942	4237.27		-53.1422	
62.27341	4234.085		-52.64108	
62.3274	4230.947		-52.13196	
62.38139	4227.857		-51.61436	
62.43538	4224.819		-51.0876	
62.48937	4221.834		-50.55088	
62.54336	4218.91		-50.00335	
62.59735	4216.05		-49.44412	
62.65134	4213.258		-48.87226	
62.70533	4210.536		-48.28682	
62.75932	4207.884		-47.68679	
62.81331	4205.299		-47.07124	
62.8673	4202.776		-46.43908	
62.92129	4200.307		-45.78917	
62.97528	4197.883		-45.12035	
63.02927	4195.5		-44.43141	
63.08326	4193.156		-43.72115	
63.13725	4190.843		-42.98835	
63.19124	4188.553		-42.23189	
63.24523	4186.28		-41.45052	
63.29922	4184.017		-40.64313	
63.35321	4181.765		-39.80859	
63.4072	4179.529		-38.94587	
63.46119	4177.322		-38.05397	
63.51518	4175.155		-37.13197	
63.56917	4173.034		-36.17912	
63.62316	4170.958		-35.19457	
63.67715	4168.92		-34.17756	
63.73114	4166.92		-33.12737	
63.78513	4164.953		-32.04331	
63.83912	4163.013		-30.92473	
63.89311	4161.095		-29.77098	
63.9471	4159.205		-28.58158	
64.00109	4157.339		-27.3558	
64.05508	4155.494		-26.09298	
64.10907	4153.661		-24.7921	
64.16306	4151.846		-23.45236	
64.21705	4150.065		-22.07298	
64.27104	4148.334		-20.65252	
64.32503	4146.67		-19.19012	
64.37902	4145.085		-17.68417	
64.43301	4143.58		-16.13358	
64.487	4142.153		-14.53641	
64.54099	4140.81		-12.8911	
64.59498	4139.558		-11.19602	
64.64897	4138.397		-9.448791	
64.70296	4137.329		-7.647723	
64.75695	4136.349		-5.79024	
64.81094	4135.464		-3.874477	
64.86493	4134.677		-1.897645	
64.91892	4133.987		0.1425387	
64.97291	4133.401		2.248293	
65.0269	4132.933		4.422677	
65.08089	4132.593		6.667788	
65.13488	4132.385		8.98671	
65.18887	4132.307		11.38152	
65.24286	4132.353		13.85533	
65.29685	4132.518		16.41051	
65.35084	4132.801		19.04907	
65.40483	4133.211		21.77423	
65.45882	4133.76		24.58777	
65.51281	4134.457		27.49264	
65.5668	4135.309		30.49045	
65.62079	4136.319		33.58403	
65.67478	4137.488		36.77524	
65.72877	4138.819		40.06549	
65.78276	4140.314		43.45763	
65.83675	4141.978		46.95267	
65.89074	4143.817		50.55318	
65.94473	4145.835		54.26005	
65.99872	4148.023		58.07582	
66.05271	4150.37		62.00193	
66.1067	4152.855		66.03934	
66.16069	4155.474		70.19138	
66.21468	4158.23		74.45863	
66.26867	4161.146		78.84416	
66.32265	4164.238		83.34906	
66.37665	4167.524		87.97655	
66.43064	4171.018		92.72858	
66.48463	4174.731		97.60664	
66.53862	4178.687		102.6152	
66.59261	4182.9		107.7554	
66.6466	4187.388		113.0318	
66.70058	4192.155		118.4461	
66.75458	4197.208		124.0031	
66.80857	4202.552		129.7057	
66.86256	4208.187		135.5564	
66.91655	4214.117		141.5611	
66.97054	4220.343		147.7215	
67.02453	4226.878		154.0436	
67.07851	4233.74		160.5299	
67.13251	4240.945		167.1862	
67.1865	4248.503		174.0165	
67.24049	4256.427		181.0238	
67.29448	4264.734		188.2154	
67.34846	4273.437		195.5934	
67.40246	4282.549		203.1649	
67.45644	4292.079		210.9328	
67.51044	4302.043		218.904	
67.56443	4312.457		227.0829	
67.61842	4323.323		235.4724	
67.67241	4334.641		244.0804	
67.72639	4346.403		252.9083	
67.78039	4358.606		261.9628	
67.83437	4371.237		271.2451	
67.88837	4384.293		280.7608	
67.94236	4397.776		290.5114	
67.99635	4411.695		300.4965	
68.05034	4426.064		310.7206	
68.10432	4440.886		321.1804	
68.15832	4456.177		331.8781	
68.2123	4471.951		342.8091	
68.2663	4488.233		353.9737	
68.32029	4505.043		365.3676	
68.37428	4522.397		376.9837	
68.42827	4540.317		388.8212	
68.48225	4558.82		400.8702	
68.53625	4577.938		413.1276	
68.59023	4597.692		425.5826	
68.64423	4618.115		438.2303	
68.69821	4639.22		451.0592	
68.7522	4661.018		464.0623	
68.8062	4683.513		477.2283	
68.86018	4706.703		490.5438	
68.91418	4730.609		504.0009	
68.96816	4755.242		517.5836	
69.02216	4780.636		531.2823	
69.07614	4806.818		545.0799	
69.13013	4833.837		558.9648	
69.18413	4861.722		572.9202	
69.23811	4890.493		586.9278	
69.29211	4920.185		600.9746	
69.34609	4950.806		615.0392	
69.40009	4982.375		629.1072	
69.45407	5014.896		643.1562	
69.50806	5048.388		657.1704	
69.56206	5082.866		671.1281	
69.61604	5118.338		685.0068	
69.67004	5154.833		698.7892	
69.72402	5192.365		712.4498	
69.77802	5230.982		725.9702	
69.832	5270.707		739.3232	
69.88599	5311.582		752.4896	
69.93999	5353.633		765.4424	
69.99397	5396.876		778.1556	
70.04797	5441.344		790.6068	
70.10195	5487.031		802.7667	
70.15594	5533.942		814.6121	
70.20993	5582.046		826.1119	
70.26392	5631.316		837.2433	
70.31792	5681.696		847.9754	
70.3719	5733.108		858.2806	
70.4259	5785.486		868.1338	
70.47988	5838.716		877.5052	
70.53387	5892.723		886.3715	
70.58786	5947.416		894.7025	
70.64185	6002.752		902.478	
70.69585	6058.681		909.6703	
70.74983	6115.147		916.2583	
70.80383	6172.125		922.2198	
70.85781	6229.561		927.5353	
70.9118	6287.442		932.1881	
70.96579	6345.731		936.1583	
71.01978	6404.418		939.4354	
71.07378	6463.466		942.0032	
71.12776	6522.825		943.8541	
71.18176	6582.459		944.9769	
71.23574	6642.302		945.3676	
71.28973	6702.321		945.0215	
71.34372	6762.451		943.9369	
71.39771	6822.673		942.1149	
71.45171	6882.954		939.5559	
71.50569	6943.257		936.2688	
71.55968	7003.574		932.2563	
71.61367	7063.843		927.5313	
71.66766	7124.035		922.1026	
71.72165	7184.066		915.9847	
71.77564	7243.877		909.1913	
71.82964	7303.378		901.7371	
71.88362	7362.474		893.6443	
71.93761	7421.081		884.927	
71.9916	7479.077		875.6104	
72.04559	7536.372		865.7129	
72.09958	7592.829		855.2603	
72.15357	7648.33		844.2737	
72.20757	7702.728		832.7776	
72.26155	7755.889		820.8013	
72.31554	7807.722		808.3646	
72.36953	7858.109		795.4989	
72.42352	7906.99		782.2264	
72.47751	7954.314		768.5774	
72.5315	8000.083		754.575	
72.58549	8044.279		740.2466	
72.63948	8086.902		725.6227	
72.69347	8127.965		710.7249	
72.74746	8167.473		695.5849	
72.80145	8205.437		680.2254	
72.85544	8241.85		664.6779	
72.90943	8276.733		648.9651	
72.96342	8310.104		633.1163	
73.01741	8341.988		617.1613	
73.0714	8372.438		601.1226	
73.12539	8401.492		585.032	
73.17938	8429.205		568.9121	
73.23337	8455.621		552.7943	
73.28736	8480.792		536.7006	
73.34135	8504.75		520.6625	
73.39534	8527.556		504.7008	
73.44933	8549.245		488.8439	
73.50332	8569.863		473.1182	
73.55731	8589.463		457.5433	
73.6113	8608.105		442.1467	
73.66529	8625.869		426.9457	
73.71928	8642.813		411.9665	
73.77327	8658.996		397.2232	
73.82726	8674.449		382.7378	
73.88125	8689.198		368.5282	
73.93524	8703.274		354.6065	
73.98923	8716.714		340.9907	
74.04322	8729.565		327.6892	
74.09721	8741.864		314.7182	
74.1512	8753.643		302.082	
74.20519	8764.919		289.7921	
74.25918	8775.718		277.8556	
74.31317	8786.049		266.2744	
74.36716	8795.907		255.055	
74.42115	8805.307		244.1956	
74.47514	8814.265		233.7005	
74.52913	8822.813		223.5637	
74.58312	8830.979		213.7852	
74.63711	8838.798		204.3608	
74.6911	8846.288		195.2826	
74.74509	8853.477		186.5464	
74.79908	8860.396		178.1414	
74.85307	8867.063		170.0623	
74.90706	8873.485		162.2961	
74.96105	8879.647		154.835	
75.01504	8885.528		147.6683	
75.06903	8891.114		140.7835	
75.12302	8896.396		134.1714	
75.17701	8901.392		127.8186	
75.231	8906.13		121.7166	
75.28499	8910.653		115.8519	
75.33898	8915.001		110.2155	
75.39297	8919.221		104.797	
75.44696	8923.354		99.58504	
75.50095	8927.428		94.57129	
75.55494	8931.455		89.74461	
75.60892	8935.436		85.0976	
75.66292	8939.365		80.61944	
75.71691	8943.235		76.30273	
75.7709	8947.013		72.1392	
75.82489	8950.659		68.12006	
75.87888	8954.136		64.2383	
75.93287	8957.416		60.48535	
75.98685	8960.482		56.85484	
76.04085	8963.329		53.33846	
76.09484	8965.956		49.92996	
76.14883	8968.359		46.62268	
76.20282	8970.532		43.40944	
76.25681	8972.471		40.2847	
76.3108	8974.185		37.24167	
76.36478	8975.674		34.27551	
76.41878	8976.939		31.37991	
76.47277	8977.981		28.55035	
76.52676	8978.803		25.78218	
76.58075	8979.412		23.07039	
76.63474	8979.81		20.41157	
76.68873	8979.99		17.80142	
76.74271	8979.974		15.23752	
76.79671	8979.794		12.71633	
76.8507	8979.488		10.23594	
76.90469	8979.086		7.79449	
76.95868	8978.608		5.389745	
77.01266	8978.075		3.020907	
77.06666	8977.496		0.6863074	
77.12064	8976.874		-1.61412	
77.17464	8976.219		-3.881486	
77.22863	8975.523		-6.115485	
77.28262	8974.772		-8.315759	
77.33661	8973.954		-10.48231	
77.39059	8973.06		-12.61379	
77.44459	8972.077		-14.70965	
77.49857	8971.001		-16.76787	
77.55257	8969.832		-18.78748	
77.60656	8968.574		-20.76633	
77.66055	8967.242		-22.70251	
77.71454	8965.843		-24.59461	
77.76852	8964.376		-26.4404	
77.82252	8962.847		-28.23867	
77.8765	8961.263		-29.9873	
77.9305	8959.626		-31.6854	
77.98449	8957.93		-33.33145	
78.03848	8956.166		-34.92451	
78.09247	8954.31		-36.46433	
78.14645	8952.335		-37.95037	
78.20045	8950.22		-39.38313	
78.25443	8947.96		-40.76259	
78.30843	8945.557		-42.08994	
78.36241	8943.016		-43.36566	
78.4164	8940.359		-44.59156	
78.4704	8937.605		-45.76877	
78.52438	8934.765		-46.89892	
78.57838	8931.835		-47.984	
78.63236	8928.81		-49.02544	
78.68636	8925.689		-50.02528	
78.74034	8922.495		-50.98473	
78.79433	8919.241		-51.90581	
78.84833	8915.926		-52.78966	
78.90231	8912.523		-53.63765	
78.95631	8909.008		-54.4512	
79.01029	8905.353		-55.23114	
79.06429	8901.532		-55.97868	
79.11827	8897.541		-56.69427	
79.17226	8893.389		-57.37899	
79.22626	8889.096		-58.0331	
79.28024	8884.699		-58.65707	
79.33424	8880.243		-59.25135	
79.38822	8875.774		-59.81592	
79.44221	8871.329		-60.35091	
79.4962	8866.947		-60.85579	
79.55019	8862.676		-61.33046	
79.60419	8858.561		-61.77412	
79.65817	8854.613		-62.18621	
79.71217	8850.813		-62.56607	
79.76615	8847.129		-62.91277	
79.82014	8843.53		-63.22561	
79.87413	8839.994		-63.50361	
79.92812	8836.506		-63.74627	
79.98212	8833.074		-63.95285	
80.0361	8829.698		-64.12308	
80.0901	8826.383		-64.25689	
80.14408	8823.127		-64.35448	
80.19807	8819.923		-64.41645	
80.25206	8816.76		-64.44359	
80.30605	8813.63		-64.43723	
80.36005	8810.528		-64.39887	
80.41403	8807.451		-64.33053	
80.46803	8804.393		-64.2343	
80.52201	8801.335		-64.11265	
80.576	8798.24		-63.96804	
80.62999	8795.07		-63.80305	
80.68398	8791.792		-63.6203	
80.73798	8788.396		-63.42242	
80.79196	8784.885		-63.21212	
80.84595	8781.265		-62.99199	
80.89994	8777.555		-62.76475	
80.95393	8773.784		-62.533	
81.00792	8769.987		-62.29946	
81.06191	8766.194		-62.0667	
81.11591	8762.444		-61.83733	
81.16989	8758.771		-61.61387	
81.22388	8755.188		-61.39864	
81.27787	8751.698		-61.19395	
81.33186	8748.284		-61.00187	
81.38585	8744.927		-60.82438	
81.43984	8741.595		-60.66311	
81.49384	8738.262		-60.51958	
81.54782	8734.92		-60.395	
81.60181	8731.568		-60.29036	
81.6558	8728.219		-60.20638	
81.70979	8724.883		-60.14359	
81.76378	8721.582		-60.10231	
81.81777	8718.337		-60.08266	
81.87177	8715.16		-60.08471	
81.92575	8712.054		-60.10828	
81.97974	8709.02		-60.15337	
82.03373	8706.063		-60.2198	
82.08772	8703.18		-60.30759	
82.14171	8700.352		-60.41676	
82.1957	8697.546		-60.54742	
82.24969	8694.746		-60.69983	
82.30368	8691.947		-60.87418	
82.35767	8689.137		-61.0711	
82.41166	8686.301		-61.29115	
82.46565	8683.438		-61.53525	
82.51964	8680.555		-61.80436	
82.57363	8677.65		-62.09964	
82.62762	8674.73		-62.4224	
82.68161	8671.802		-62.77375	
82.7356	8668.863		-63.15528	
82.78959	8665.925		-63.56818	
82.84358	8662.999		-64.01402	
82.89757	8660.084		-64.49408	
82.95156	8657.162		-65.00993	
83.00555	8654.212		-65.56302	
83.05954	8651.212		-66.15485	
83.11353	8648.152		-66.787	
83.16752	8645.031		-67.46069	
83.22151	8641.845		-68.1775	
83.2755	8638.591		-68.93848	
83.32949	8635.272		-69.74488	
83.38348	8631.894		-70.59753	
83.43747	8628.457		-71.49713	
83.49146	8624.958		-72.44416	
83.54545	8621.381		-73.43846	
83.59944	8617.7		-74.48022	
83.65343	8613.904		-75.56873	
83.70742	8609.996		-76.70367	
83.76141	8606.003		-77.884	
83.8154	8601.957		-79.10883	
83.86939	8597.875		-80.37687	
83.92338	8593.763		-81.68639	
83.97737	8589.623		-83.03621	
84.03136	8585.469		-84.42424	
84.08535	8581.303		-85.84904	
84.13934	8577.122		-87.3084	
84.19333	8572.927		-88.80054	
84.24732	8568.712		-90.32328	
84.30131	8564.449		-91.87409	
84.3553	8560.116		-93.45119	
84.40929	8555.692		-95.05193	
84.46328	8551.149		-96.67452	
84.51727	8546.46		-98.31644	
84.57126	8541.612		-99.97598	
84.62525	8536.604		-101.6509	
84.67924	8531.438		-103.339	
84.73323	8526.12		-105.0386	
84.78722	8520.669		-106.7473	
84.84121	8515.101		-108.4635	
84.8952	8509.432		-110.1848	
84.94919	8503.661		-111.9097	
85.00318	8497.783		-113.6361	
85.05717	8491.789		-115.3618	
85.11116	8485.663		-117.0855	
85.16515	8479.386		-118.8048	
85.21914	8472.94		-120.5188	
85.27312	8466.319		-122.2252	
85.32712	8459.52		-123.9232	
85.38111	8452.555		-125.6112	
85.4351	8445.446		-127.2877	
85.48909	8438.217		-128.9518	
85.54308	8430.862		-130.602	
85.59707	8423.368		-132.2375	
85.65105	8415.72		-133.8567	
85.70505	8407.919		-135.4589	
85.75904	8399.981		-137.0428	
85.81303	8391.937		-138.6071	
85.86702	8383.808		-140.151	
85.92101	8375.621		-141.673	
85.975	8367.383		-143.1723	
86.02898	8359.104		-144.6472	
86.08298	8350.78		-146.0966	
86.13697	8342.406		-147.5192	
86.19096	8333.967		-148.9133	
86.24495	8325.425		-150.2782	
86.29893	8316.746		-151.6123	
86.35293	8307.929		-152.9148	
86.40691	8298.991		-154.1844	
86.46091	8289.953		-155.4205	
86.5149	8280.833		-156.6221	
86.56889	8271.648		-157.7886	
86.62288	8262.416		-158.9195	
86.67686	8253.161		-160.0143	
86.73086	8243.899		-161.0729	
86.78484	8234.657		-162.0948	
86.83884	8225.451		-163.08	
86.89283	8216.294		-164.0282	
86.94682	8207.183		-164.9395	
87.00081	8198.1		-165.814	
87.05479	8189.016		-166.6517	
87.10879	8179.897		-167.4529	
87.16277	8170.725		-168.2178	
87.21677	8161.479		-168.9469	
87.27076	8152.149		-169.6409	
87.32475	8142.749		-170.3006	
87.37874	8133.291		-170.9273	
87.43272	8123.807		-171.5221	
87.48672	8114.315		-172.0865	
87.5407	8104.841		-172.6218	
87.5947	8095.4		-173.1296	
87.64869	8086.002		-173.6115	
87.70267	8076.64		-174.0689	
87.75667	8067.283		-174.5036	
87.81065	8057.892		-174.917	
87.86465	8048.415		-175.3107	
87.91863	8038.814		-175.6861	
87.97263	8029.076		-176.0444	
88.02661	8019.227		-176.3866	
88.0806	8009.304		-176.7137	
88.1346	7999.366		-177.0264	
88.18858	7989.455		-177.3254	
88.24258	7979.589		-177.6112	
88.29656	7969.776		-177.8846	
88.35056	7960.023		-178.146	
88.40454	7950.328		-178.396	
88.45853	7940.677		-178.6353	
88.51253	7931.048		-178.8641	
88.56651	7921.42		-179.0832	
88.62051	7911.762		-179.2929	
88.67449	7902.055		-179.4936	
88.72849	7892.277		-179.6855	
88.78247	7882.43		-179.8687	
88.83646	7872.529		-180.0434	
88.89046	7862.613		-180.2095	
88.94444	7852.71		-180.367	
88.99844	7842.839		-180.5159	
89.05242	7833.005		-180.656	
89.10641	7823.213		-180.7872	
89.1604	7813.464		-180.9092	
89.21439	7803.763		-181.022	
89.26839	7794.116		-181.1256	
89.32237	7784.521		-181.2198	
89.37637	7774.943		-181.3047	
89.43035	7765.35		-181.3803	
89.48434	7755.696		-181.4468	
89.53833	7745.977		-181.5041	
89.59232	7736.184		-181.5525	
89.64632	7726.33		-181.5922	
89.7003	7716.438		-181.6236	
89.7543	7706.529		-181.6473	
89.80828	7696.612		-181.6638	
89.86227	7686.685		-181.674	
89.91626	7676.745		-181.6785	
89.97025	7666.795		-181.6781	
90.02425	7656.836		-181.6736	
90.07823	7646.886		-181.6655	
90.13223	7636.946		-181.6545	
90.18621	7627.012		-181.6412	
90.2402	7617.065		-181.6259	
90.29419	7607.106		-181.6093	
90.34818	7597.128		-181.5917	
90.40218	7587.14		-181.5737	
90.45616	7577.146		-181.5557	
90.51015	7567.153		-181.5385	
90.56414	7557.164		-181.5226	
90.61813	7547.188		-181.5086	
90.67212	7537.234		-181.4973	
90.72611	7527.306		-181.489	
90.78011	7517.405		-181.4843	
90.83409	7507.547		-181.4834	
90.88808	7497.733		-181.4864	
90.94207	7487.971		-181.4934	
90.99606	7478.252		-181.5044	
91.05005	7468.575		-181.5192	
91.10404	7458.917		-181.5377	
91.15804	7449.263		-181.5596	
91.21202	7439.608		-181.5846	
91.26601	7429.96		-181.6125	
91.32	7420.326		-181.6432	
91.37399	7410.69		-181.6762	
91.42798	7401.035		-181.7117	
91.48197	7391.348		-181.7494	
91.53596	7381.633		-181.7893	
91.58995	7371.899		-181.8312	
91.64394	7362.154		-181.8753	
91.69793	7352.414		-181.9214	
91.75192	7342.682		-181.9698	
91.80591	7332.96		-182.0207	
91.8599	7323.253		-182.0742	
91.91389	7313.56		-182.1308	
91.96788	7303.878		-182.1904	
92.02187	7294.203		-182.2535	
92.07586	7284.541		-182.3203	
92.12985	7274.9		-182.3912	
92.18384	7265.288		-182.4661	
92.23783	7255.69		-182.5454	
92.29182	7246.097		-182.629	
92.34581	7236.486		-182.7168	
92.3998	7226.841		-182.8086	
92.45379	7217.154		-182.9382	
92.50778	7207.428		-183.0647	
92.56177	7197.664		-183.1888	
92.61576	7187.865		-183.311	
92.66975	7178.037		-183.4322	
92.72374	7168.178		-183.5529	
92.77773	7158.288		-183.6736	
92.83172	7148.363		-183.7945	
92.88571	7138.383		-183.9159	
92.9397	7128.341		-184.0379	
92.99369	7118.225		-184.1607	
93.04768	7108.047		-184.2842	
93.10167	7097.804		-184.4086	
93.15566	7087.505		-184.5337	
93.20965	7077.154		-184.6597	
93.26364	7066.767		-184.7864	
93.31763	7056.371		-184.9138	
93.37162	7046.016		-185.0419	
93.42561	7035.739		-185.1705	
93.4796	7025.563		-185.2997	
93.53359	7015.492		-185.4295	
93.58758	7005.525		-185.5597	
93.64157	6995.642		-185.6903	
93.69556	6985.821		-185.8212	
93.74955	6976.023		-185.9525	
93.80354	6966.235		-186.084	
93.85753	6956.43		-186.2158	
93.91152	6946.581		-186.3477	
93.96551	6936.657		-186.4798	
94.0195	6926.634		-186.612	
94.07349	6916.32		-186.7442	
94.12748	6905.976		-186.8765	
94.18147	6895.67		-187.0087	
94.23546	6885.405		-187.1408	
94.28945	6875.174		-187.2727	
94.34344	6864.967		-187.4045	
94.39743	6854.77		-187.5361	
94.45142	6844.577		-187.6675	
94.50541	6834.379		-187.7986	
94.55939	6824.172		-187.9294	
94.61339	6813.95		-188.0598	
94.66738	6803.709		-188.1899	
94.72137	6793.451		-188.3196	
94.77536	6783.168		-188.4489	
94.82935	6772.864		-188.5778	
94.88334	6762.535		-188.7063	
94.93732	6752.188		-188.8344	
94.99132	6741.821		-188.962	
