T[Â°C]	350nm [counts / mm]	S.D.	First derivative	S.D. of first derivative
19.99929	6934.014		-99.96554	
20.05328	6928.216		-99.94351	
20.10727	6922.425		-99.9215	
20.16126	6916.642		-99.8995	
20.21525	6910.866		-99.87749	
20.26924	6905.099		-99.85546	
20.32323	6899.343		-99.8334	
20.37722	6893.598		-99.8113	
20.43121	6887.867		-99.78915	
20.4852	6882.148		-99.76692	
20.53919	6876.443		-99.74461	
20.59318	6870.752		-99.72218	
20.64717	6865.072		-99.69962	
20.70116	6859.399		-99.6769	
20.75515	6853.732		-99.65399	
20.80914	6848.064		-99.63087	
20.86312	6842.39		-99.60753	
20.91712	6836.705		-99.5839	
20.97111	6831.015		-99.55997	
21.02509	6825.57		-99.53571	
21.07909	6820.176		-99.51106	
21.13308	6814.844		-99.48599	
21.18707	6809.59		-99.46047	
21.24105	6804.419		-99.43445	
21.29505	6799.319		-99.40789	
21.34904	6794.267		-99.38076	
21.40302	6789.241		-99.35302	
21.45702	6784.219		-99.32464	
21.51101	6779.183		-99.29558	
21.56499	6774.119		-99.26582	
21.61898	6769.021		-99.23537	
21.67298	6763.889		-99.20419	
21.72696	6758.727		-99.1723	
21.78095	6753.525		-99.13975	
21.83494	6748.266		-99.10654	
21.88894	6742.94		-99.07276	
21.94292	6737.549		-99.03846	
21.99691	6732.109		-99.00372	
22.05091	6726.629		-98.96867	
22.10489	6721.115		-98.93341	
22.15888	6715.572		-98.89811	
22.21287	6710		-98.86296	
22.26686	6704.395		-98.82817	
22.32085	6698.762		-98.79401	
22.37484	6693.104		-98.76077	
22.42883	6687.438		-98.72883	
22.48282	6681.785		-98.69857	
22.53681	6676.167		-98.67043	
22.5908	6670.601		-98.64484	
22.64479	6665.091		-98.60154	
22.69878	6659.638		-98.55627	
22.75277	6654.242		-98.50864	
22.80676	6648.903		-98.45827	
22.86075	6643.609		-98.40484	
22.91474	6638.345		-98.34805	
22.96873	6633.09		-98.28767	
23.02272	6627.83		-98.22346	
23.07671	6622.556		-98.15527	
23.1307	6617.271		-98.08301	
23.18469	6611.989		-98.00661	
23.23868	6606.718		-97.92608	
23.29267	6601.464		-97.84149	
23.34666	6596.228		-97.75291	
23.40065	6591.01		-97.66047	
23.45464	6585.813		-97.56429	
23.50863	6580.639		-97.46452	
23.56262	6575.484		-97.36134	
23.61661	6570.342		-97.25496	
23.6706	6565.206		-97.14576	
23.72459	6560.071		-97.03421	
23.77858	6554.922		-96.92092	
23.83257	6549.746		-96.80663	
23.88656	6544.535		-96.69217	
23.94055	6539.286		-96.57849	
23.99454	6533.996		-96.46667	
24.04853	6528.672		-96.35778	
24.10252	6523.332		-96.25294	
24.15651	6518		-96.15315	
24.2105	6512.688		-96.05938	
24.26449	6507.398		-95.97238	
24.31848	6502.132		-95.89275	
24.37247	6496.89		-95.82082	
24.42646	6491.666		-95.75681	
24.48045	6486.447		-95.70066	
24.53444	6481.222		-95.65213	
24.58843	6475.984		-95.61076	
24.64242	6470.738		-95.57596	
24.69641	6465.495		-95.54701	
24.7504	6460.272		-95.52317	
24.80439	6455.089		-95.50369	
24.85838	6449.96		-95.48791	
24.91237	6444.892		-95.47519	
24.96636	6439.88		-95.46497	
25.02035	6434.923		-95.45679	
25.07434	6430.024		-95.45028	
25.12833	6425.189		-95.44512	
25.18232	6420.417		-95.44109	
25.23631	6415.694		-95.43804	
25.2903	6410.994		-95.43591	
25.34429	6406.293		-95.43463	
25.39828	6401.564		-95.43419	
25.45227	6396.784		-95.43454	
25.50626	6391.944		-95.43567	
25.56025	6387.042		-95.43752	
25.61424	6382.07		-95.44001	
25.66823	6377.033		-95.44304	
25.72222	6371.939		-95.44649	
25.77621	6366.791		-95.45023	
25.8302	6361.586		-95.45417	
25.88419	6356.332		-95.45822	
25.93818	6351.034		-95.46239	
25.99217	6345.7		-95.46673	
26.04616	6340.333		-95.47133	
26.10015	6334.951		-95.47627	
26.15414	6329.573		-95.48165	
26.20813	6324.204		-95.48754	
26.26212	6318.833		-95.49397	
26.31611	6313.448		-95.50091	
26.3701	6308.042		-95.5082	
26.42409	6302.614		-95.51563	
26.47808	6297.168		-95.52287	
26.53207	6291.71		-95.52948	
26.58606	6286.253		-95.53493	
26.64005	6280.816		-95.53857	
26.69404	6275.418		-95.53967	
26.74803	6270.084		-95.53747	
26.80202	6264.832		-95.53116	
26.85601	6259.668		-95.52	
26.91	6254.586		-95.50331	
26.96399	6249.565		-95.48054	
27.01798	6244.588		-95.45123	
27.07197	6239.63		-95.41509	
27.12596	6234.677		-95.37201	
27.17995	6229.707		-95.32201	
27.23394	6224.703		-95.26532	
27.28793	6219.651		-95.20228	
27.34192	6214.535		-95.13336	
27.39591	6209.344		-95.05913	
27.4499	6204.08		-94.98021	
27.50389	6198.763		-94.89733	
27.55788	6193.42		-94.81126	
27.61187	6188.072		-94.7228	
27.66586	6182.754		-94.63272	
27.71985	6177.494		-94.54175	
27.77384	6172.296		-94.4505	
27.82783	6167.157		-94.35948	
27.88182	6162.067		-94.26914	
27.93581	6157.004		-94.17984	
27.9898	6151.938		-94.0919	
28.04379	6146.834		-94.00555	
28.09778	6141.681		-93.92101	
28.15177	6136.487		-93.83846	
28.20576	6131.279		-93.75806	
28.25975	6126.077		-93.68003	
28.31374	6120.908		-93.60453	
28.36773	6115.792		-93.53177	
28.42172	6110.739		-93.46198	
28.47571	6105.741		-93.39543	
28.5297	6100.791		-93.33241	
28.58369	6095.892		-93.27315	
28.63768	6091.049		-93.21786	
28.69167	6086.261		-93.16669	
28.74566	6081.518		-93.11968	
28.79965	6076.801		-93.07675	
28.85364	6072.092		-93.03774	
28.90763	6067.376		-93.00243	
28.96162	6062.64		-92.97057	
29.01561	6057.874		-92.94187	
29.0696	6053.074		-92.91606	
29.12359	6048.248		-92.89291	
29.17758	6043.411		-92.87229	
29.23157	6038.575		-92.8541	
29.28556	6033.744		-92.83836	
29.33955	6028.913		-92.82511	
29.39354	6024.069		-92.81451	
29.44753	6019.196		-92.80674	
29.50152	6014.28		-92.802	
29.55551	6009.307		-92.80052	
29.6095	6004.266		-92.80247	
29.66349	5999.158		-92.80799	
29.71748	5993.992		-92.81712	
29.77147	5988.776		-92.82979	
29.82546	5983.53		-92.84583	
29.87945	5978.277		-92.86496	
29.93344	5973.042		-92.88673	
29.98743	5967.845		-92.9106	
30.04142	5962.689		-92.93594	
30.09541	5957.566		-92.96202	
30.1494	5952.466		-92.98808	
30.20339	5947.378		-93.01334	
30.25738	5942.3		-93.03704	
30.31137	5937.234		-93.05847	
30.36536	5932.19		-93.07697	
30.41935	5927.171		-93.092	
30.47334	5922.169		-93.1031	
30.52732	5917.179		-93.10997	
30.58132	5912.195		-93.11239	
30.63531	5907.216		-93.1103	
30.68929	5902.237		-93.10374	
30.74329	5897.253		-93.09288	
30.79728	5892.262		-93.07788	
30.85126	5887.272		-93.05894	
30.90525	5882.289		-93.03626	
30.95925	5877.309		-93.01006	
31.01324	5872.317		-92.98058	
31.06722	5867.297		-92.94805	
31.12122	5862.244		-92.91283	
31.17521	5857.159		-92.87528	
31.22919	5852.049		-92.8358	
31.28318	5846.913		-92.79478	
31.33718	5841.754		-92.75268	
31.39116	5836.574		-92.70997	
31.44515	5831.372		-92.66716	
31.49914	5826.15		-92.62478	
31.55313	5820.915		-92.58331	
31.60712	5815.674		-92.54318	
31.66111	5810.439		-92.50475	
31.71511	5805.216		-92.46826	
31.76909	5800.009		-92.43385	
31.82308	5794.83		-92.40154	
31.87707	5789.685		-92.37116	
31.93106	5784.573		-92.34249	
31.98505	5779.494		-92.31516	
32.03904	5774.458		-92.28872	
32.09303	5769.476		-92.2627	
32.14702	5764.565		-92.23661	
32.20102	5759.739		-92.20996	
32.255	5754.995		-92.18235	
32.30899	5750.314		-92.15338	
32.36298	5745.67		-92.12273	
32.41697	5741.038		-92.09016	
32.47096	5736.405		-92.05547	
32.52495	5731.771		-92.01857	
32.57895	5727.133		-91.97947	
32.63293	5722.497		-91.93827	
32.68692	5717.866		-91.89522	
32.74091	5713.225		-91.85064	
32.7949	5708.555		-91.80492	
32.84889	5703.839		-91.75847	
32.90288	5699.07		-91.71169	
32.95687	5694.244		-91.66497	
33.01086	5689.361		-91.61871	
33.06485	5684.421		-91.57327	
33.11884	5679.433		-91.52901	
33.17283	5674.403		-91.48621	
33.22682	5669.331		-91.44515	
33.28081	5664.224		-91.40605	
33.3348	5659.091		-91.36912	
33.38879	5653.948		-91.3345	
33.44278	5648.806		-91.30234	
33.49677	5643.671		-91.27274	
33.55076	5638.544		-91.24574	
33.60475	5633.423		-91.22138	
33.65874	5628.297		-91.19962	
33.71273	5623.164		-91.18037	
33.76672	5618.029		-91.16344	
33.82071	5612.91		-91.14852	
33.8747	5607.819		-91.13519	
33.92869	5602.753		-91.12298	
33.98268	5597.703		-91.11131	
34.03667	5592.663		-91.09956	
34.09066	5587.626		-91.08713	
34.14465	5582.602		-91.07336	
34.19864	5577.609		-91.05765	
34.25263	5572.671		-91.03939	
34.30662	5567.803		-91.01804	
34.36061	5563.007		-90.99308	
34.4146	5558.278		-90.96413	
34.46859	5553.6		-90.93086	
34.52258	5548.943		-90.89308	
34.57657	5544.283		-90.85079	
34.63056	5539.602		-90.80413	
34.68455	5534.884		-90.75343	
34.73854	5530.114		-90.69917	
34.79253	5525.289		-90.64188	
34.84652	5520.41		-90.58215	
34.90051	5515.483		-90.52061	
34.9545	5510.52		-90.45786	
35.00849	5505.529		-90.39455	
35.06248	5500.526		-90.33128	
35.11647	5495.523		-90.26862	
35.17046	5490.524		-90.20705	
35.22445	5485.532		-90.147	
35.27844	5480.542		-90.08873	
35.33243	5475.556		-90.03246	
35.38642	5470.579		-89.97829	
35.44041	5465.627		-89.92627	
35.4944	5460.704		-89.87638	
35.54839	5455.805		-89.82858	
35.60238	5450.916		-89.78279	
35.65637	5446.028		-89.73889	
35.71036	5441.146		-89.69676	
35.76435	5436.279		-89.65623	
35.81834	5431.431		-89.61708	
35.87233	5426.603		-89.5791	
35.92632	5421.802		-89.54204	
35.98031	5417.044		-89.50562	
36.0343	5412.337		-89.46953	
36.08829	5407.683		-89.43341	
36.14228	5403.075		-89.39688	
36.19627	5398.504		-89.35954	
36.25026	5393.956		-89.32096	
36.30425	5389.418		-89.28071	
36.35824	5384.876		-89.23837	
36.41223	5380.315		-89.19351	
36.46622	5375.716		-89.14576	
36.52021	5371.067		-89.0948	
36.5742	5366.364		-89.04043	
36.62819	5361.605		-88.98263	
36.68218	5356.791		-88.92151	
36.73617	5351.926		-88.85735	
36.79016	5347.017		-88.79055	
36.84415	5342.076		-88.7216	
36.89814	5337.117		-88.65103	
36.95213	5332.153		-88.57941	
37.00612	5327.191		-88.50733	
37.06011	5322.245		-88.43533	
37.1141	5317.319		-88.36391	
37.16809	5312.408		-88.29348	
37.22208	5307.498		-88.22437	
37.27607	5302.58		-88.15677	
37.33006	5297.639		-88.09074	
37.38405	5292.672		-88.02626	
37.43804	5287.695		-87.9632	
37.49203	5282.728		-87.90141	
37.54602	5277.78		-87.84062	
37.60001	5272.861		-87.78059	
37.654	5267.98		-87.72106	
37.70799	5263.152		-87.66174	
37.76198	5258.383		-87.60237	
37.81597	5253.666		-87.54273	
37.86996	5248.99		-87.4826	
37.92395	5244.355		-87.42177	
37.97794	5239.751		-87.36007	
38.03193	5235.164		-87.29732	
38.08592	5230.57		-87.23331	
38.13991	5225.955		-87.16783	
38.1939	5221.309		-87.10068	
38.24789	5216.629		-87.03167	
38.30188	5211.92		-86.96059	
38.35587	5207.202		-86.88726	
38.40986	5202.499		-86.81146	
38.46385	5197.831		-86.73305	
38.51784	5193.213		-86.65189	
38.57183	5188.646		-86.5679	
38.62582	5184.126		-86.48105	
38.67981	5179.644		-86.39139	
38.7338	5175.178		-86.29906	
38.78779	5170.702		-86.20434	
38.84178	5166.197		-86.10757	
38.89577	5161.654		-86.00922	
38.94976	5157.07		-85.90978	
39.00375	5152.449		-85.80981	
39.05774	5147.802		-85.70985	
39.11172	5143.136		-85.6104	
39.16572	5138.456		-85.51198	
39.21971	5133.777		-85.41504	
39.2737	5129.103		-85.32001	
39.32769	5124.436		-85.22726	
39.38168	5119.777		-85.13716	
39.43567	5115.136		-85.04998	
39.48965	5110.52		-84.96596	
39.54365	5105.934		-84.88525	
39.59764	5101.374		-84.808	
39.65163	5096.835		-84.73428	
39.70562	5092.305		-84.66412	
39.75961	5087.777		-84.59755	
39.81359	5083.241		-84.5346	
39.86758	5078.686		-84.47527	
39.92158	5074.108		-84.41959	
39.97557	5069.504		-84.36761	
40.02956	5064.875		-84.3194	
40.08355	5060.231		-84.27505	
40.13754	5055.587		-84.2346	
40.19152	5050.952		-84.19814	
40.24551	5046.325		-84.16565	
40.29951	5041.709		-84.13712	
40.3535	5037.112		-84.11246	
40.40749	5032.539		-84.09149	
40.46148	5027.994		-84.07401	
40.51546	5023.475		-84.05974	
40.56945	5018.98		-84.04829	
40.62344	5014.506		-84.0392	
40.67743	5010.048		-84.03199	
40.73143	5005.598		-84.02614	
40.78542	5001.149		-84.02113	
40.83941	4996.698		-84.01643	
40.89339	4992.24		-84.01162	
40.94738	4987.771		-84.00625	
41.00137	4983.294		-83.99992	
41.05536	4978.813		-83.99223	
41.10936	4974.343		-83.98281	
41.16335	4969.894		-83.97131	
41.21733	4965.473		-83.95739	
41.27132	4961.08		-83.9408	
41.32531	4956.711		-83.92127	
41.3793	4952.356		-83.89865	
41.43329	4947.993		-83.87281	
41.48729	4943.604		-83.84364	
41.54128	4939.178		-83.81105	
41.59526	4934.714		-83.77499	
41.64925	4930.222		-83.73537	
41.70324	4925.71		-83.69215	
41.75723	4921.189		-83.6453	
41.81122	4916.662		-83.59488	
41.86522	4912.132		-83.54099	
41.9192	4907.605		-83.48386	
41.97319	4903.083		-83.4238	
42.02718	4898.562		-83.36127	
42.08117	4894.041		-83.29679	
42.13516	4889.512		-83.23095	
42.18915	4884.963		-83.16435	
42.24314	4880.383		-83.0976	
42.29713	4875.762		-83.03125	
42.35112	4871.092		-82.96581	
42.40511	4866.38		-82.9017	
42.4591	4861.643		-82.83923	
42.51309	4856.899		-82.77869	
42.56708	4852.161		-82.72017	
42.62107	4847.425		-82.6637	
42.67506	4842.693		-82.60922	
42.72905	4837.97		-82.55655	
42.78304	4833.265		-82.50547	
42.83703	4828.592		-82.45573	
42.89102	4823.956		-82.40706	
42.94501	4819.358		-82.35917	
42.999	4814.792		-82.31173	
43.05299	4810.256		-82.26438	
43.10698	4805.752		-82.21678	
43.16097	4801.282		-82.16857	
43.21496	4796.843		-82.11945	
43.26895	4792.435		-82.06914	
43.32294	4788.065		-82.01745	
43.37693	4783.734		-81.96423	
43.43092	4779.439		-81.90942	
43.48491	4775.178		-81.85299	
43.5389	4770.949		-81.79496	
43.59289	4766.753		-81.73535	
43.64688	4762.593		-81.67417	
43.70087	4758.466		-81.61143	
43.75486	4754.369		-81.54716	
43.80885	4750.287		-81.48135	
43.86284	4746.205		-81.41408	
43.91683	4742.104		-81.34547	
43.97082	4737.974		-81.2757	
44.02481	4733.809		-81.20502	
44.0788	4729.612		-81.13376	
44.13279	4725.384		-81.06231	
44.18678	4721.131		-80.99111	
44.24077	4716.859		-80.92065	
44.29476	4712.564		-80.8514	
44.34875	4708.244		-80.78381	
44.40274	4703.897		-80.71825	
44.45673	4699.522		-80.65506	
44.51072	4695.116		-80.59444	
44.56471	4690.673		-80.53654	
44.6187	4686.201		-80.48134	
44.67269	4681.705		-80.42871	
44.72668	4677.195		-80.37846	
44.78067	4672.679		-80.33027	
44.83466	4668.167		-80.28382	
44.88865	4663.67		-80.23871	
44.94264	4659.197		-80.19452	
44.99663	4654.746		-80.1508	
45.05062	4650.308		-80.10707	
45.10461	4645.879		-80.06281	
45.1586	4641.467		-80.01755	
45.21259	4637.078		-79.97088	
45.26658	4632.716		-79.92246	
45.32057	4628.376		-79.87206	
45.37456	4624.051		-79.81951	
45.42855	4619.734		-79.76472	
45.48254	4615.419		-79.70766	
45.53653	4611.107		-79.64845	
45.59052	4606.804		-79.5872	
45.64451	4602.506		-79.52413	
45.6985	4598.214		-79.4595	
45.75249	4593.924		-79.39354	
45.80648	4589.637		-79.32658	
45.86047	4585.355		-79.25892	
45.91446	4581.075		-79.19089	
45.96845	4576.785		-79.12281	
46.02244	4572.478		-79.05502	
46.07643	4568.141		-78.98789	
46.13042	4563.77		-78.92184	
46.18441	4559.374		-78.85731	
46.2384	4554.963		-78.79482	
46.29239	4550.552		-78.73487	
46.34638	4546.156		-78.67797	
46.40037	4541.788		-78.62456	
46.45436	4537.45		-78.575	
46.50835	4533.142		-78.5296	
46.56234	4528.863		-78.48853	
46.61633	4524.61		-78.45189	
46.67032	4520.377		-78.41963	
46.72431	4516.159		-78.39164	
46.7783	4511.951		-78.36768	
46.83229	4507.75		-78.34744	
46.88628	4503.559		-78.3305	
46.94027	4499.392		-78.31637	
46.99426	4495.267		-78.30453	
47.04825	4491.197		-78.29445	
47.10224	4487.19		-78.28555	
47.15623	4483.256		-78.27734	
47.21022	4479.394		-78.26937	
47.26421	4475.586		-78.26128	
47.3182	4471.809		-78.2528	
47.37219	4468.029		-78.24376	
47.42618	4464.217		-78.23407	
47.48017	4460.353		-78.2237	
47.53416	4456.421		-78.21269	
47.58815	4452.42		-78.2011	
47.64214	4448.358		-78.18905	
47.69613	4444.242		-78.17671	
47.75012	4440.075		-78.16426	
47.80411	4435.861		-78.1519	
47.8581	4431.614		-78.13981	
47.91209	4427.351		-78.12817	
47.96608	4423.083		-78.11716	
48.02007	4418.813		-78.1069	
48.07406	4414.532		-78.09753	
48.12805	4410.231		-78.08913	
48.18204	4405.905		-78.08174	
48.23603	4401.549		-78.07536	
48.29002	4397.162		-78.06992	
48.34401	4392.739		-78.06528	
48.39799	4388.27		-78.06123	
48.45199	4383.755		-78.05744	
48.50598	4379.208		-78.05349	
48.55997	4374.644		-78.04891	
48.61396	4370.079		-78.04316	
48.66795	4365.528		-78.03569	
48.72194	4361.006		-78.02591	
48.77592	4356.522		-78.01319	
48.82992	4352.077		-77.99686	
48.88391	4347.669		-77.97616	
48.9379	4343.3		-77.9503	
48.99189	4338.971		-77.91844	
49.04588	4334.682		-77.87978	
49.09986	4330.431		-77.83357	
49.15385	4326.217		-77.7792	
49.20785	4322.039		-77.71617	
49.26184	4317.898		-77.64418	
49.31583	4313.79		-77.56303	
49.36982	4309.709		-77.47273	
49.42381	4305.653		-77.37344	
49.47779	4301.615		-77.2655	
49.53178	4297.584		-77.14939	
49.58578	4293.547		-77.02575	
49.63977	4289.498		-76.89532	
49.69376	4285.431		-76.75898	
49.74775	4281.346		-76.61764	
49.80173	4277.24		-76.47229	
49.85572	4273.109		-76.32394	
49.90971	4268.952		-76.17365	
49.96371	4264.773		-76.02249	
50.0177	4260.573		-75.8716	
50.07169	4256.354		-75.72203	
50.12568	4252.128		-75.57487	
50.17966	4247.906		-75.43113	
50.23365	4243.698		-75.29182	
50.28764	4239.508		-75.15786	
50.34163	4235.33		-75.03006	
50.39563	4231.16		-74.90914	
50.44962	4227		-74.79572	
50.5036	4222.848		-74.69024	
50.55759	4218.712		-74.59305	
50.61158	4214.605		-74.50433	
50.66557	4210.54		-74.4242	
50.71956	4206.525		-74.35263	
50.77356	4202.557		-74.28948	
50.82755	4198.625		-74.23448	
50.88153	4194.73		-74.18723	
50.93552	4190.875		-74.14721	
50.98951	4187.066		-74.11384	
51.0435	4183.313		-74.08652	
51.09749	4179.614		-74.06463	
51.15149	4175.964		-74.04755	
51.20547	4172.353		-74.03468	
51.25946	4168.762		-74.02544	
51.31345	4165.169		-74.01926	
51.36744	4161.558		-74.01564	
51.42143	4157.916		-74.01413	
51.47542	4154.241		-74.01437	
51.52942	4150.537		-74.01606	
51.5834	4146.803		-74.01899	
51.63739	4143.033		-74.02298	
51.69138	4139.218		-74.02785	
51.74537	4135.353		-74.03346	
51.79936	4131.433		-74.03968	
51.85335	4127.465		-74.04639	
51.90734	4123.46		-74.05349	
51.96133	4119.427		-74.0609	
52.01532	4115.372		-74.06858	
52.06931	4111.305		-74.07646	
52.1233	4107.228		-74.08447	
52.17729	4103.144		-74.09251	
52.23128	4099.057		-74.10053	
52.28527	4094.968		-74.10844	
52.33926	4090.873		-74.11608	
52.39325	4086.771		-74.12331	
52.44724	4082.652		-74.12988	
52.50123	4078.501		-74.13551	
52.55522	4074.31		-74.1399	
52.60921	4070.082		-74.14267	
52.6632	4065.829		-74.14344	
52.71719	4061.563		-74.14179	
52.77118	4057.287		-74.13728	
52.82517	4053.004		-74.12938	
52.87916	4048.72		-74.11757	
52.93315	4044.444		-74.10129	
52.98714	4040.194		-74.08007	
53.04113	4035.979		-74.0535	
53.09512	4031.805		-74.02126	
53.14911	4027.682		-73.98306	
53.2031	4023.608		-73.9387	
53.25709	4019.573		-73.88805	
53.31108	4015.567		-73.83103	
53.36507	4011.577		-73.76766	
53.41906	4007.591		-73.69805	
53.47305	4003.598		-73.62242	
53.52704	3999.593		-73.54106	
53.58103	3995.566		-73.45432	
53.63502	3991.52		-73.36253	
53.68901	3987.458		-73.26611	
53.743	3983.387		-73.16546	
53.79699	3979.312		-73.06096	
53.85098	3975.245		-72.95306	
53.90497	3971.196		-72.84221	
53.95896	3967.176		-72.7289	
54.01295	3963.198		-72.6136	
54.06694	3959.266		-72.49684	
54.12093	3955.376		-72.37907	
54.17492	3951.532		-72.26076	
54.22891	3947.732		-72.14238	
54.2829	3943.969		-72.02441	
54.33689	3940.23		-71.90731	
54.39088	3936.5		-71.79149	
54.44487	3932.761		-71.67734	
54.49886	3928.997		-71.5652	
54.55285	3925.205		-71.4554	
54.60684	3921.393		-71.34821	
54.66083	3917.576		-71.24391	
54.71482	3913.772		-71.14272	
54.76881	3909.991		-71.04487	
54.8228	3906.237		-70.95051	
54.87679	3902.512		-70.85978	
54.93078	3898.825		-70.77277	
54.98477	3895.187		-70.68954	
55.03876	3891.603		-70.61015	
55.09275	3888.069		-70.53461	
55.14674	3884.571		-70.46297	
55.20073	3881.084		-70.39522	
55.25472	3877.578		-70.33139	
55.30871	3874.025		-70.27148	
55.3627	3870.411		-70.21552	
55.41669	3866.739		-70.16357	
55.47068	3863.022		-70.11574	
55.52467	3859.264		-70.07207	
55.57866	3855.465		-70.03265	
55.63265	3851.626		-69.99743	
55.68664	3847.757		-69.96635	
55.74063	3843.873		-69.93929	
55.79462	3839.987		-69.91602	
55.84861	3836.109		-69.89633	
55.9026	3832.244		-69.87989	
55.95659	3828.393		-69.8663	
56.01058	3824.552		-69.85512	
56.06457	3820.71		-69.84577	
56.11856	3816.862		-69.83769	
56.17255	3813.01		-69.83025	
56.22654	3809.151		-69.82281	
56.28053	3805.288		-69.8148	
56.33452	3801.426		-69.8056	
56.38851	3797.573		-69.79463	
56.4425	3793.73		-69.7814	
56.49649	3789.901		-69.76545	
56.55048	3786.085		-69.74641	
56.60447	3782.287		-69.72402	
56.65846	3778.514		-69.69805	
56.71245	3774.762		-69.66833	
56.76644	3771.022		-69.63477	
56.82043	3767.278		-69.59725	
56.87442	3763.526		-69.55568	
56.92841	3759.77		-69.50996	
56.9824	3756.019		-69.46004	
57.03639	3752.281		-69.4058	
57.09038	3748.554		-69.34718	
57.14437	3744.834		-69.28413	
57.19836	3741.118		-69.21657	
57.25235	3737.396		-69.14446	
57.30634	3733.656		-69.06779	
57.36033	3729.89		-68.98657	
57.41432	3726.097		-68.90089	
57.46831	3722.276		-68.81089	
57.5223	3718.429		-68.7168	
57.57629	3714.56		-68.61888	
57.63028	3710.673		-68.51737	
57.68427	3706.778		-68.41257	
57.73826	3702.885		-68.30479	
57.79225	3699.007		-68.19438	
57.84624	3695.149		-68.08167	
57.90023	3691.313		-67.96701	
57.95422	3687.5		-67.85069	
58.00821	3683.715		-67.73294	
58.06219	3679.966		-67.61392	
58.11619	3676.267		-67.49374	
58.17018	3672.627		-67.37245	
58.22417	3669.045		-67.25011	
58.27816	3665.513		-67.12671	
58.33215	3662.016		-67.00227	
58.38614	3658.534		-66.87673	
58.44012	3655.055		-66.75008	
58.49412	3651.567		-66.62231	
58.54811	3648.071		-66.49346	
58.6021	3644.577		-66.36362	
58.65609	3641.092		-66.23289	
58.71008	3637.613		-66.10144	
58.76406	3634.137		-65.96944	
58.81805	3630.657		-65.83707	
58.87205	3627.174		-65.70447	
58.92604	3623.694		-65.57183	
58.98003	3620.224		-65.43931	
59.03402	3616.764		-65.30701	
59.08801	3613.306		-65.17503	
59.14199	3609.84		-65.04341	
59.19598	3606.362		-64.91212	
59.24998	3602.87		-64.78107	
59.30397	3599.365		-64.65008	
59.35796	3595.848		-64.51894	
59.41195	3592.322		-64.38744	
59.46593	3588.781		-64.25536	
59.51992	3585.219		-64.12255	
59.57391	3581.637		-63.98877	
59.62791	3578.046		-63.8538	
59.6819	3574.463		-63.71742	
59.73589	3570.909		-63.57938	
59.78988	3567.408		-63.43945	
59.84386	3563.971		-63.29742	
59.89785	3560.602		-63.15308	
59.95184	3557.289		-63.00622	
60.00583	3554.017		-62.85659	
60.05983	3550.768		-62.70394	
60.11382	3547.527		-62.54804	
60.1678	3544.285		-62.3886	
60.22179	3541.036		-62.22532	
60.27578	3537.769		-62.05789	
60.32977	3534.476		-61.88599	
60.38376	3531.15		-61.70924	
60.43776	3527.792		-61.52724	
60.49174	3524.413		-61.33964	
60.54573	3521.025		-61.14606	
60.59972	3517.641		-60.94617	
60.65371	3514.26		-60.73969	
60.7077	3510.877		-60.52634	
60.76169	3507.486		-60.30595	
60.81569	3504.084		-60.07832	
60.86967	3500.675		-59.8434	
60.92366	3497.262		-59.60108	
60.97765	3493.852		-59.35135	
61.03164	3490.452		-59.09419	
61.08563	3487.063		-58.82963	
61.13962	3483.683		-58.55768	
61.19361	3480.313		-58.27833	
61.2476	3476.955		-57.99163	
61.30159	3473.612		-57.69753	
61.35558	3470.296		-57.39606	
61.40957	3467.018		-57.08727	
61.46356	3463.783		-56.77122	
61.51755	3460.595		-56.44797	
61.57154	3457.458		-56.11754	
61.62553	3454.372		-55.77999	
61.67952	3451.332		-55.43525	
61.73351	3448.333		-55.08326	
61.7875	3445.368		-54.72392	
61.84149	3442.434		-54.3571	
61.89548	3439.529		-53.98265	
61.94947	3436.649		-53.60038	
62.00346	3433.783		-53.2101	
62.05745	3430.92		-52.81155	
62.11144	3428.06		-52.40449	
62.16543	3425.211		-51.98866	
62.21942	3422.379		-51.5638	
62.27341	3419.566		-51.12965	
62.3274	3416.768		-50.68589	
62.38139	3413.979		-50.23223	
62.43538	3411.193		-49.76829	
62.48937	3408.41		-49.29363	
62.54336	3405.642		-48.80782	
62.59735	3402.895		-48.31041	
62.65134	3400.176		-47.80089	
62.70533	3397.491		-47.27878	
62.75932	3394.851		-46.7435	
62.81331	3392.257		-46.19454	
62.8673	3389.71		-45.63124	
62.92129	3387.208		-45.05294	
62.97528	3384.749		-44.45897	
63.02927	3382.335		-43.84863	
63.08326	3379.966		-43.22121	
63.13725	3377.642		-42.57592	
63.19124	3375.362		-41.91206	
63.24523	3373.118		-41.22881	
63.29922	3370.903		-40.52539	
63.35321	3368.708		-39.80109	
63.4072	3366.527		-39.05517	
63.46119	3364.356		-38.28691	
63.51518	3362.196		-37.49556	
63.56917	3360.053		-36.68047	
63.62316	3357.933		-35.84084	
63.67715	3355.837		-34.97592	
63.73114	3353.764		-34.08495	
63.78513	3351.716		-33.16718	
63.83912	3349.696		-32.22179	
63.89311	3347.706		-31.24793	
63.9471	3345.743		-30.24478	
64.00109	3343.801		-29.21134	
64.05508	3341.873		-28.14666	
64.10907	3339.953		-27.04951	
64.16306	3338.037		-25.91892	
64.21705	3336.131		-24.75395	
64.27104	3334.249		-23.55319	
64.32503	3332.407		-22.31573	
64.37902	3330.622		-21.0401	
64.43301	3328.905		-19.72533	
64.487	3327.276		-18.36979	
64.54099	3325.75		-16.97222	
64.59498	3324.333		-15.53134	
64.64897	3323.029		-14.0453	
64.70296	3321.838		-12.51282	
64.75695	3320.755		-10.93189	
64.81094	3319.774		-9.301039	
64.86493	3318.891		-7.618032	
64.91892	3318.103		-5.881042	
64.97291	3317.407		-4.088287	
65.0269	3316.801		-2.237261	
65.08089	3316.283		-0.3262623	
65.13488	3315.856		1.64729	
65.18887	3315.524		3.68512	
65.24286	3315.292		5.789829	
65.29685	3315.168		7.963354	
65.35084	3315.156		10.20733	
65.40483	3315.258		12.52438	
65.45882	3315.474		14.91591	
65.51281	3315.803		17.38433	
65.5668	3316.246		19.9309	
65.62079	3316.798		22.55793	
65.67478	3317.458		25.26687	
65.72877	3318.234		28.05878	
65.78276	3319.136		30.93599	
65.83675	3320.165		33.89928	
65.89074	3321.319		36.95078	
65.94473	3322.599		40.09123	
65.99872	3324.013		43.32277	
66.05271	3325.575		46.64652	
66.1067	3327.294		50.06318	
66.16069	3329.183		53.57541	
66.21468	3331.245		57.18349	
66.26867	3333.48		60.88985	
66.32265	3335.877		64.69514	
66.37665	3338.433		68.60183	
66.43064	3341.154		72.61126	
66.48463	3344.05		76.72434	
66.53862	3347.134		80.9444	
66.59261	3350.42		85.27201	
66.6466	3353.92		89.71032	
66.70058	3357.639		94.26019	
66.75458	3361.582		98.92494	
66.80857	3365.755		103.7065	
66.86256	3370.161		108.606	
66.91655	3374.81		113.6278	
66.97054	3379.71		118.7725	
67.02453	3384.874		124.0444	
67.07851	3390.316		129.4446	
67.13251	3396.053		134.9771	
67.1865	3402.091		140.6444	
67.24049	3408.441		146.4478	
67.29448	3415.117		152.3921	
67.34846	3422.134		158.478	
67.40246	3429.504		164.7099	
67.45644	3437.236		171.0887	
67.51044	3445.341		177.6186	
67.56443	3453.818		184.3015	
67.61842	3462.667		191.1381	
67.67241	3471.897		198.133	
67.72639	3481.511		205.2856	
67.78039	3491.511		212.5995	
67.83437	3501.889		220.0739	
67.88837	3512.641		227.7113	
67.94236	3523.764		235.5114	
67.99635	3535.264		243.4719	
68.05034	3547.15		251.595	
68.10432	3559.428		259.8761	
68.15832	3572.115		268.3156	
68.2123	3585.216		276.9084	
68.2663	3598.741		285.653	
68.32029	3612.697		294.5449	
68.37428	3627.094		303.5773	
68.42827	3641.952		312.7484	
68.48225	3657.279		322.0494	
68.53625	3673.089		331.477	
68.59023	3689.394		341.0219	
68.64423	3706.208		350.6795	
68.69821	3723.542		360.4401	
68.7522	3741.41		370.2981	
68.8062	3759.825		380.2444	
68.86018	3778.798		390.2686	
68.91418	3798.355		400.3647	
68.96816	3818.503		410.5206	
69.02216	3839.268		420.7294	
69.07614	3860.661		430.9783	
69.13013	3882.702		441.2594	
69.18413	3905.398		451.5606	
69.23811	3928.75		461.8689	
69.29211	3952.778		472.1756	
69.34609	3977.488		482.4655	
69.40009	4002.895		492.7292	
69.45407	4029.009		502.9507	
69.50806	4055.851		513.1198	
69.56206	4083.435		523.2212	
69.61604	4111.77		533.2397	
69.67004	4140.871		543.1637	
69.72402	4170.729		552.9756	
69.77802	4201.353		562.663	
69.832	4232.74		572.2072	
69.88599	4264.907		581.5952	
69.93999	4297.863		590.8085	
69.99397	4331.615		599.829	
70.04797	4366.184		608.6416	
70.10195	4401.562		617.2258	
70.15594	4437.759		625.5659	
70.20993	4474.763		633.6401	
70.26392	4512.558		641.4326	
70.31792	4551.1		648.922	
70.3719	4590.325		656.0892	
70.4259	4630.187		662.9166	
70.47988	4670.601		669.3834	
70.53387	4711.512		675.4731	
70.58786	4752.848		681.1647	
70.64185	4794.579		686.4437	
70.69585	4836.661		691.2908	
70.74983	4879.052		695.6912	
70.80383	4921.727		699.6295	
70.85781	4964.649		703.0922	
70.9118	5007.823		706.068	
70.96579	5051.234		708.5433	
71.01978	5094.89		710.5112	
71.07378	5138.781		711.9611	
71.12776	5182.89		712.8885	
71.18176	5227.208		713.2865	
71.23574	5271.702		713.1531	
71.28973	5316.36		712.4861	
71.34372	5361.132		711.2857	
71.39771	5405.994		709.5535	
71.45171	5450.903		707.2913	
71.50569	5495.828		704.5063	
71.55968	5540.758		701.2018	
71.61367	5585.655		697.3882	
71.66766	5630.494		693.0726	
71.72165	5675.21		688.2668	
71.77564	5719.762		682.9814	
71.82964	5764.089		677.228	
71.88362	5808.133		671.0233	
71.93761	5851.846		664.3779	
71.9916	5895.145		657.3106	
72.04559	5937.955		649.835	
72.09958	5980.167		641.9698	
72.15357	6021.691		633.7306	
72.20757	6062.43		625.1349	
72.26155	6102.283		616.2039	
72.31554	6141.178		606.9518	
72.36953	6179.033		597.4011	
72.42352	6215.802		587.5674	
72.47751	6251.427		577.4721	
72.5315	6285.89		567.1312	
72.58549	6319.158		556.5641	
72.63948	6351.222		545.7917	
72.69347	6382.096		534.8287	
72.74746	6411.789		523.6973	
72.80145	6440.326		512.4128	
72.85544	6467.727		500.9968	
72.90943	6494.028		489.465	
72.96342	6519.242		477.8374	
73.01741	6543.375		466.1347	
73.0714	6566.447		454.3724	
73.12539	6588.47		442.5729	
73.17938	6609.475		430.7516	
73.23337	6629.486		418.9308	
73.28736	6648.544		407.1259	
73.34135	6666.674		395.3592	
73.39534	6683.927		383.6456	
73.44933	6700.343		372.0053	
73.50332	6715.979		360.4575	
73.55731	6730.894		349.0163	
73.6113	6745.144		337.7018	
73.66529	6758.791		326.5267	
73.71928	6771.873		315.5105	
73.77327	6784.422		304.6637	
73.82726	6796.459		294.0029	
73.88125	6808.003		283.5415	
73.93524	6819.072		273.289	
73.98923	6829.679		263.2591	
74.04322	6839.85		253.4585	
74.09721	6849.604		243.8998	
74.1512	6858.967		234.5868	
74.20519	6867.963		225.5286	
74.25918	6876.621		216.731	
74.31317	6884.957		208.196	
74.36716	6892.976		199.9291	
74.42115	6900.691		191.9291	
74.47514	6908.115		184.1996	
74.52913	6915.265		176.7362	
74.58312	6922.147		169.5391	
74.63711	6928.771		162.6051	
74.6911	6935.14		155.9284	
74.74509	6941.261		149.5055	
74.79908	6947.146		143.3284	
74.85307	6952.803		137.3927	
74.90706	6958.234		131.6887	
74.96105	6963.439		126.2103	
75.01504	6968.416		120.9493	
75.06903	6973.172		115.8962	
75.12302	6977.715		111.0439	
75.17701	6982.063		106.3824	
75.231	6986.235		101.9047	
75.28499	6990.255		97.60069	
75.33898	6994.149		93.46321	
75.39297	6997.947		89.48442	
75.44696	7001.672		85.65564	
75.50095	7005.337		81.97056	
75.55494	7008.944		78.42097	
75.60892	7012.486		75.0014	
75.66292	7015.954		71.70399	
75.71691	7019.323		68.52335	
75.7709	7022.56		65.45351	
75.82489	7025.65		62.48821	
75.87888	7028.597		59.62252	
75.93287	7031.407		56.85044	
75.98685	7034.082		54.16774	
76.04085	7036.618		51.5688	
76.09484	7039		49.04967	
76.14883	7041.226		46.60611	
76.20282	7043.315		44.23357	
76.25681	7045.284		41.9287	
76.3108	7047.139		39.68723	
76.36478	7048.883		37.50629	
76.41878	7050.52		35.38188	
76.47277	7052.047		33.31127	
76.52676	7053.458		31.29156	
76.58075	7054.747		29.31958	
76.63474	7055.906		27.39318	
76.68873	7056.92		25.50949	
76.74271	7057.804		23.66689	
76.79671	7058.579		21.86288	
76.8507	7059.262		20.09604	
76.90469	7059.863		18.36491	
76.95868	7060.375		16.66772	
77.01266	7060.794		15.00369	
77.06666	7061.128		13.37136	
77.12064	7061.383		11.77036	
77.17464	7061.561		10.1995	
77.22863	7061.66		8.658543	
77.28262	7061.684		7.147155	
77.33661	7061.638		5.664769	
77.39059	7061.521		4.211682	
77.44459	7061.321		2.787714	
77.49857	7061.043		1.393697	
77.55257	7060.7		0.02984328	
77.60656	7060.313		-1.302769	
77.66055	7059.901		-2.603159	
77.71454	7059.464		-3.870587	
77.76852	7058.987		-5.103758	
77.82252	7058.457		-6.30196	
77.8765	7057.873		-7.463849	
77.9305	7057.252		-8.58881	
77.98449	7056.617		-9.67569	
78.03848	7055.977		-10.72366	
78.09247	7055.326		-11.7322	
78.14645	7054.66		-12.70055	
78.20045	7053.969		-13.62857	
78.25443	7053.234		-14.51578	
78.30843	7052.429		-15.36246	
78.36241	7051.539		-16.16842	
78.4164	7050.56		-16.93442	
78.4704	7049.495		-17.66071	
78.52438	7048.357		-18.34794	
78.57838	7047.147		-18.99699	
78.63236	7045.86		-19.60844	
78.68636	7044.486		-20.18331	
78.74034	7043.025		-20.72222	
78.79433	7041.48		-21.22636	
78.84833	7039.866		-21.69644	
78.90231	7038.189		-22.13349	
78.95631	7036.444		-22.53862	
79.01029	7034.627		-22.91278	
79.06429	7032.738		-23.25718	
79.11827	7030.774		-23.57275	
79.17226	7028.747		-23.86088	
79.22626	7026.673		-24.12255	
79.28024	7024.577		-24.35899	
79.33424	7022.479		-24.57137	
79.38822	7020.391		-24.76065	
79.44221	7018.324		-24.92781	
79.4962	7016.298		-25.07341	
79.55019	7014.338		-25.19817	
79.60419	7012.462		-25.30242	
79.65817	7010.682		-25.38656	
79.71217	7008.988		-25.45082	
79.76615	7007.363		-25.49531	
79.82014	7005.774		-25.52015	
79.87413	7004.196		-25.52526	
79.92812	7002.608		-25.5107	
79.98212	7001.015		-25.47628	
80.0361	6999.426		-25.42204	
80.0901	6997.862		-25.34794	
80.14408	6996.348		-25.25406	
80.19807	6994.905		-25.14051	
80.25206	6993.549		-25.00752	
80.30605	6992.284		-24.8555	
80.36005	6991.097		-24.68501	
80.41403	6989.971		-24.49692	
80.46803	6988.895		-24.29213	
80.52201	6987.854		-24.07188	
80.576	6986.832		-23.83735	
80.62999	6985.819		-23.58994	
80.68398	6984.81		-23.33096	
80.73798	6983.795		-23.06187	
80.79196	6982.767		-22.78418	
80.84595	6981.722		-22.49933	
80.89994	6980.656		-22.209	
80.95393	6979.576		-21.91481	
81.00792	6978.491		-21.61865	
81.06191	6977.407		-21.32228	
81.11591	6976.342		-21.02767	
81.16989	6975.316		-20.73677	
81.22388	6974.342		-20.45152	
81.27787	6973.425		-20.17393	
81.33186	6972.558		-19.90594	
81.38585	6971.719		-19.64954	
81.43984	6970.868		-19.4065	
81.49384	6969.965		-19.17861	
81.54782	6968.984		-18.96744	
81.60181	6967.919		-18.77448	
81.6558	6966.776		-18.60111	
81.70979	6965.563		-18.44853	
81.76378	6964.301		-18.31787	
81.81777	6963.018		-18.21009	
81.87177	6961.747		-18.12613	
81.92575	6960.517		-18.06673	
81.97974	6959.35		-18.03265	
82.03373	6958.264		-18.02447	
82.08772	6957.274		-18.04283	
82.14171	6956.38		-18.08826	
82.1957	6955.566		-18.16124	
82.24969	6954.818		-18.26224	
82.30368	6954.125		-18.39154	
82.35767	6953.456		-18.54971	
82.41166	6952.788		-18.73708	
82.46565	6952.112		-18.95427	
82.51964	6951.426		-19.20185	
82.57363	6950.725		-19.48057	
82.62762	6950.014		-19.79123	
82.68161	6949.305		-20.13444	
82.7356	6948.617		-20.51124	
82.78959	6947.977		-20.92227	
82.84358	6947.391		-21.3686	
82.89757	6946.85		-21.85107	
82.95156	6946.342		-22.3708	
83.00555	6945.848		-22.92884	
83.05954	6945.339		-23.52631	
83.11353	6944.782		-24.16437	
83.16752	6944.149		-24.84385	
83.22151	6943.417		-25.566	
83.2755	6942.582		-26.33156	
83.32949	6941.653		-27.14155	
83.38348	6940.639		-27.99668	
83.43747	6939.543		-28.89765	
83.49146	6938.375		-29.84509	
83.54545	6937.15		-30.83911	
83.59944	6935.884		-31.88034	
83.65343	6934.586		-32.96865	
83.70742	6933.261		-34.10435	
83.76141	6931.903		-35.28717	
83.8154	6930.504		-36.51699	
83.86939	6929.048		-37.79337	
83.92338	6927.518		-39.11528	
83.97737	6925.9		-40.48227	
84.03136	6924.199		-41.89283	
84.08535	6922.424		-43.34603	
84.13934	6920.579		-44.84012	
84.19333	6918.673		-46.37366	
84.24732	6916.718		-47.94468	
84.30131	6914.711		-49.55076	
84.3553	6912.636		-51.1901	
84.40929	6910.469		-52.85985	
84.46328	6908.187		-54.55794	
84.51727	6905.769		-56.28143	
84.57126	6903.199		-58.02804	
84.62525	6900.464		-59.79497	
84.67924	6897.556		-61.57914	
84.73323	6894.471		-63.37832	
84.78722	6891.218		-65.18929	
84.84121	6887.807		-67.00991	
84.8952	6884.248		-68.83717	
84.94919	6880.552		-70.66908	
85.00318	6876.729		-72.50313	
85.05717	6872.784		-74.33682	
85.11116	6868.721		-76.16854	
85.16515	6864.543		-77.99575	
85.21914	6860.257		-79.81707	
85.27312	6855.873		-81.63019	
85.32712	6851.378		-83.43395	
85.38111	6846.757		-85.22643	
85.4351	6841.991		-87.00578	
85.48909	6837.057		-88.77086	
85.54308	6831.935		-90.51965	
85.59707	6826.617		-92.25116	
85.65105	6821.107		-93.96345	
85.70505	6815.431		-95.65571	
85.75904	6809.609		-97.32633	
85.81303	6803.663		-98.97398	
85.86702	6797.607		-100.5977	
85.92101	6791.467		-102.196	
85.975	6785.253		-103.7679	
86.02898	6778.977		-105.3118	
86.08298	6772.633		-106.8268	
86.13697	6766.216		-108.3115	
86.19096	6759.709		-109.7646	
86.24495	6753.095		-111.1852	
86.29893	6746.363		-112.5719	
86.35293	6739.515		-113.9241	
86.40691	6732.566		-115.2402	
86.46091	6725.538		-116.52	
86.5149	6718.453		-117.7621	
86.56889	6711.332		-118.9659	
86.62288	6704.186		-120.1311	
86.67686	6697.033		-121.2568	
86.73086	6689.882		-122.343	
86.78484	6682.761		-123.389	
86.83884	6675.682		-124.3952	
86.89283	6668.66		-125.3611	
86.94682	6661.701		-126.2871	
87.00081	6654.789		-127.1734	
87.05479	6647.888		-128.0203	
87.10879	6640.961		-128.8286	
87.16277	6633.978		-129.5987	
87.21677	6626.932		-130.3317	
87.27076	6619.822		-131.0284	
87.32475	6612.649		-131.6901	
87.37874	6605.405		-132.3181	
87.43272	6598.088		-132.9137	
87.48672	6590.698		-133.4784	
87.5407	6583.247		-134.0137	
87.5947	6575.755		-134.521	
87.64869	6568.251		-135.0017	
87.70267	6560.752		-135.4574	
87.75667	6553.255		-135.8893	
87.81065	6545.741		-136.2987	
87.86465	6538.186		-136.6869	
87.91863	6530.57		-137.0549	
87.97263	6522.887		-137.4038	
88.02661	6515.154		-137.7343	
88.0806	6507.393		-138.0474	
88.1346	6499.628		-138.3436	
88.18858	6491.875		-138.6239	
88.24258	6484.135		-138.8888	
88.29656	6476.405		-139.1391	
88.35056	6468.688		-139.3754	
88.40454	6460.994		-139.5985	
88.45853	6453.332		-139.8091	
88.51253	6445.705		-140.0077	
88.56651	6438.117		-140.1949	
88.62051	6430.552		-140.3715	
88.67449	6423.001		-140.5378	
88.72849	6415.449		-140.6944	
88.78247	6407.896		-140.8415	
88.83646	6400.327		-140.9798	
88.89046	6392.748		-141.1093	
88.94444	6385.159		-141.2306	
88.99844	6377.56		-141.3438	
89.05242	6369.942		-141.4493	
89.10641	6362.299		-141.5473	
89.1604	6354.636		-141.6379	
89.21439	6346.971		-141.7215	
89.26839	6339.315		-141.7983	
89.32237	6331.672		-141.8687	
89.37637	6324.015		-141.9329	
89.43035	6316.331		-141.9912	
89.48434	6308.598		-142.044	
89.53833	6300.824		-142.0917	
89.59232	6292.999		-142.1344	
89.64632	6285.13		-142.1725	
89.7003	6277.236		-142.2063	
89.7543	6269.337		-142.2362	
89.80828	6261.437		-142.2625	
89.86227	6253.542		-142.2854	
89.91626	6245.656		-142.3053	
89.97025	6237.793		-142.3222	
90.02425	6229.968		-142.3363	
90.07823	6222.198		-142.3477	
90.13223	6214.476		-142.3564	
90.18621	6206.798		-142.3624	
90.2402	6199.15		-142.3658	
90.29419	6191.537		-142.3665	
90.34818	6183.957		-142.3648	
90.40218	6176.409		-142.3609	
90.45616	6168.872		-142.3549	
90.51015	6161.334		-142.3474	
90.56414	6153.793		-142.3387	
90.61813	6146.252		-142.3293	
90.67212	6138.714		-142.3196	
90.72611	6131.176		-142.31	
90.78011	6123.63		-142.3009	
90.83409	6116.064		-142.2926	
90.88808	6108.463		-142.2856	
90.94207	6100.833		-142.2799	
90.99606	6093.179		-142.2758	
91.05005	6085.507		-142.2737	
91.10404	6077.816		-142.2736	
91.15804	6070.112		-142.2756	
91.21202	6062.403		-142.28	
91.26601	6054.686		-142.2868	
91.32	6046.956		-142.2961	
91.37399	6039.193		-142.3081	
91.42798	6031.388		-142.3229	
91.48197	6023.548		-142.3407	
91.53596	6015.685		-142.3617	
91.58995	6007.797		-142.3859	
91.64394	5999.893		-142.4133	
91.69793	5991.998		-142.444	
91.75192	5984.135		-142.4779	
91.80591	5976.32		-142.5151	
91.8599	5968.564		-142.5552	
91.91389	5960.875		-142.5981	
91.96788	5953.258		-142.6434	
92.02187	5945.708		-142.691	
92.07586	5938.223		-142.7404	
92.12985	5930.793		-142.7913	
92.18384	5923.413		-142.8434	
92.23783	5916.055		-142.8962	
92.29182	5908.703		-142.9495	
92.34581	5901.33		-143.0027	
92.3998	5893.911		-143.0555	
92.45379	5886.421		-143.1112	
92.50778	5878.851		-143.1636	
92.56177	5871.205		-143.2134	
92.61576	5863.501		-143.2612	
92.66975	5855.772		-143.3078	
92.72374	5848.046		-143.3535	
92.77773	5840.333		-143.3989	
92.83172	5832.63		-143.4442	
92.88571	5824.907		-143.4896	
92.9397	5817.143		-143.5352	
92.99369	5809.315		-143.5811	
93.04768	5801.418		-143.6274	
93.10167	5793.443		-143.6741	
93.15566	5785.396		-143.7213	
93.20965	5777.296		-143.7689	
93.26364	5769.168		-143.8169	
93.31763	5761.044		-143.8653	
93.37162	5752.956		-143.9141	
93.42561	5744.933		-143.9633	
93.4796	5737		-144.0129	
93.53359	5729.16		-144.0628	
93.58758	5721.407		-144.113	
93.64157	5713.724		-144.1635	
93.69556	5706.091		-144.2142	
93.74955	5698.485		-144.2652	
93.80354	5690.892		-144.3163	
93.85753	5683.292		-144.3676	
93.91152	5675.664		-144.4191	
93.96551	5667.979		-144.4706	
94.0195	5660.208		-144.5221	
94.07349	5652.212		-144.5737	
94.12748	5644.219		-144.6252	
94.18147	5636.27		-144.6768	
94.23546	5628.356		-144.7282	
94.28945	5620.47		-144.7796	
94.34344	5612.601		-144.8307	
94.39743	5604.739		-144.8818	
94.45142	5596.881		-144.9327	
94.50541	5589.018		-144.9833	
94.55939	5581.149		-145.0338	
94.61339	5573.27		-145.084	
94.66738	5565.377		-145.134	
94.72137	5557.474		-145.1836	
94.77536	5549.554		-145.2331	
94.82935	5541.621		-145.2822	
94.88334	5533.672		-145.3311	
94.93732	5525.711		-145.3796	
94.99132	5517.74		-145.4279	
