T[Â°C]	330nm [counts / mm]	S.D.	First derivative	S.D. of first derivative
20.00051	4637.081		-62.73294	
20.05462	4633.436		-62.75127	
20.10873	4629.805		-62.76943	
20.16283	4626.188		-62.78743	
20.21694	4622.586		-62.80525	
20.27105	4618.997		-62.82288	
20.32516	4615.416		-62.84032	
20.37926	4611.843		-62.85754	
20.43337	4608.274		-62.87454	
20.48748	4604.707		-62.8913	
20.54159	4601.14		-62.90782	
20.59569	4597.573		-62.92406	
20.6498	4594.004		-62.94003	
20.70391	4590.434		-62.95571	
20.75801	4586.862		-62.97108	
20.81212	4583.291		-62.98613	
20.86623	4579.734		-63.00084	
20.92034	4576.233		-63.0152	
20.97445	4572.868		-63.02919	
21.02855	4569.559		-63.04281	
21.08266	4566.302		-63.05603	
21.13677	4563.077		-63.06885	
21.19087	4559.861		-63.08125	
21.24498	4556.633		-63.09322	
21.29909	4553.373		-63.10476	
21.3532	4550.067		-63.11587	
21.4073	4546.707		-63.12656	
21.46141	4543.295		-63.13683	
21.51552	4539.836		-63.14671	
21.56963	4536.336		-63.15619	
21.62373	4532.79		-63.16529	
21.67784	4529.2		-63.17403	
21.73195	4525.58		-63.18242	
21.78606	4521.953		-63.19048	
21.84016	4518.341		-63.19822	
21.89427	4514.765		-63.20567	
21.94838	4511.238		-63.21286	
22.00249	4507.766		-63.2198	
22.05659	4504.34		-63.22655	
22.1107	4500.942		-63.23314	
22.16481	4497.552		-63.23963	
22.21891	4494.153		-63.24607	
22.27302	4490.741		-63.25253	
22.32713	4487.32		-63.25904	
22.38124	4483.894		-63.26563	
22.43534	4480.459		-63.27225	
22.48945	4477.012		-63.27874	
22.54356	4473.553		-63.28479	
22.59767	4470.093		-63.28993	
22.65177	4466.654		-63.2587	
22.70588	4463.258		-63.22386	
22.75999	4459.913		-63.18548	
22.8141	4456.611		-63.14367	
22.8682	4453.333		-63.09857	
22.92231	4450.051		-63.05038	
22.97642	4446.74		-62.99932	
23.03053	4443.376		-62.94564	
23.08463	4439.943		-62.88964	
23.13874	4436.441		-62.83166	
23.19285	4432.883		-62.77205	
23.24696	4429.287		-62.7112	
23.30106	4425.67		-62.64948	
23.35517	4422.041		-62.58728	
23.40928	4418.403		-62.52493	
23.46338	4414.769		-62.46275	
23.51749	4411.157		-62.401	
23.5716	4407.586		-62.33987	
23.62571	4404.061		-62.27952	
23.67982	4400.576		-62.22008	
23.73392	4397.122		-62.16161	
23.78803	4393.689		-62.10412	
23.84214	4390.269		-62.04759	
23.89624	4386.861		-61.99191	
23.95035	4383.469		-61.9369	
24.00446	4380.104		-61.88237	
24.05857	4376.777		-61.82809	
24.11267	4373.504		-61.77386	
24.16678	4370.289		-61.71952	
24.22089	4367.123		-61.66499	
24.275	4363.996		-61.61025	
24.3291	4360.897		-61.55536	
24.38321	4357.822		-61.50039	
24.43732	4354.76		-61.44545	
24.49143	4351.703		-61.39059	
24.54553	4348.641		-61.33584	
24.59964	4345.558		-61.28116	
24.65375	4342.439		-61.22646	
24.70786	4339.273		-61.17162	
24.76196	4336.054		-61.11651	
24.81607	4332.785		-61.06103	
24.87018	4329.478		-61.00511	
24.92429	4326.15		-60.94873	
24.97839	4322.817		-60.89188	
25.0325	4319.488		-60.83459	
25.08661	4316.171		-60.77694	
25.14071	4312.866		-60.71902	
25.19482	4309.578		-60.66095	
25.24893	4306.307		-60.60286	
25.30304	4303.051		-60.54488	
25.35715	4299.797		-60.48715	
25.41125	4296.53		-60.42982	
25.46536	4293.232		-60.373	
25.51947	4289.896		-60.31681	
25.57357	4286.527		-60.26133	
25.62768	4283.139		-60.20661	
25.68179	4279.744		-60.15266	
25.7359	4276.356		-60.09944	
25.79	4272.99		-60.04687	
25.84411	4269.659		-59.99483	
25.89822	4266.367		-59.94318	
25.95233	4263.11		-59.89177	
26.00643	4259.88		-59.84044	
26.06054	4256.67		-59.78904	
26.11465	4253.472		-59.73749	
26.16876	4250.279		-59.68572	
26.22286	4247.083		-59.63371	
26.27697	4243.879		-59.5815	
26.33108	4240.663		-59.52924	
26.38519	4237.421		-59.47712	
26.43929	4234.145		-59.42543	
26.4934	4230.832		-59.37448	
26.54751	4227.491		-59.32455	
26.60161	4224.135		-59.27594	
26.65572	4220.777		-59.22889	
26.70983	4217.429		-59.18362	
26.76394	4214.1		-59.14034	
26.81804	4210.792		-59.0992	
26.87215	4207.506		-59.06033	
26.92626	4204.247		-59.02382	
26.98037	4201.016		-58.98969	
27.03447	4197.818		-58.95794	
27.08858	4194.656		-58.92851	
27.14269	4191.529		-58.90134	
27.1968	4188.437		-58.8763	
27.2509	4185.372		-58.85321	
27.30501	4182.324		-58.83187	
27.35912	4179.278		-58.81204	
27.41323	4176.217		-58.79347	
27.46733	4173.137		-58.77591	
27.52144	4170.04		-58.75909	
27.57555	4166.93		-58.74281	
27.62966	4163.816		-58.72694	
27.68376	4160.71		-58.71143	
27.73787	4157.621		-58.69629	
27.79198	4154.559		-58.68159	
27.84608	4151.53		-58.66746	
27.90019	4148.535		-58.65401	
27.9543	4145.576		-58.64141	
28.00841	4142.657		-58.62981	
28.06252	4139.773		-58.61936	
28.11662	4136.909		-58.6102	
28.17073	4134.033		-58.60243	
28.22484	4131.119		-58.59612	
28.27894	4128.147		-58.59134	
28.33305	4125.108		-58.58817	
28.38716	4121.992		-58.58672	
28.44127	4118.798		-58.58712	
28.49537	4115.535		-58.58944	
28.54948	4112.218		-58.59373	
28.60359	4108.868		-58.60007	
28.6577	4105.507		-58.60847	
28.7118	4102.161		-58.61897	
28.76591	4098.839		-58.63154	
28.82002	4095.536		-58.64614	
28.87413	4092.239		-58.66263	
28.92823	4088.926		-58.68081	
28.98234	4085.586		-58.70034	
29.03645	4082.218		-58.72084	
29.09056	4078.826		-58.74181	
29.14466	4075.419		-58.76272	
29.19877	4072.012		-58.78294	
29.25288	4068.622		-58.80183	
29.30699	4065.26		-58.81867	
29.36109	4061.93		-58.83276	
29.4152	4058.635		-58.84343	
29.46931	4055.381		-58.8501	
29.52341	4052.168		-58.85228	
29.57752	4048.99		-58.84961	
29.63163	4045.844		-58.84182	
29.68574	4042.732		-58.82877	
29.73985	4039.659		-58.81039	
29.79395	4036.628		-58.78672	
29.84806	4033.631		-58.75785	
29.90217	4030.651		-58.72389	
29.95627	4027.673		-58.68498	
30.01038	4024.678		-58.64127	
30.06449	4021.652		-58.59296	
30.1186	4018.581		-58.54026	
30.1727	4015.458		-58.48346	
30.22681	4012.285		-58.42284	
30.28092	4009.065		-58.35876	
30.33503	4005.803		-58.29161	
30.38913	4002.506		-58.22181	
30.44324	3999.177		-58.14976	
30.49735	3995.818		-58.07592	
30.55146	3992.431		-58.00074	
30.60556	3989.023		-57.92472	
30.65967	3985.617		-57.84838	
30.71378	3982.241		-57.77222	
30.76789	3978.922		-57.69673	
30.82199	3975.667		-57.62234	
30.8761	3972.47		-57.54942	
30.93021	3969.316		-57.47828	
30.98431	3966.199		-57.40912	
31.03842	3963.117		-57.34212	
31.09253	3960.071		-57.27745	
31.14664	3957.051		-57.21523	
31.20074	3954.049		-57.15562	
31.25485	3951.059		-57.0987	
31.30896	3948.082		-57.04451	
31.36307	3945.12		-56.99304	
31.41717	3942.185		-56.94424	
31.47128	3939.293		-56.89804	
31.52539	3936.452		-56.85436	
31.5795	3933.655		-56.81313	
31.6336	3930.877		-56.77431	
31.68771	3928.088		-56.73788	
31.74182	3925.26		-56.70383	
31.79593	3922.375		-56.67213	
31.85003	3919.43		-56.64273	
31.90414	3916.434		-56.61552	
31.95825	3913.394		-56.59033	
32.01236	3910.312		-56.56696	
32.06646	3907.191		-56.54519	
32.12057	3904.045		-56.52479	
32.17468	3900.886		-56.50557	
32.22879	3897.72		-56.48735	
32.28289	3894.547		-56.47	
32.337	3891.375		-56.45342	
32.39111	3888.218		-56.43756	
32.44521	3885.09		-56.42237	
32.49932	3882		-56.40785	
32.55343	3878.953		-56.39401	
32.60754	3875.946		-56.38087	
32.66164	3872.972		-56.3684	
32.71575	3870.021		-56.35659	
32.76986	3867.087		-56.34537	
32.82397	3864.159		-56.33464	
32.87807	3861.225		-56.3243	
32.93218	3858.271		-56.31425	
32.98629	3855.295		-56.30439	
33.0404	3852.303		-56.29463	
33.09451	3849.301		-56.28488	
33.14861	3846.286		-56.27502	
33.20272	3843.26		-56.26495	
33.25682	3840.223		-56.25452	
33.31093	3837.178		-56.2436	
33.36504	3834.119		-56.23204	
33.41915	3831.041		-56.2197	
33.47326	3827.938		-56.20649	
33.52736	3824.811		-56.19236	
33.58147	3821.662		-56.17733	
33.63558	3818.492		-56.16145	
33.68969	3815.3		-56.14477	
33.74379	3812.085		-56.12738	
33.7979	3808.852		-56.10933	
33.85201	3805.609		-56.09068	
33.90612	3802.364		-56.0715	
33.96022	3799.125		-56.05182	
34.01433	3795.897		-56.03166	
34.06844	3792.688		-56.01101	
34.12254	3789.513		-55.98984	
34.17665	3786.389		-55.96805	
34.23076	3783.317		-55.94552	
34.28487	3780.286		-55.9221	
34.33897	3777.279		-55.89762	
34.39308	3774.284		-55.87191	
34.44719	3771.295		-55.84485	
34.5013	3768.321		-55.81633	
34.5554	3765.373		-55.78627	
34.60951	3762.46		-55.75468	
34.66362	3759.578		-55.72157	
34.71773	3756.716		-55.68704	
34.77183	3753.871		-55.65117	
34.82594	3751.043		-55.61405	
34.88005	3748.227		-55.57578	
34.93415	3745.414		-55.53645	
34.98826	3742.597		-55.4962	
35.04237	3739.771		-55.45517	
35.09648	3736.924		-55.4135	
35.15059	3734.042		-55.3713	
35.20469	3731.116		-55.32864	
35.2588	3728.142		-55.28553	
35.31291	3725.126		-55.24198	
35.36702	3722.08		-55.19799	
35.42112	3719.012		-55.15359	
35.47523	3715.93		-55.10881	
35.52934	3712.846		-55.06371	
35.58344	3709.772		-55.01837	
35.63755	3706.718		-54.97289	
35.69166	3703.694		-54.92731	
35.74577	3700.708		-54.88171	
35.79987	3697.757		-54.83612	
35.85398	3694.82		-54.79067	
35.90809	3691.875		-54.74542	
35.9622	3688.905		-54.70043	
36.0163	3685.903		-54.65569	
36.07041	3682.873		-54.61109	
36.12452	3679.827		-54.56648	
36.17863	3676.78		-54.5216	
36.23273	3673.745		-54.47613	
36.28684	3670.735		-54.42971	
36.34095	3667.749		-54.38199	
36.39505	3664.785		-54.33268	
36.44916	3661.843		-54.28154	
36.50327	3658.922		-54.22843	
36.55738	3656.031		-54.17332	
36.61148	3653.17		-54.11628	
36.66559	3650.328		-54.05748	
36.7197	3647.496		-53.99714	
36.77381	3644.664		-53.93546	
36.82792	3641.826		-53.87269	
36.88202	3638.969		-53.80906	
36.93613	3636.081		-53.74484	
36.99024	3633.15		-53.68039	
37.04435	3630.168		-53.61609	
37.09845	3627.129		-53.55235	
37.15256	3624.04		-53.48951	
37.20667	3620.917		-53.42786	
37.26077	3617.785		-53.36756	
37.31488	3614.674		-53.3087	
37.36899	3611.611		-53.2513	
37.4231	3608.615		-53.1953	
37.4772	3605.685		-53.14058	
37.53131	3602.804		-53.08698	
37.58542	3599.949		-53.03429	
37.63953	3597.1		-52.9823	
37.69363	3594.251		-52.93074	
37.74774	3591.412		-52.87941	
37.80185	3588.594		-52.82813	
37.85596	3585.8		-52.77673	
37.91006	3583.021		-52.7251	
37.96417	3580.248		-52.67311	
38.01828	3577.476		-52.62065	
38.07238	3574.7		-52.56761	
38.12649	3571.92		-52.51394	
38.1806	3569.143		-52.45961	
38.23471	3566.386		-52.40462	
38.28881	3563.665		-52.34903	
38.34292	3560.984		-52.29289	
38.39703	3558.342		-52.23631	
38.45114	3555.735		-52.17937	
38.50525	3553.158		-52.12223	
38.55935	3550.607		-52.06511	
38.61346	3548.063		-52.00827	
38.66757	3545.504		-51.95203	
38.72168	3542.907		-51.89672	
38.77578	3540.259		-51.84267	
38.82989	3537.55		-51.79018	
38.884	3534.783		-51.73956	
38.9381	3531.963		-51.69114	
38.99221	3529.096		-51.64524	
39.04632	3526.182		-51.6022	
39.10043	3523.222		-51.56232	
39.15453	3520.214		-51.52591	
39.20864	3517.164		-51.49319	
39.26275	3514.085		-51.46429	
39.31686	3510.998		-51.43926	
39.37096	3507.935		-51.41804	
39.42507	3504.921		-51.40046	
39.47918	3501.969		-51.38625	
39.53329	3499.073		-51.37501	
39.58739	3496.225		-51.36623	
39.6415	3493.412		-51.35936	
39.69561	3490.617		-51.35376	
39.74971	3487.832		-51.34877	
39.80382	3485.055		-51.34377	
39.85793	3482.291		-51.33815	
39.91204	3479.55		-51.3314	
39.96614	3476.836		-51.32309	
40.02025	3474.151		-51.31286	
40.07436	3471.495		-51.30048	
40.12847	3468.87		-51.28578	
40.18258	3466.273		-51.2687	
40.23668	3463.706		-51.24923	
40.29079	3461.156		-51.22745	
40.34489	3458.611		-51.20346	
40.399	3456.05		-51.17741	
40.45311	3453.46		-51.14943	
40.50722	3450.833		-51.1197	
40.56133	3448.161		-51.08844	
40.61543	3445.443		-51.05591	
40.66954	3442.678		-51.0224	
40.72365	3439.869		-50.98824	
40.77776	3437.019		-50.95378	
40.83186	3434.135		-50.91936	
40.88597	3431.227		-50.88536	
40.94008	3428.304		-50.8521	
40.99419	3425.377		-50.81993	
41.04829	3422.448		-50.7892	
41.1024	3419.519		-50.76027	
41.15651	3416.586		-50.73345	
41.21061	3413.651		-50.70897	
41.26472	3410.716		-50.68702	
41.31883	3407.798		-50.66766	
41.37294	3404.916		-50.65088	
41.42704	3402.088		-50.63653	
41.48115	3399.316		-50.62437	
41.53526	3396.604		-50.61405	
41.58937	3393.949		-50.60516	
41.64347	3391.344		-50.59719	
41.69758	3388.773		-50.58962	
41.75169	3386.222		-50.58191	
41.8058	3383.68		-50.57357	
41.85991	3381.138		-50.56412	
41.91401	3378.587		-50.5532	
41.96812	3376.017		-50.54052	
42.02222	3373.42		-50.52588	
42.07633	3370.796		-50.50914	
42.13044	3368.143		-50.49023	
42.18455	3365.468		-50.4692	
42.23866	3362.78		-50.44613	
42.29276	3360.091		-50.42122	
42.34687	3357.406		-50.3947	
42.40098	3354.728		-50.36685	
42.45509	3352.05		-50.33798	
42.50919	3349.363		-50.3084	
42.5633	3346.652		-50.2784	
42.61741	3343.908		-50.24826	
42.67152	3341.127		-50.21825	
42.72562	3338.315		-50.18865	
42.77973	3335.483		-50.15973	
42.83384	3332.64		-50.1317	
42.88794	3329.796		-50.10476	
42.94205	3326.961		-50.07907	
42.99616	3324.142		-50.05476	
43.05027	3321.337		-50.03194	
43.10437	3318.543		-50.0107	
43.15848	3315.753		-49.99113	
43.21259	3312.959		-49.97325	
43.2667	3310.156		-49.95706	
43.3208	3307.347		-49.94247	
43.37491	3304.539		-49.92931	
43.42902	3301.746		-49.91731	
43.48313	3298.979		-49.90616	
43.53723	3296.244		-49.89544	
43.59134	3293.544		-49.88469	
43.64545	3290.875		-49.87345	
43.69955	3288.233		-49.86124	
43.75366	3285.615		-49.8476	
43.80777	3283.019		-49.83213	
43.86188	3280.446		-49.81451	
43.91599	3277.894		-49.79448	
43.97009	3275.364		-49.77189	
44.0242	3272.844		-49.7466	
44.07831	3270.318		-49.71859	
44.13242	3267.767		-49.68784	
44.18652	3265.182		-49.65443	
44.24063	3262.56		-49.61848	
44.29474	3259.911		-49.58018	
44.34884	3257.247		-49.53981	
44.40295	3254.582		-49.4977	
44.45706	3251.918		-49.45424	
44.51117	3249.253		-49.40983	
44.56527	3246.574		-49.36489	
44.61938	3243.873		-49.31984	
44.67349	3241.142		-49.27506	
44.7276	3238.38		-49.2309	
44.7817	3235.587		-49.18769	
44.83581	3232.767		-49.14569	
44.88992	3229.925		-49.10512	
44.94403	3227.077		-49.06616	
44.99813	3224.238		-49.02887	
45.05224	3221.424		-48.99329	
45.10635	3218.648		-48.95942	
45.16045	3215.917		-48.92724	
45.21456	3213.231		-48.8967	
45.26867	3210.584		-48.86773	
45.32278	3207.965		-48.84025	
45.37688	3205.37		-48.81413	
45.43099	3202.802		-48.78922	
45.4851	3200.259		-48.76531	
45.53921	3197.741		-48.74215	
45.59332	3195.242		-48.71946	
45.64742	3192.746		-48.69692	
45.70153	3190.236		-48.67418	
45.75564	3187.698		-48.65088	
45.80975	3185.129		-48.62669	
45.86385	3182.538		-48.60127	
45.91796	3179.94		-48.57435	
45.97206	3177.347		-48.54566	
46.02617	3174.765		-48.51496	
46.08028	3172.194		-48.48202	
46.13439	3169.624		-48.44662	
46.1885	3167.042		-48.40854	
46.2426	3164.437		-48.36759	
46.29671	3161.803		-48.32365	
46.35082	3159.146		-48.27665	
46.40493	3156.471		-48.22659	
46.45903	3153.784		-48.1735	
46.51314	3151.092		-48.11745	
46.56725	3148.403		-48.05854	
46.62136	3145.728		-47.99684	
46.67546	3143.076		-47.93242	
46.72957	3140.456		-47.86537	
46.78368	3137.873		-47.79584	
46.83778	3135.323		-47.72401	
46.89189	3132.793		-47.65008	
46.946	3130.266		-47.57423	
47.00011	3127.73		-47.49665	
47.05421	3125.178		-47.41752	
47.10832	3122.608		-47.33698	
47.16243	3120.021		-47.2552	
47.21654	3117.42		-47.17238	
47.27065	3114.806		-47.08878	
47.32475	3112.178		-47.00468	
47.37886	3109.534		-46.92044	
47.43297	3106.876		-46.83647	
47.48708	3104.214		-46.75318	
47.54118	3101.568		-46.67099	
47.59529	3098.951		-46.5903	
47.64939	3096.367		-46.51151	
47.7035	3093.812		-46.43499	
47.75761	3091.277		-46.36105	
47.81172	3088.749		-46.29001	
47.86583	3086.215		-46.22213	
47.91993	3083.661		-46.15765	
47.97404	3081.088		-46.09678	
48.02815	3078.5		-46.03973	
48.08226	3075.906		-45.9866	
48.13636	3073.321		-45.93749	
48.19047	3070.758		-45.89242	
48.24458	3068.23		-45.85135	
48.29869	3065.75		-45.81422	
48.35279	3063.32		-45.78094	
48.4069	3060.935		-45.75138	
48.46101	3058.589		-45.72536	
48.51511	3056.272		-45.70264	
48.56922	3053.974		-45.68288	
48.62333	3051.68		-45.66573	
48.67744	3049.381		-45.65077	
48.73154	3047.07		-45.63759	
48.78565	3044.75		-45.62583	
48.83976	3042.421		-45.61514	
48.89387	3040.085		-45.60519	
48.94798	3037.749		-45.59571	
49.00208	3035.423		-45.58646	
49.05619	3033.113		-45.57726	
49.1103	3030.823		-45.56796	
49.1644	3028.558		-45.55852	
49.21851	3026.319		-45.54889	
49.27262	3024.105		-45.5391	
49.32673	3021.899		-45.52923	
49.38083	3019.689		-45.5194	
49.43494	3017.465		-45.50975	
49.48905	3015.213		-45.50046	
49.54316	3012.915		-45.49171	
49.59726	3010.556		-45.48373	
49.65137	3008.135		-45.47674	
49.70548	3005.652		-45.47098	
49.75959	3003.118		-45.46666	
49.81369	3000.541		-45.464	
49.8678	2997.928		-45.46317	
49.92191	2995.284		-45.46434	
49.97601	2992.616		-45.46766	
50.03012	2989.934		-45.47326	
50.08423	2987.248		-45.4812	
50.13834	2984.557		-45.49155	
50.19244	2981.86		-45.50425	
50.24655	2979.161		-45.51919	
50.30066	2976.466		-45.53618	
50.35477	2973.777		-45.55494	
50.40887	2971.095		-45.5751	
50.46298	2968.418		-45.5962	
50.51709	2965.744		-45.61772	
50.5712	2963.073		-45.63908	
50.62531	2960.413		-45.65971	
50.67941	2957.769		-45.679	
50.73352	2955.154		-45.69638	
50.78762	2952.576		-45.71126	
50.84173	2950.041		-45.72308	
50.89584	2947.55		-45.73129	
50.94995	2945.11		-45.73542	
51.00406	2942.719		-45.73503	
51.05816	2940.37		-45.72979	
51.11227	2938.062		-45.71946	
51.16638	2935.787		-45.70383	
51.22049	2933.532		-45.68279	
51.27459	2931.278		-45.65629	
51.3287	2929.004		-45.62434	
51.38281	2926.701		-45.58701	
51.43692	2924.365		-45.54439	
51.49102	2921.991		-45.49665	
51.54513	2919.577		-45.44402	
51.59924	2917.123		-45.38679	
51.65334	2914.634		-45.32526	
51.70745	2912.126		-45.2598	
51.76156	2909.622		-45.19074	
51.81567	2907.138		-45.11845	
51.86977	2904.676		-45.0433	
51.92388	2902.226		-44.96566	
51.97799	2899.781		-44.88596	
52.0321	2897.34		-44.80467	
52.0862	2894.896		-44.72226	
52.14031	2892.442		-44.63919	
52.19442	2889.979		-44.55592	
52.24853	2887.505		-44.47284	
52.30264	2885.028		-44.39033	
52.35674	2882.553		-44.30872	
52.41085	2880.086		-44.22828	
52.46495	2877.628		-44.14927	
52.51906	2875.184		-44.07198	
52.57317	2872.756		-43.99666	
52.62728	2870.349		-43.92363	
52.68139	2867.966		-43.85312	
52.73549	2865.61		-43.78534	
52.7896	2863.277		-43.72043	
52.84371	2860.962		-43.65847	
52.89782	2858.659		-43.59946	
52.95192	2856.36		-43.54337	
53.00603	2854.056		-43.49012	
53.06014	2851.74		-43.43961	
53.11424	2849.403		-43.39167	
53.16835	2847.041		-43.34616	
53.22246	2844.654		-43.3029	
53.27657	2842.25		-43.26171	
53.33067	2839.84		-43.2224	
53.38478	2837.436		-43.18474	
53.43889	2835.047		-43.14854	
53.493	2832.683		-43.11364	
53.5471	2830.341		-43.0799	
53.60121	2828.013		-43.04716	
53.65532	2825.696		-43.01526	
53.70943	2823.388		-42.984	
53.76353	2821.089		-42.95313	
53.81764	2818.798		-42.92234	
53.87175	2816.52		-42.89132	
53.92585	2814.258		-42.85973	
53.97996	2812.015		-42.82728	
54.03407	2809.785		-42.79367	
54.08818	2807.56		-42.75864	
54.14228	2805.339		-42.72189	
54.19639	2803.124		-42.68318	
54.2505	2800.918		-42.6423	
54.30461	2798.729		-42.59915	
54.35872	2796.56		-42.55367	
54.41282	2794.408		-42.50589	
54.46693	2792.267		-42.45593	
54.52104	2790.13		-42.40399	
54.57515	2787.983		-42.35035	
54.62925	2785.815		-42.29532	
54.68336	2783.622		-42.23928	
54.73746	2781.399		-42.1826	
54.79157	2779.144		-42.1257	
54.84568	2776.855		-42.06902	
54.89979	2774.534		-42.01303	
54.9539	2772.188		-41.95818	
55.008	2769.822		-41.90493	
55.06211	2767.438		-41.85371	
55.11622	2765.037		-41.80495	
55.17033	2762.617		-41.75902	
55.22443	2760.182		-41.7163	
55.27854	2757.736		-41.67715	
55.33265	2755.288		-41.64191	
55.38676	2752.845		-41.61091	
55.44086	2750.413		-41.58446	
55.49497	2747.991		-41.56281	
55.54908	2745.572		-41.54618	
55.60318	2743.155		-41.53465	
55.65729	2740.747		-41.52819	
55.7114	2738.347		-41.52665	
55.76551	2735.955		-41.52974	
55.81961	2733.58		-41.53709	
55.87372	2731.236		-41.54822	
55.92783	2728.933		-41.56262	
55.98194	2726.681		-41.5797	
56.03605	2724.478		-41.59883	
56.09015	2722.32		-41.61936	
56.14426	2720.202		-41.64061	
56.19837	2718.123		-41.66189	
56.25248	2716.08		-41.68258	
56.30658	2714.076		-41.70206	
56.36069	2712.107		-41.71977	
56.41479	2710.167		-41.7352	
56.4689	2708.24		-41.74789	
56.52301	2706.308		-41.75746	
56.57712	2704.35		-41.76357	
56.63123	2702.351		-41.76592	
56.68533	2700.311		-41.76431	
56.73944	2698.235		-41.75861	
56.79355	2696.122		-41.74876	
56.84766	2693.977		-41.73476	
56.90176	2691.808		-41.71669	
56.95587	2689.618		-41.69467	
57.00998	2687.411		-41.66889	
57.06409	2685.189		-41.63958	
57.11819	2682.95		-41.60703	
57.1723	2680.696		-41.57161	
57.22641	2678.424		-41.53371	
57.28051	2676.13		-41.49377	
57.33462	2673.809		-41.45223	
57.38873	2671.458		-41.4095	
57.44284	2669.08		-41.36594	
57.49694	2666.676		-41.32186	
57.55105	2664.251		-41.27745	
57.60516	2661.816		-41.23283	
57.65927	2659.374		-41.188	
57.71338	2656.925		-41.14292	
57.76748	2654.469		-41.0975	
57.82159	2652.007		-41.05164	
57.8757	2649.542		-41.00518	
57.9298	2647.078		-40.95797	
57.98391	2644.622		-40.90979	
58.03802	2642.178		-40.86042	
58.09212	2639.747		-40.80962	
58.14623	2637.335		-40.75715	
58.20034	2634.952		-40.70275	
58.25445	2632.599		-40.64619	
58.30856	2630.277		-40.58723	
58.36266	2627.987		-40.5257	
58.41677	2625.73		-40.46146	
58.47088	2623.503		-40.39445	
58.52499	2621.3		-40.32468	
58.57909	2619.105		-40.25213	
58.6332	2616.911		-40.17688	
58.68731	2614.718		-40.09903	
58.74141	2612.529		-40.01875	
58.79552	2610.356		-39.93629	
58.84963	2608.208		-39.85191	
58.90374	2606.091		-39.76595	
58.95784	2604.004		-39.67872	
59.01195	2601.947		-39.59062	
59.06606	2599.917		-39.50202	
59.12017	2597.911		-39.41334	
59.17427	2595.927		-39.325	
59.22838	2593.967		-39.23744	
59.28249	2592.032		-39.1511	
59.3366	2590.122		-39.0664	
59.39071	2588.231		-38.98371	
59.44481	2586.345		-38.90334	
59.49892	2584.44		-38.82556	
59.55302	2582.495		-38.75054	
59.60713	2580.499		-38.67842	
59.66124	2578.453		-38.60932	
59.71535	2576.365		-38.54332	
59.76945	2574.257		-38.48048	
59.82356	2572.152		-38.42088	
59.87767	2570.071		-38.36453	
59.93178	2568.034		-38.31142	
59.98589	2566.047		-38.2615	
60.03999	2564.107		-38.21466	
60.0941	2562.206		-38.17073	
60.14821	2560.337		-38.12949	
60.20232	2558.489		-38.09071	
60.25642	2556.646		-38.05406	
60.31053	2554.79		-38.01923	
60.36464	2552.903		-37.98588	
60.41874	2550.978		-37.9537	
60.47285	2549.014		-37.92237	
60.52696	2547.01		-37.89155	
60.58107	2544.965		-37.86095	
60.63517	2542.884		-37.83031	
60.68928	2540.771		-37.79941	
60.74339	2538.636		-37.76812	
60.7975	2536.495		-37.73631	
60.8516	2534.359		-37.70389	
60.90571	2532.236		-37.67076	
60.95982	2530.12		-37.63681	
61.01393	2528.008		-37.60192	
61.06804	2525.895		-37.56596	
61.12214	2523.773		-37.52871	
61.17625	2521.629		-37.48997	
61.23035	2519.445		-37.44952	
61.28446	2517.204		-37.40711	
61.33857	2514.911		-37.3625	
61.39268	2512.584		-37.31538	
61.44678	2510.25		-37.26543	
61.50089	2507.933		-37.21229	
61.555	2505.656		-37.15557	
61.60911	2503.434		-37.0949	
61.66322	2501.272		-37.02994	
61.71732	2499.168		-36.96037	
61.77143	2497.117		-36.88591	
61.82554	2495.102		-36.8063	
61.87965	2493.114		-36.72132	
61.93375	2491.144		-36.63074	
61.98786	2489.193		-36.53436	
62.04197	2487.257		-36.43198	
62.09607	2485.335		-36.32338	
62.15018	2483.423		-36.20834	
62.20429	2481.519		-36.08665	
62.2584	2479.616		-35.95811	
62.3125	2477.709		-35.82252	
62.36661	2475.793		-35.6797	
62.42072	2473.873		-35.52946	
62.47483	2471.95		-35.37162	
62.52893	2470.031		-35.20604	
62.58304	2468.124		-35.03256	
62.63715	2466.231		-34.85108	
62.69125	2464.358		-34.6615	
62.74536	2462.505		-34.4637	
62.79947	2460.674		-34.25761	
62.85358	2458.866		-34.04313	
62.90768	2457.066		-33.82018	
62.96179	2455.264		-33.58866	
63.0159	2453.453		-33.34848	
63.07001	2451.634		-33.09953	
63.12411	2449.813		-32.84166	
63.17822	2447.999		-32.57465	
63.23233	2446.199		-32.29829	
63.28644	2444.416		-32.01228	
63.34055	2442.647		-31.71627	
63.39465	2440.892		-31.40986	
63.44876	2439.142		-31.09258	
63.50286	2437.386		-30.76392	
63.55697	2435.619		-30.42327	
63.61108	2433.845		-30.07006	
63.66519	2432.075		-29.70368	
63.7193	2430.318		-29.32346	
63.7734	2428.582		-28.9287	
63.82751	2426.865		-28.51864	
63.88162	2425.168		-28.09249	
63.93573	2423.49		-27.64944	
63.98983	2421.835		-27.18871	
64.04394	2420.206		-26.70954	
64.09805	2418.604		-26.21109	
64.15215	2417.031		-25.69262	
64.20626	2415.485		-25.15338	
64.26037	2413.969		-24.59261	
64.31448	2412.49		-24.00951	
64.36858	2411.045		-23.40329	
64.42269	2409.627		-22.77314	
64.4768	2408.227		-22.11825	
64.53091	2406.834		-21.43772	
64.58501	2405.439		-20.73071	
64.63912	2404.04		-19.99626	
64.69323	2402.64		-19.23336	
64.74734	2401.251		-18.44094	
64.80145	2399.892		-17.61789	
64.85555	2398.574		-16.76302	
64.90966	2397.315		-15.87512	
64.96377	2396.125		-14.95298	
65.01788	2395.01		-13.99538	
65.07198	2393.96		-13.00112	
65.12609	2392.967		-11.969	
65.1802	2392.025		-10.89783	
65.23431	2391.127		-9.786435	
65.28841	2390.27		-8.633649	
65.34252	2389.459		-7.438362	
65.39663	2388.704		-6.19943	
65.45074	2388.012		-4.915733	
65.50484	2387.39		-3.586344	
65.55894	2386.842		-2.209797	
65.61305	2386.376		-0.7852072	
65.66716	2386.003		0.6884957	
65.72127	2385.733		2.2124	
65.77538	2385.569		3.787617	
65.82948	2385.513		5.415282	
65.88359	2385.561		7.096552	
65.9377	2385.702		8.832575	
65.99181	2385.927		10.62449	
66.04591	2386.228		12.47342	
66.10002	2386.595		14.38043	
66.15413	2387.015		16.34666	
66.20824	2387.477		18.37313	
66.26234	2387.986		20.4609	
66.31645	2388.552		22.61102	
66.37056	2389.19		24.82456	
66.42467	2389.917		27.10255	
66.47878	2390.747		29.44603	
66.53288	2391.69		31.85601	
66.58699	2392.756		34.33355	
66.6411	2393.954		36.87978	
66.69521	2395.29		39.49581	
66.74931	2396.769		42.18295	
66.80342	2398.396		44.9425	
66.85753	2400.174		47.77587	
66.91164	2402.105		50.68444	
66.96574	2404.191		53.66968	
67.01985	2406.435		56.73304	
67.07395	2408.843		59.87555	
67.12806	2411.435		63.09956	
67.18217	2414.225		66.40602	
67.23627	2417.22		69.79629	
67.29038	2420.42		73.27165	
67.34449	2423.825		76.83332	
67.3986	2427.431		80.48241	
67.45271	2431.238		84.22001	
67.50681	2435.241		88.04705	
67.56092	2439.442		91.96445	
67.61503	2443.839		95.97305	
67.66914	2448.431		100.0736	
67.72324	2453.22		104.267	
67.77735	2458.211		108.5541	
67.83146	2463.416		112.9355	
67.88557	2468.845		117.4122	
67.93967	2474.507		121.9849	
67.99378	2480.411		126.6544	
68.04789	2486.563		131.4213	
68.102	2492.963		136.2864	
68.15611	2499.606		141.25	
68.21021	2506.491		146.3126	
68.26432	2513.622		151.4745	
68.31843	2521.006		156.7357	
68.37254	2528.662		162.0964	
68.42664	2536.615		167.5563	
68.48075	2544.877		173.1151	
68.53486	2553.452		178.7725	
68.58897	2562.343		184.5279	
68.64307	2571.545		190.3806	
68.69717	2581.059		196.329	
68.75128	2590.901		202.3738	
68.80539	2601.092		208.5132	
68.8595	2611.656		214.7461	
68.9136	2622.611		221.0712	
68.96771	2633.952		227.4874	
69.02182	2645.67		233.9933	
69.07593	2657.76		240.5873	
69.13004	2670.221		247.2678	
69.18414	2683.056		254.0331	
69.23825	2696.276		260.881	
69.29236	2709.894		267.8091	
69.34647	2723.921		274.8149	
69.40057	2738.356		281.8952	
69.45468	2753.2		289.0465	
69.50879	2768.451		296.2651	
69.5629	2784.108		303.5466	
69.617	2800.168		310.8864	
69.67111	2816.633		318.2792	
69.72522	2833.501		325.7192	
69.77933	2850.775		333.2003	
69.83344	2868.462		340.7156	
69.88754	2886.568		348.2578	
69.94165	2905.106		355.8188	
69.99576	2924.092		363.3901	
70.04987	2943.542		370.9624	
70.10397	2963.473		378.5256	
70.15808	2983.896		386.069	
70.21219	3004.824		393.5811	
70.26629	3026.257		401.0487	
70.3204	3048.21		408.461	
70.3745	3070.691		415.8032	
70.42861	3093.702		423.0611	
70.48272	3117.242		430.2198	
70.53683	3141.307		437.264	
70.59093	3165.892		444.1777	
70.64504	3190.977		450.9445	
70.69915	3216.538		457.5476	
70.75326	3242.559		463.9702	
70.80737	3269.034		470.1948	
70.86147	3295.966		476.2046	
70.91558	3323.362		481.9819	
70.96969	3351.226		487.5101	
71.0238	3379.572		492.7724	
71.0779	3408.404		497.7528	
71.13201	3437.712		502.4357	
71.18612	3467.477		506.8062	
71.24023	3497.681		510.8502	
71.29433	3528.316		514.5541	
71.34844	3559.376		517.9062	
71.40255	3590.858		520.8948	
71.45666	3622.752		523.5098	
71.51077	3655.042		525.7422	
71.56487	3687.713		527.584	
71.61898	3720.756		529.0286	
71.67309	3754.16		530.0706	
71.7272	3787.909		530.7058	
71.7813	3821.978		530.9312	
71.83541	3856.337		530.745	
71.88951	3890.953		530.1469	
71.94362	3925.806		529.1375	
71.99773	3960.861		527.7186	
72.05183	3996.078		525.8934	
72.10594	4031.402		523.6661	
72.16005	4066.769		521.0417	
72.21416	4102.108		518.0265	
72.26826	4137.351		514.6276	
72.32237	4172.419		510.853	
72.37648	4207.236		506.7115	
72.43059	4241.727		502.2125	
72.4847	4275.825		497.3667	
72.5388	4309.459		492.1838	
72.59291	4342.559		486.6754	
72.64702	4375.046		480.8531	
72.70113	4406.849		474.729	
72.75523	4437.902		468.3153	
72.80934	4468.149		461.6246	
72.86345	4497.538		454.6694	
72.91756	4526.03		447.4634	
72.97166	4553.592		440.0196	
73.02577	4580.196		432.3517	
73.07988	4605.827		424.4734	
73.13399	4630.465		416.3991	
73.1881	4654.087		408.1431	
73.2422	4676.677		399.7205	
73.29631	4698.221		391.1461	
73.35042	4718.726		382.4356	
73.40453	4738.213		373.6046	
73.45863	4756.706		364.6705	
73.51273	4774.237		355.6471	
73.56684	4790.841		346.5525	
73.62095	4806.559		337.4036	
73.67506	4821.445		328.2176	
73.72916	4835.558		319.0121	
73.78327	4848.952		309.8047	
73.83738	4861.671		300.6128	
73.89149	4873.748		291.4541	
73.94559	4885.22		282.3459	
73.9997	4896.133		273.3054	
74.05381	4906.531		264.3491	
74.10792	4916.442		255.494	
74.16203	4925.893		246.7559	
74.21613	4934.91		238.1503	
74.27024	4943.528		229.6919	
74.32435	4951.778		221.3949	
74.37846	4959.681		213.2725	
74.43256	4967.265		205.337	
74.48667	4974.554		197.5999	
74.54078	4981.581		190.0708	
74.59489	4988.371		182.759	
74.64899	4994.941		175.672	
74.7031	5001.308		168.8162	
74.75721	5007.476		162.1964	
74.81132	5013.449		155.8161	
74.86543	5019.234		149.6776	
74.91953	5024.831		143.7816	
74.97364	5030.225		138.1276	
75.02775	5035.416		132.7137	
75.08185	5040.419		127.5377	
75.13596	5045.256		122.594	
75.19006	5049.948		117.8782	
75.24417	5054.504		113.3843	
75.29828	5058.923		109.1052	
75.35239	5063.205		105.0335	
75.40649	5067.355		101.161	
75.4606	5071.378		97.47921	
75.51471	5075.284		93.97919	
75.56882	5079.073		90.65204	
75.62292	5082.746		87.4888	
75.67703	5086.303		84.48055	
75.73114	5089.746		81.61888	
75.78525	5093.068		78.89525	
75.83936	5096.255		76.30149	
75.89346	5099.303		73.82977	
75.94757	5102.226		71.47259	
76.00168	5105.047		69.22285	
76.05579	5107.793		67.07392	
76.10989	5110.487		65.01938	
76.164	5113.15		63.05346	
76.21811	5115.8		61.17077	
76.27222	5118.456		59.36634	
76.32632	5121.128		57.63561	
76.38043	5123.812		55.97445	
76.43454	5126.489		54.37905	
76.48865	5129.142		52.8459	
76.54276	5131.764		51.37176	
76.59686	5134.355		49.9536	
76.65096	5136.913		48.58878	
76.70507	5139.436		47.27428	
76.75918	5141.93		46.00777	
76.81329	5144.418		44.78687	
76.86739	5146.917		43.60926	
76.9215	5149.428		42.47276	
76.97561	5151.937		41.3752	
77.02972	5154.425		40.31443	
77.08382	5156.874		39.28829	
77.13793	5159.254		38.29461	
77.19204	5161.535		37.33116	
77.24615	5163.684		36.39567	
77.30025	5165.68		35.48593	
77.35436	5167.509		34.59969	
77.40847	5169.168		33.73478	
77.46258	5170.667		32.88913	
77.51669	5172.009		32.06082	
77.57079	5173.199		31.24813	
77.6249	5174.254		30.44952	
77.67901	5175.209		29.66367	
77.73312	5176.103		28.88943	
77.78722	5176.96		28.12596	
77.84133	5177.804		27.37268	
77.89544	5178.652		26.62933	
77.94955	5179.517		25.89583	
78.00365	5180.397		25.17234	
78.05776	5181.29		24.45923	
78.11187	5182.19		23.75709	
78.16598	5183.106		23.06671	
78.22009	5184.041		22.38906	
78.27419	5184.997		21.72531	
78.32829	5185.98		21.07651	
78.3824	5187.004		20.44409	
78.43651	5188.067		19.82947	
78.49062	5189.168		19.2341	
78.54472	5190.302		18.65946	
78.59883	5191.462		18.10702	
78.65294	5192.645		17.57822	
78.70705	5193.838		17.07448	
78.76115	5195.023		16.59714	
78.81526	5196.179		16.14748	
78.86937	5197.297		15.72671	
78.92348	5198.366		15.33607	
78.97758	5199.368		14.97664	
79.03169	5200.292		14.64943	
79.0858	5201.133		14.35529	
79.13991	5201.887		14.09484	
79.19402	5202.542		13.8685	
79.24812	5203.091		13.67654	
79.30223	5203.533		13.51896	
79.35634	5203.878		13.39567	
79.41045	5204.154		13.3064	
79.46455	5204.391		13.25074	
79.51866	5204.606		13.22821	
79.57277	5204.813		13.23819	
79.62688	5205.013		13.28	
79.68098	5205.204		13.3529	
79.73509	5205.375		13.45611	
79.7892	5205.525		13.58883	
79.8433	5205.658		13.75018	
79.89741	5205.782		13.93926	
79.95152	5205.902		14.15501	
80.00562	5206.027		14.39631	
80.05973	5206.167		14.66199	
80.11384	5206.348		14.95083	
80.16795	5206.585		15.2616	
80.22205	5206.898		15.59302	
80.27616	5207.281		15.94378	
80.33027	5207.734		16.31256	
80.38438	5208.253		16.69802	
80.43848	5208.841		17.09874	
80.49259	5209.475		17.51333	
80.5467	5210.129		17.94026	
80.60081	5210.785		18.37797	
80.65491	5211.443		18.82485	
80.70902	5212.105		19.27921	
80.76313	5212.777		19.73935	
80.81724	5213.466		20.20355	
80.87135	5214.192		20.67012	
80.92545	5214.976		21.13732	
80.97956	5215.84		21.6034	
81.03367	5216.801		22.06661	
81.08778	5217.884		22.52516	
81.14188	5219.1		22.97721	
81.19599	5220.447		23.42096	
81.2501	5221.905		23.85457	
81.30421	5223.453		24.2762	
81.35831	5225.063		24.684	
81.41242	5226.721		25.07617	
81.46652	5228.422		25.45089	
81.52063	5230.174		25.80661	
81.57474	5231.993		26.14169	
81.62885	5233.891		26.45467	
81.68295	5235.868		26.74421	
81.73706	5237.924		27.00906	
81.79117	5240.067		27.24808	
81.84528	5242.304		27.46017	
81.89938	5244.634		27.64429	
81.95349	5247.05		27.79944	
82.0076	5249.545		27.92467	
82.06171	5252.104		28.01913	
82.11581	5254.704		28.08192	
82.16992	5257.32		28.11234	
82.22403	5259.926		28.10967	
82.27814	5262.492		28.07324	
82.33224	5264.994		28.00245	
82.38635	5267.412		27.89668	
82.44046	5269.728		27.75531	
82.49457	5271.92		27.57788	
82.54868	5273.983		27.36383	
82.60278	5275.918		27.11271	
82.65689	5277.743		26.82408	
82.711	5279.474		26.49763	
82.76511	5281.13		26.13316	
82.81921	5282.719		25.73062	
82.87332	5284.251		25.2901	
82.92743	5285.73		24.81172	
82.98154	5287.158		24.29574	
83.03564	5288.523		23.74258	
83.08974	5289.828		23.15252	
83.14385	5291.062		22.52617	
83.19796	5292.224		21.8641	
83.25207	5293.312		21.16694	
83.30618	5294.333		20.43542	
83.36028	5295.292		19.67035	
83.41439	5296.2		18.87262	
83.4685	5297.054		18.04323	
83.52261	5297.865		17.18332	
83.57671	5298.645		16.29409	
83.63082	5299.417		15.37689	
83.68493	5300.189		14.43307	
83.73904	5300.972		13.46413	
83.79314	5301.757		12.47158	
83.84725	5302.536		11.45698	
83.90136	5303.286		10.42187	
83.95547	5303.994		9.367818	
84.00957	5304.638		8.296379	
84.06368	5305.206		7.209098	
84.11779	5305.682		6.107515	
84.1719	5306.064		4.993104	
84.22601	5306.352		3.867272	
84.28011	5306.561		2.731326	
84.33422	5306.702		1.586422	
84.38833	5306.796		0.4335662	
84.44244	5306.849		-0.7263972	
84.49654	5306.871		-1.892774	
84.55065	5306.862		-3.065039	
84.60476	5306.818		-4.242816	
84.65886	5306.724		-5.425688	
84.71297	5306.57		-6.613798	
84.76707	5306.344		-7.806845	
84.82118	5306.042		-9.004702	
84.87529	5305.664		-10.20725	
84.9294	5305.22		-11.41433	
84.98351	5304.715		-12.62578	
85.03761	5304.162		-13.84143	
85.09172	5303.558		-15.06112	
85.14583	5302.901		-16.28474	
85.19994	5302.184		-17.51224	
85.25404	5301.409		-18.74354	
85.30815	5300.586		-19.97864	
85.36226	5299.722		-21.21752	
85.41637	5298.809		-22.46016	
85.47047	5297.82		-23.70652	
85.52458	5296.722		-24.95652	
85.57869	5295.481		-26.20997	
85.6328	5294.074		-27.4666	
85.6869	5292.492		-28.72604	
85.74101	5290.741		-29.98781	
85.79512	5288.835		-31.25134	
85.84923	5286.793		-32.51599	
85.90334	5284.64		-33.78101	
85.95744	5282.403		-35.04552	
86.01155	5280.108		-36.3086	
86.06566	5277.783		-37.56919	
86.11977	5275.443		-38.8262	
86.17387	5273.097		-40.0785	
86.22797	5270.732		-41.32477	
86.28208	5268.326		-42.56419	
86.33619	5265.847		-43.79538	
86.3903	5263.275		-45.01712	
86.4444	5260.593		-46.22818	
86.49851	5257.809		-47.42733	
86.55262	5254.935		-48.61337	
86.60673	5251.994		-49.7851	
86.66084	5249.007		-50.94137	
86.71494	5245.993		-52.08107	
86.76905	5242.953		-53.2031	
86.82316	5239.889		-54.30637	
86.87727	5236.803		-55.38977	
86.93137	5233.7		-56.45224	
86.98548	5230.575		-57.49274	
87.03959	5227.424		-58.51029	
87.0937	5224.228		-59.50393	
87.1478	5220.963		-60.47276	
87.20191	5217.596		-61.41595	
87.25602	5214.112		-62.33271	
87.31013	5210.499		-63.22247	
87.36423	5206.764		-64.08464	
87.41834	5202.919		-64.91883	
87.47245	5199.003		-65.72477	
87.52656	5195.032		-66.50231	
87.58067	5191.023		-67.25144	
87.63477	5186.976		-67.97231	
87.68888	5182.9		-68.66515	
87.74299	5178.794		-69.33038	
87.7971	5174.659		-69.96853	
87.8512	5170.479		-70.58014	
87.9053	5166.252		-71.16608	
87.95941	5161.965		-71.727	
88.01352	5157.623		-72.2636	
88.06763	5153.228		-72.77664	
88.12173	5148.807		-73.26688	
88.17584	5144.379		-73.73513	
88.22995	5139.972		-74.18228	
88.28406	5135.591		-74.60926	
88.33817	5131.246		-75.0171	
88.39227	5126.92		-75.4069	
88.44638	5122.602		-75.77985	
88.50049	5118.271		-76.13713	
88.5546	5113.913		-76.48005	
88.6087	5109.508		-76.80991	
88.66281	5105.056		-77.12807	
88.71692	5100.554		-77.43583	
88.77103	5096.014		-77.73454	
88.82513	5091.451		-78.02555	
88.87924	5086.891		-78.31028	
88.93335	5082.347		-78.59009	
88.98746	5077.838		-78.86635	
89.04156	5073.379		-79.14039	
89.09567	5068.979		-79.41349	
89.14978	5064.636		-79.68684	
89.20389	5060.344		-79.96157	
89.258	5056.089		-80.23871	
89.3121	5051.864		-80.51917	
89.36621	5047.646		-80.80373	
89.42031	5043.423		-81.09303	
89.47442	5039.18		-81.38773	
89.52853	5034.914		-81.68826	
89.58263	5030.626		-81.99501	
89.63674	5026.329		-82.30832	
89.69085	5022.042		-82.62846	
89.74496	5017.785		-82.95561	
89.79906	5013.569		-83.28993	
89.85317	5009.404		-83.63148	
89.90728	5005.293		-83.9802	
89.96139	5001.233		-84.3359	
90.0155	4997.204		-84.69823	
90.0696	4993.185		-85.06676	
90.12371	4989.147		-85.44088	
90.17782	4985.062		-85.81988	
90.23193	4980.902		-86.20304	
90.28603	4976.652		-86.58963	
90.34014	4972.31		-86.97894	
90.39425	4967.885		-87.37032	
90.44836	4963.405		-87.76316	
90.50246	4958.893		-88.15691	
90.55657	4954.379		-88.55109	
90.61068	4949.876		-88.94529	
90.66479	4945.378		-89.33913	
90.71889	4940.858		-89.73235	
90.773	4936.292		-90.12468	
90.82711	4931.65		-90.51597	
90.88122	4926.903		-90.90607	
90.93533	4922.024		-91.29485	
90.98943	4917.012		-91.68214	
91.04353	4911.868		-92.06771	
91.09764	4906.605		-92.45145	
91.15175	4901.24		-92.83305	
91.20586	4895.794		-93.2122	
91.25996	4890.287		-93.58854	
91.31407	4884.728		-93.96165	
91.36818	4879.12		-94.33109	
91.42229	4873.473		-94.69644	
91.47639	4867.789		-95.05727	
91.5305	4862.08		-95.41311	
91.58461	4856.346		-95.76334	
91.63872	4850.6		-96.10724	
91.69283	4844.833		-96.44398	
91.74693	4839.038		-96.77263	
91.80104	4833.198		-97.09225	
91.85515	4827.325		-97.40182	
91.90926	4821.427		-97.70034	
91.96336	4815.536		-97.98679	
92.01747	4809.676		-98.26014	
92.07158	4803.885		-98.51948	
92.12569	4798.183		-98.76384	
92.17979	4792.583		-98.99237	
92.2339	4787.075		-99.20428	
92.28801	4781.656		-99.3989	
92.34212	4776.299		-99.57563	
92.39622	4770.987		-99.734	
92.45033	4765.688		-99.74642	
92.50444	4760.387		-99.75175	
92.55855	4755.068		-99.75164	
92.61265	4749.74		-99.74747	
92.66676	4744.405		-99.74021	
92.72086	4739.084		-99.73042	
92.77497	4733.783		-99.71841	
92.82908	4728.505		-99.70433	
92.88319	4723.24		-99.68826	
92.93729	4717.98		-99.67023	
92.9914	4712.704		-99.65026	
93.04551	4707.406		-99.6284	
93.09962	4702.075		-99.60466	
93.15372	4696.724		-99.5791	
93.20783	4691.364		-99.55178	
93.26194	4686.007		-99.52275	
93.31605	4680.634		-99.49209	
93.37016	4675.238		-99.45986	
93.42426	4669.804		-99.42613	
93.47837	4664.339		-99.39096	
93.53248	4658.846		-99.35441	
93.58659	4653.351		-99.31653	
93.64069	4647.864		-99.27738	
93.6948	4642.393		-99.23702	
93.74891	4636.947		-99.1955	
93.80302	4631.548		-99.15285	
93.85712	4626.186		-99.10915	
93.91123	4620.84		-99.06441	
93.96534	4615.473		-99.0187	
94.01945	4610.065		-98.97203	
94.07355	4604.622		-98.92442	
94.12766	4599.167		-98.87592	
94.18177	4593.809		-98.82652	
94.23587	4588.521		-98.77625	
94.28998	4583.277		-98.72513	
94.34409	4578.062		-98.67318	
94.39819	4572.868		-98.62044	
94.4523	4567.687		-98.56692	
94.50641	4562.516		-98.51265	
94.56052	4557.349		-98.45766	
94.61462	4552.186		-98.40198	
94.66873	4547.024		-98.34563	
94.72284	4541.863		-98.28864	
94.77695	4536.7		-98.23103	
94.83105	4531.535		-98.17284	
94.88516	4526.369		-98.1141	
94.93927	4521.207		-98.05482	
94.99338	4516.052		-97.99504	
