T[Â°C]	350nm [counts / mm]	S.D.	First derivative	S.D. of first derivative
20.00051	4055.651		-58.64989	
20.05462	4052.419		-58.61732	
20.10873	4049.194		-58.58486	
20.16283	4045.975		-58.55252	
20.21694	4042.762		-58.52032	
20.27105	4039.553		-58.48824	
20.32516	4036.346		-58.4563	
20.37926	4033.141		-58.42451	
20.43337	4029.935		-58.39287	
20.48748	4026.729		-58.36139	
20.54159	4023.522		-58.33006	
20.59569	4020.315		-58.2989	
20.6498	4017.108		-58.26791	
20.70391	4013.904		-58.2371	
20.75801	4010.705		-58.20646	
20.81212	4007.516		-58.17601	
20.86623	4004.35		-58.14573	
20.92034	4001.234		-58.11563	
20.97445	3998.186		-58.08572	
21.02855	3995.14		-58.05598	
21.08266	3992.085		-58.02641	
21.13677	3989.012		-57.99701	
21.19087	3985.911		-57.96777	
21.24498	3982.778		-57.93869	
21.29909	3979.615		-57.90976	
21.3532	3976.427		-57.88098	
21.4073	3973.222		-57.85235	
21.46141	3970.01		-57.82385	
21.51552	3966.796		-57.79548	
21.56963	3963.586		-57.76722	
21.62373	3960.384		-57.73906	
21.67784	3957.188		-57.71096	
21.73195	3953.998		-57.68292	
21.78606	3950.815		-57.65488	
21.84016	3947.646		-57.6268	
21.89427	3944.498		-57.59864	
21.94838	3941.376		-57.57034	
22.00249	3938.284		-57.54185	
22.05659	3935.218		-57.51309	
22.1107	3932.174		-57.484	
22.16481	3929.147		-57.45451	
22.21891	3926.139		-57.42454	
22.27302	3923.153		-57.39399	
22.32713	3920.19		-57.36281	
22.38124	3917.248		-57.33091	
22.43534	3914.317		-57.29824	
22.48945	3911.385		-57.26477	
22.54356	3908.438		-57.2305	
22.59767	3905.463		-57.19547	
22.65177	3902.457		-57.14204	
22.70588	3899.429		-57.08508	
22.75999	3896.39		-57.02473	
22.8141	3893.347		-56.96122	
22.8682	3890.3		-56.89485	
22.92231	3887.245		-56.82597	
22.97642	3884.178		-56.75498	
23.03053	3881.096		-56.68233	
23.08463	3877.997		-56.60848	
23.13874	3874.877		-56.53395	
23.19285	3871.727		-56.45924	
23.24696	3868.538		-56.38488	
23.30106	3865.308		-56.31136	
23.35517	3862.038		-56.23913	
23.40928	3858.736		-56.16862	
23.46338	3855.413		-56.10017	
23.51749	3852.085		-56.03411	
23.5716	3848.771		-55.97071	
23.62571	3845.48		-55.91019	
23.67982	3842.22		-55.85273	
23.73392	3838.997		-55.79842	
23.78803	3835.815		-55.74732	
23.84214	3832.678		-55.69941	
23.89624	3829.591		-55.65461	
23.95035	3826.554		-55.61277	
24.00446	3823.566		-55.57366	
24.05857	3820.616		-55.53702	
24.11267	3817.697		-55.50252	
24.16678	3814.796		-55.46985	
24.22089	3811.906		-55.43874	
24.275	3809.021		-55.40896	
24.3291	3806.14		-55.38037	
24.38321	3803.266		-55.35289	
24.43732	3800.395		-55.32651	
24.49143	3797.537		-55.30125	
24.54553	3794.701		-55.27716	
24.59964	3791.894		-55.25429	
24.65375	3789.121		-55.23269	
24.70786	3786.379		-55.21243	
24.76196	3783.663		-55.19356	
24.81607	3780.952		-55.17618	
24.87018	3778.225		-55.16032	
24.92429	3775.47		-55.14604	
24.97839	3772.678		-55.13334	
25.0325	3769.847		-55.12223	
25.08661	3766.979		-55.11274	
25.14071	3764.077		-55.10487	
25.19482	3761.151		-55.09871	
25.24893	3758.208		-55.09435	
25.30304	3755.251		-55.09188	
25.35715	3752.284		-55.09141	
25.41125	3749.308		-55.09297	
25.46536	3746.322		-55.09657	
25.51947	3743.327		-55.10218	
25.57357	3740.325		-55.1097	
25.62768	3737.32		-55.11897	
25.68179	3734.315		-55.12978	
25.7359	3731.31		-55.14182	
25.79	3728.301		-55.15473	
25.84411	3725.286		-55.16811	
25.89822	3722.265		-55.18153	
25.95233	3719.239		-55.1945	
26.00643	3716.203		-55.20654	
26.06054	3713.155		-55.21716	
26.11465	3710.097		-55.22585	
26.16876	3707.035		-55.23217	
26.22286	3703.976		-55.23571	
26.27697	3700.926		-55.23613	
26.33108	3697.892		-55.2332	
26.38519	3694.868		-55.22679	
26.43929	3691.839		-55.21684	
26.4934	3688.795		-55.2034	
26.54751	3685.73		-55.18655	
26.60161	3682.646		-55.16644	
26.65572	3679.544		-55.14326	
26.70983	3676.431		-55.11724	
26.76394	3673.309		-55.08865	
26.81804	3670.174		-55.05778	
26.87215	3667.026		-55.02489	
26.92626	3663.868		-54.99025	
26.98037	3660.702		-54.95409	
27.03447	3657.529		-54.91663	
27.08858	3654.354		-54.87811	
27.14269	3651.183		-54.83876	
27.1968	3648.024		-54.79885	
27.2509	3644.884		-54.75861	
27.30501	3641.771		-54.71825	
27.35912	3638.692		-54.67792	
27.41323	3635.652		-54.63773	
27.46733	3632.655		-54.59776	
27.52144	3629.7		-54.55806	
27.57555	3626.779		-54.51865	
27.62966	3623.886		-54.47959	
27.68376	3621.014		-54.44091	
27.73787	3618.153		-54.40269	
27.79198	3615.298		-54.36496	
27.84608	3612.446		-54.32779	
27.90019	3609.607		-54.2912	
27.9543	3606.798		-54.25523	
28.00841	3604.034		-54.2199	
28.06252	3601.323		-54.18522	
28.11662	3598.663		-54.1512	
28.17073	3596.044		-54.11784	
28.22484	3593.448		-54.08515	
28.27894	3590.857		-54.05312	
28.33305	3588.254		-54.02175	
28.38716	3585.62		-53.99108	
28.44127	3582.94		-53.96116	
28.49537	3580.205		-53.93202	
28.54948	3577.417		-53.90372	
28.60359	3574.583		-53.8763	
28.6577	3571.714		-53.84983	
28.7118	3568.823		-53.82442	
28.76591	3565.914		-53.80018	
28.82002	3562.994		-53.77728	
28.87413	3560.07		-53.75588	
28.92823	3557.138		-53.73615	
28.98234	3554.196		-53.71827	
29.03645	3551.249		-53.70238	
29.09056	3548.305		-53.68864	
29.14466	3545.366		-53.67719	
29.19877	3542.424		-53.6681	
29.25288	3539.467		-53.66138	
29.30699	3536.485		-53.65693	
29.36109	3533.467		-53.65458	
29.4152	3530.415		-53.65406	
29.46931	3527.338		-53.65505	
29.52341	3524.246		-53.65721	
29.57752	3521.151		-53.66018	
29.63163	3518.068		-53.66359	
29.68574	3515.014		-53.66709	
29.73985	3512		-53.67035	
29.79395	3509.031		-53.67307	
29.84806	3506.101		-53.67492	
29.90217	3503.199		-53.67561	
29.95627	3500.311		-53.67488	
30.01038	3497.424		-53.67249	
30.06449	3494.523		-53.66822	
30.1186	3491.604		-53.66191	
30.1727	3488.659		-53.65339	
30.22681	3485.69		-53.64245	
30.28092	3482.702		-53.62894	
30.33503	3479.703		-53.61267	
30.38913	3476.698		-53.59354	
30.44324	3473.691		-53.57146	
30.49735	3470.682		-53.54645	
30.55146	3467.673		-53.51859	
30.60556	3464.672		-53.48803	
30.65967	3461.689		-53.45492	
30.71378	3458.736		-53.41948	
30.76789	3455.825		-53.38191	
30.82199	3452.963		-53.34244	
30.8761	3450.146		-53.30131	
30.93021	3447.355		-53.25875	
30.98431	3444.569		-53.21502	
31.03842	3441.777		-53.1704	
31.09253	3438.978		-53.12523	
31.14664	3436.173		-53.07985	
31.20074	3433.365		-53.03465	
31.25485	3430.559		-52.99002	
31.30896	3427.756		-52.94632	
31.36307	3424.958		-52.90392	
31.41717	3422.171		-52.86314	
31.47128	3419.404		-52.82421	
31.52539	3416.664		-52.78734	
31.5795	3413.945		-52.75267	
31.6336	3411.237		-52.72031	
31.68771	3408.523		-52.69036	
31.74182	3405.79		-52.66291	
31.79593	3403.029		-52.63797	
31.85003	3400.235		-52.61551	
31.90414	3397.41		-52.59548	
31.95825	3394.564		-52.57777	
32.01236	3391.708		-52.56223	
32.06646	3388.852		-52.54872	
32.12057	3385.998		-52.53703	
32.17468	3383.141		-52.52697	
32.22879	3380.276		-52.51834	
32.28289	3377.399		-52.51095	
32.337	3374.515		-52.50465	
32.39111	3371.637		-52.49932	
32.44521	3368.78		-52.4949	
32.49932	3365.944		-52.49142	
32.55343	3363.125		-52.48888	
32.60754	3360.319		-52.48734	
32.66164	3357.521		-52.48676	
32.71575	3354.729		-52.48708	
32.76986	3351.942		-52.48812	
32.82397	3349.162		-52.48966	
32.87807	3346.384		-52.49147	
32.93218	3343.601		-52.49327	
32.98629	3340.801		-52.49477	
33.0404	3337.975		-52.49568	
33.09451	3335.115		-52.49569	
33.14861	3332.223		-52.4945	
33.20272	3329.309		-52.49186	
33.25682	3326.385		-52.48754	
33.31093	3323.459		-52.48136	
33.36504	3320.537		-52.47319	
33.41915	3317.618		-52.46294	
33.47326	3314.701		-52.45057	
33.52736	3311.789		-52.43605	
33.58147	3308.884		-52.4194	
33.63558	3305.99		-52.40068	
33.68969	3303.105		-52.38	
33.74379	3300.224		-52.35747	
33.7979	3297.337		-52.33318	
33.85201	3294.434		-52.30719	
33.90612	3291.505		-52.27952	
33.96022	3288.556		-52.25019	
34.01433	3285.604		-52.21917	
34.06844	3282.671		-52.18644	
34.12254	3279.774		-52.15194	
34.17665	3276.921		-52.11568	
34.23076	3274.103		-52.07762	
34.28487	3271.305		-52.03779	
34.33897	3268.517		-51.99625	
34.39308	3265.738		-51.9531	
34.44719	3262.971		-51.90852	
34.5013	3260.219		-51.86271	
34.5554	3257.477		-51.81596	
34.60951	3254.733		-51.76859	
34.66362	3251.978		-51.72091	
34.71773	3249.204		-51.67327	
34.77183	3246.414		-51.62598	
34.82594	3243.616		-51.57932	
34.88005	3240.82		-51.53357	
34.93415	3238.038		-51.48898	
34.98826	3235.273		-51.44574	
35.04237	3232.516		-51.40403	
35.09648	3229.755		-51.36399	
35.15059	3226.982		-51.32571	
35.20469	3224.197		-51.28924	
35.2588	3221.408		-51.25462	
35.31291	3218.625		-51.22185	
35.36702	3215.855		-51.1909	
35.42112	3213.097		-51.1617	
35.47523	3210.348		-51.13418	
35.52934	3207.604		-51.10822	
35.58344	3204.866		-51.08374	
35.63755	3202.141		-51.0606	
35.69166	3199.433		-51.03872	
35.74577	3196.75		-51.018	
35.79987	3194.09		-50.99835	
35.85398	3191.446		-50.97966	
35.90809	3188.797		-50.96181	
35.9622	3186.131		-50.94465	
36.0163	3183.443		-50.92796	
36.07041	3180.739		-50.9115	
36.12452	3178.028		-50.89499	
36.17863	3175.321		-50.8781	
36.23273	3172.617		-50.86048	
36.28684	3169.915		-50.84177	
36.34095	3167.212		-50.82162	
36.39505	3164.507		-50.7997	
36.44916	3161.798		-50.77575	
36.50327	3159.084		-50.74958	
36.55738	3156.368		-50.72112	
36.61148	3153.651		-50.6904	
36.66559	3150.928		-50.65753	
36.7197	3148.199		-50.62267	
36.77381	3145.458		-50.58601	
36.82792	3142.7		-50.54778	
36.88202	3139.92		-50.50822	
36.93613	3137.122		-50.46765	
36.99024	3134.308		-50.42638	
37.04435	3131.48		-50.38481	
37.09845	3128.634		-50.34328	
37.15256	3125.769		-50.30211	
37.20667	3122.887		-50.2616	
37.26077	3119.999		-50.22194	
37.31488	3117.118		-50.18327	
37.36899	3114.254		-50.14566	
37.4231	3111.418		-50.10909	
37.4772	3108.619		-50.07348	
37.53131	3105.85		-50.03871	
37.58542	3103.098		-50.00457	
37.63953	3100.345		-49.97083	
37.69363	3097.579		-49.93725	
37.74774	3094.796		-49.90362	
37.80185	3092.003		-49.86975	
37.85596	3089.209		-49.83548	
37.91006	3086.422		-49.80069	
37.96417	3083.649		-49.76529	
38.01828	3080.892		-49.72921	
38.07238	3078.151		-49.69239	
38.12649	3075.433		-49.65483	
38.1806	3072.747		-49.61651	
38.23471	3070.098		-49.57743	
38.28881	3067.489		-49.53757	
38.34292	3064.922		-49.49695	
38.39703	3062.398		-49.45555	
38.45114	3059.913		-49.41339	
38.50525	3057.456		-49.37057	
38.55935	3055.016		-49.32721	
38.61346	3052.577		-49.28353	
38.66757	3050.131		-49.23976	
38.72168	3047.672		-49.19619	
38.77578	3045.197		-49.15316	
38.82989	3042.698		-49.11102	
38.884	3040.173		-49.07017	
38.9381	3037.62		-49.03109	
38.99221	3035.044		-48.99425	
39.04632	3032.448		-48.96016	
39.10043	3029.831		-48.92928	
39.15453	3027.19		-48.90202	
39.20864	3024.522		-48.87874	
39.26275	3021.826		-48.85967	
39.31686	3019.104		-48.84496	
39.37096	3016.361		-48.83464	
39.42507	3013.61		-48.82862	
39.47918	3010.864		-48.82673	
39.53329	3008.13		-48.82868	
39.58739	3005.409		-48.83414	
39.6415	3002.703		-48.84268	
39.69561	3000.015		-48.85382	
39.74971	2997.339		-48.86705	
39.80382	2994.67		-48.88183	
39.85793	2992.007		-48.89762	
39.91204	2989.356		-48.91393	
39.96614	2986.722		-48.93027	
40.02025	2984.104		-48.94617	
40.07436	2981.501		-48.96122	
40.12847	2978.915		-48.97498	
40.18258	2976.349		-48.98705	
40.23668	2973.802		-48.99702	
40.29079	2971.265		-49.00455	
40.34489	2968.732		-49.00931	
40.399	2966.191		-49.01102	
40.45311	2963.632		-49.00945	
40.50722	2961.046		-49.00443	
40.56133	2958.432		-48.99583	
40.61543	2955.793		-48.98361	
40.66954	2953.129		-48.96776	
40.72365	2950.439		-48.94839	
40.77776	2947.729		-48.92565	
40.83186	2945.006		-48.89978	
40.88597	2942.274		-48.87111	
40.94008	2939.536		-48.84001	
40.99419	2936.793		-48.80692	
41.04829	2934.044		-48.77233	
41.1024	2931.283		-48.73676	
41.15651	2928.505		-48.7007	
41.21061	2925.707		-48.66462	
41.26472	2922.889		-48.6289	
41.31883	2920.055		-48.59387	
41.37294	2917.215		-48.5598	
41.42704	2914.383		-48.52691	
41.48115	2911.569		-48.49535	
41.53526	2908.773		-48.46527	
41.58937	2905.998		-48.43675	
41.64347	2903.254		-48.4098	
41.69758	2900.555		-48.38438	
41.75169	2897.908		-48.36039	
41.8058	2895.318		-48.33767	
41.85991	2892.785		-48.31607	
41.91401	2890.298		-48.29536	
41.96812	2887.841		-48.27534	
42.02222	2885.392		-48.25576	
42.07633	2882.93		-48.23635	
42.13044	2880.44		-48.21682	
42.18455	2877.918		-48.19687	
42.23866	2875.372		-48.17623	
42.29276	2872.825		-48.15463	
42.34687	2870.294		-48.13182	
42.40098	2867.791		-48.10757	
42.45509	2865.319		-48.08166	
42.50919	2862.872		-48.0539	
42.5633	2860.449		-48.02415	
42.61741	2858.045		-47.99229	
42.67152	2855.647		-47.95829	
42.72562	2853.244		-47.92216	
42.77973	2850.828		-47.88396	
42.83384	2848.392		-47.84382	
42.88794	2845.927		-47.80188	
42.94205	2843.426		-47.7583	
42.99616	2840.884		-47.7133	
43.05027	2838.302		-47.66709	
43.10437	2835.683		-47.61991	
43.15848	2833.035		-47.57204	
43.21259	2830.362		-47.52377	
43.2667	2827.674		-47.47541	
43.3208	2824.983		-47.42725	
43.37491	2822.299		-47.3796	
43.42902	2819.631		-47.33273	
43.48313	2816.988		-47.28689	
43.53723	2814.37		-47.24228	
43.59134	2811.768		-47.19904	
43.64545	2809.168		-47.15727	
43.69955	2806.563		-47.11702	
43.75366	2803.949		-47.07831	
43.80777	2801.323		-47.04113	
43.86188	2798.688		-47.00546	
43.91599	2796.046		-46.97124	
43.97009	2793.403		-46.93842	
44.0242	2790.762		-46.90691	
44.07831	2788.121		-46.87662	
44.13242	2785.475		-46.84743	
44.18652	2782.82		-46.81924	
44.24063	2780.161		-46.79192	
44.29474	2777.507		-46.76537	
44.34884	2774.87		-46.73946	
44.40295	2772.26		-46.71405	
44.45706	2769.681		-46.68901	
44.51117	2767.135		-46.66415	
44.56527	2764.615		-46.63928	
44.61938	2762.112		-46.61417	
44.67349	2759.615		-46.58858	
44.7276	2757.117		-46.56229	
44.7817	2754.617		-46.53506	
44.83581	2752.117		-46.50668	
44.88992	2749.625		-46.47695	
44.94403	2747.152		-46.44567	
44.99813	2744.702		-46.41264	
45.05224	2742.278		-46.37773	
45.10635	2739.878		-46.34084	
45.16045	2737.496		-46.30196	
45.21456	2735.125		-46.26115	
45.26867	2732.766		-46.21856	
45.32278	2730.414		-46.17441	
45.37688	2728.068		-46.12898	
45.43099	2725.736		-46.08259	
45.4851	2723.417		-46.03557	
45.53921	2721.106		-45.98825	
45.59332	2718.786		-45.94098	
45.64742	2716.446		-45.89412	
45.70153	2714.077		-45.84802	
45.75564	2711.674		-45.80304	
45.80975	2709.242		-45.75952	
45.86385	2706.785		-45.71783	
45.91796	2704.314		-45.67828	
45.97206	2701.829		-45.64117	
46.02617	2699.336		-45.60672	
46.08028	2696.84		-45.5751	
46.13439	2694.338		-45.54645	
46.1885	2691.824		-45.52082	
46.2426	2689.292		-45.49825	
46.29671	2686.736		-45.47872	
46.35082	2684.157		-45.4622	
46.40493	2681.558		-45.44859	
46.45903	2678.95		-45.43768	
46.51314	2676.345		-45.4292	
46.56725	2673.748		-45.4228	
46.62136	2671.167		-45.41803	
46.67546	2668.609		-45.4144	
46.72957	2666.076		-45.41138	
46.78368	2663.561		-45.40845	
46.83778	2661.053		-45.4051	
46.89189	2658.55		-45.40081	
46.946	2656.047		-45.3951	
47.00011	2653.547		-45.38747	
47.05421	2651.058		-45.37745	
47.10832	2648.589		-45.36463	
47.16243	2646.146		-45.34862	
47.21654	2643.732		-45.32914	
47.27065	2641.344		-45.30598	
47.32475	2638.972		-45.27905	
47.37886	2636.609		-45.24834	
47.43297	2634.251		-45.21394	
47.48708	2631.9		-45.17603	
47.54118	2629.563		-45.1349	
47.59529	2627.244		-45.09086	
47.64939	2624.938		-45.04434	
47.7035	2622.635		-44.99576	
47.75761	2620.317		-44.94564	
47.81172	2617.968		-44.89451	
47.86583	2615.58		-44.84296	
47.91993	2613.147		-44.7916	
47.97404	2610.67		-44.74103	
48.02815	2608.156		-44.69186	
48.08226	2605.613		-44.64466	
48.13636	2603.048		-44.59995	
48.19047	2600.473		-44.55816	
48.24458	2597.899		-44.51967	
48.29869	2595.328		-44.48474	
48.35279	2592.76		-44.45355	
48.4069	2590.2		-44.42618	
48.46101	2587.655		-44.40261	
48.51511	2585.126		-44.38274	
48.56922	2582.616		-44.36635	
48.62333	2580.13		-44.35316	
48.67744	2577.672		-44.34282	
48.73154	2575.247		-44.33493	
48.78565	2572.865		-44.32902	
48.83976	2570.528		-44.32462	
48.89387	2568.232		-44.32122	
48.94798	2565.97		-44.31837	
49.00208	2563.734		-44.3156	
49.05619	2561.518		-44.3125	
49.1103	2559.319		-44.30866	
49.1644	2557.133		-44.30374	
49.21851	2554.96		-44.29743	
49.27262	2552.799		-44.28944	
49.32673	2550.645		-44.27955	
49.38083	2548.489		-44.26754	
49.43494	2546.323		-44.25325	
49.48905	2544.134		-44.23655	
49.54316	2541.911		-44.21736	
49.59726	2539.65		-44.19562	
49.65137	2537.354		-44.17134	
49.70548	2535.023		-44.14457	
49.75959	2532.655		-44.11542	
49.81369	2530.248		-44.08405	
49.8678	2527.802		-44.0507	
49.92191	2525.32		-44.01564	
49.97601	2522.806		-43.97916	
50.03012	2520.267		-43.94157	
50.08423	2517.707		-43.90322	
50.13834	2515.134		-43.86441	
50.19244	2512.561		-43.82546	
50.24655	2510		-43.78663	
50.30066	2507.455		-43.74816	
50.35477	2504.925		-43.71021	
50.40887	2502.405		-43.67291	
50.46298	2499.889		-43.63633	
50.51709	2497.375		-43.60046	
50.5712	2494.866		-43.56528	
50.62531	2492.357		-43.53073	
50.67941	2489.848		-43.49666	
50.73352	2487.35		-43.46293	
50.78762	2484.871		-43.42933	
50.84173	2482.419		-43.39568	
50.89584	2480.001		-43.36176	
50.94995	2477.621		-43.32742	
51.00406	2475.279		-43.29256	
51.05816	2472.971		-43.25712	
51.11227	2470.694		-43.22111	
51.16638	2468.441		-43.18454	
51.22049	2466.204		-43.14745	
51.27459	2463.976		-43.10986	
51.3287	2461.75		-43.07177	
51.38281	2459.521		-43.03316	
51.43692	2457.289		-42.994	
51.49102	2455.043		-42.95427	
51.54513	2452.775		-42.91392	
51.59924	2450.485		-42.87291	
51.65334	2448.174		-42.83121	
51.70745	2445.845		-42.78878	
51.76156	2443.509		-42.74555	
51.81567	2441.177		-42.70148	
51.86977	2438.86		-42.65653	
51.92388	2436.563		-42.61063	
51.97799	2434.286		-42.56377	
52.0321	2432.031		-42.51598	
52.0862	2429.793		-42.46732	
52.14031	2427.567		-42.4179	
52.19442	2425.346		-42.36788	
52.24853	2423.125		-42.31744	
52.30264	2420.903		-42.26676	
52.35674	2418.68		-42.21603	
52.41085	2416.456		-42.16543	
52.46495	2414.24		-42.11518	
52.51906	2412.046		-42.06549	
52.57317	2409.875		-42.01661	
52.62728	2407.729		-41.9688	
52.68139	2405.603		-41.92232	
52.73549	2403.491		-41.87745	
52.7896	2401.38		-41.83446	
52.84371	2399.262		-41.79358	
52.89782	2397.132		-41.75503	
52.95192	2394.987		-41.71901	
53.00603	2392.821		-41.68571	
53.06014	2390.625		-41.65532	
53.11424	2388.387		-41.62799	
53.16835	2386.095		-41.60386	
53.22246	2383.745		-41.583	
53.27657	2381.339		-41.56543	
53.33067	2378.889		-41.55114	
53.38478	2376.407		-41.54008	
53.43889	2373.91		-41.53214	
53.493	2371.406		-41.52714	
53.5471	2368.904		-41.52481	
53.60121	2366.409		-41.52477	
53.65532	2363.929		-41.52655	
53.70943	2361.472		-41.52956	
53.76353	2359.048		-41.53313	
53.81764	2356.667		-41.5365	
53.87175	2354.332		-41.53888	
53.92585	2352.035		-41.53945	
53.97996	2349.769		-41.53738	
54.03407	2347.532		-41.53188	
54.08818	2345.326		-41.52219	
54.14228	2343.155		-41.5076	
54.19639	2341.029		-41.48752	
54.2505	2338.95		-41.46145	
54.30461	2336.915		-41.429	
54.35872	2334.91		-41.38992	
54.41282	2332.921		-41.3441	
54.46693	2330.937		-41.29156	
54.52104	2328.948		-41.23249	
54.57515	2326.943		-41.16719	
54.62925	2324.913		-41.0961	
54.68336	2322.854		-41.01977	
54.73746	2320.76		-40.93884	
54.79157	2318.627		-40.85405	
54.84568	2316.456		-40.76619	
54.89979	2314.248		-40.67611	
54.9539	2312.007		-40.58475	
55.008	2309.738		-40.49308	
55.06211	2307.443		-40.40212	
55.11622	2305.121		-40.31287	
55.17033	2302.766		-40.22629	
55.22443	2300.379		-40.14329	
55.27854	2297.965		-40.06472	
55.33265	2295.529		-39.99138	
55.38676	2293.084		-39.92396	
55.44086	2290.643		-39.86306	
55.49497	2288.214		-39.80914	
55.54908	2285.797		-39.76252	
55.60318	2283.392		-39.72335	
55.65729	2280.999		-39.6916	
55.7114	2278.625		-39.66705	
55.76551	2276.283		-39.64932	
55.81961	2273.986		-39.63784	
55.87372	2271.749		-39.63194	
55.92783	2269.578		-39.6308	
55.98194	2267.476		-39.63352	
56.03605	2265.44		-39.6391	
56.09015	2263.467		-39.64648	
56.14426	2261.551		-39.65461	
56.19837	2259.682		-39.66247	
56.25248	2257.854		-39.66908	
56.30658	2256.063		-39.67362	
56.36069	2254.3		-39.67534	
56.41479	2252.558		-39.67365	
56.4689	2250.828		-39.66802	
56.52301	2249.098		-39.65808	
56.57712	2247.355		-39.64352	
56.63123	2245.586		-39.62415	
56.68533	2243.775		-39.59988	
56.73944	2241.91		-39.57077	
56.79355	2239.986		-39.53697	
56.84766	2238.005		-39.49878	
56.90176	2235.97		-39.45657	
56.95587	2233.892		-39.41088	
57.00998	2231.776		-39.36231	
57.06409	2229.628		-39.31154	
57.11819	2227.452		-39.2593	
57.1723	2225.253		-39.20628	
57.22641	2223.03		-39.15323	
57.28051	2220.775		-39.10083	
57.33462	2218.478		-39.04972	
57.38873	2216.137		-39.00048	
57.44284	2213.755		-38.95365	
57.49694	2211.332		-38.90962	
57.55105	2208.872		-38.86871	
57.60516	2206.39		-38.8311	
57.65927	2203.906		-38.79684	
57.71338	2201.442		-38.76588	
57.76748	2199.014		-38.73803	
57.82159	2196.631		-38.71302	
57.8757	2194.294		-38.69054	
57.9298	2192		-38.67016	
57.98391	2189.749		-38.6514	
58.03802	2187.542		-38.63368	
58.09212	2185.377		-38.61639	
58.14623	2183.246		-38.5989	
58.20034	2181.139		-38.58055	
58.25445	2179.054		-38.56076	
58.30856	2176.991		-38.53898	
58.36266	2174.948		-38.51474	
58.41677	2172.922		-38.48762	
58.47088	2170.908		-38.45724	
58.52499	2168.905		-38.42329	
58.57909	2166.916		-38.38556	
58.6332	2164.942		-38.34393	
58.68731	2162.985		-38.2984	
58.74141	2161.041		-38.24907	
58.79552	2159.104		-38.19611	
58.84963	2157.167		-38.1398	
58.90374	2155.225		-38.08044	
58.95784	2153.274		-38.01842	
59.01195	2151.312		-37.95414	
59.06606	2149.337		-37.88802	
59.12017	2147.356		-37.82053	
59.17427	2145.378		-37.75213	
59.22838	2143.41		-37.68327	
59.28249	2141.453		-37.61436	
59.3366	2139.511		-37.54584	
59.39071	2137.587		-37.47807	
59.44481	2135.671		-37.41145	
59.49892	2133.748		-37.34632	
59.55302	2131.8		-37.28298	
59.60713	2129.82		-37.2217	
59.66124	2127.805		-37.1627	
59.71535	2125.762		-37.10619	
59.76945	2123.708		-37.05229	
59.82356	2121.668		-37.00111	
59.87767	2119.661		-36.95271	
59.93178	2117.697		-36.90704	
59.98589	2115.777		-36.86404	
60.03999	2113.898		-36.82351	
60.0941	2112.047		-36.78522	
60.14821	2110.206		-36.74886	
60.20232	2108.359		-36.71408	
60.25642	2106.492		-36.68052	
60.31053	2104.592		-36.64779	
60.36464	2102.651		-36.61546	
60.41874	2100.662		-36.58308	
60.47285	2098.621		-36.55022	
60.52696	2096.53		-36.51642	
60.58107	2094.403		-36.48128	
60.63517	2092.255		-36.44446	
60.68928	2090.105		-36.40565	
60.74339	2087.968		-36.36462	
60.7975	2085.854		-36.32116	
60.8516	2083.763		-36.27512	
60.90571	2081.696		-36.22635	
60.95982	2079.653		-36.17472	
61.01393	2077.629		-36.12006	
61.06804	2075.615		-36.06224	
61.12214	2073.604		-36.00105	
61.17625	2071.581		-35.93629	
61.23035	2069.536		-35.86776	
61.28446	2067.466		-35.79519	
61.33857	2065.382		-35.71833	
61.39268	2063.297		-35.63689	
61.44678	2061.233		-35.55061	
61.50089	2059.205		-35.45925	
61.555	2057.226		-35.36259	
61.60911	2055.297		-35.26046	
61.66322	2053.409		-35.15276	
61.71732	2051.555		-35.03945	
61.77143	2049.726		-34.92054	
61.82554	2047.916		-34.79608	
61.87965	2046.116		-34.66617	
61.93375	2044.313		-34.53093	
61.98786	2042.496		-34.39045	
62.04197	2040.658		-34.24483	
62.09607	2038.799		-34.09418	
62.15018	2036.922		-33.93858	
62.20429	2035.032		-33.77811	
62.2584	2033.137		-33.61287	
62.3125	2031.241		-33.4429	
62.36661	2029.348		-33.26826	
62.42072	2027.459		-33.08898	
62.47483	2025.58		-32.90506	
62.52893	2023.715		-32.71648	
62.58304	2021.877		-32.52317	
62.63715	2020.072		-32.32504	
62.69125	2018.305		-32.12195	
62.74536	2016.573		-31.91376	
62.79947	2014.865		-31.7003	
62.85358	2013.166		-31.4814	
62.90768	2011.468		-31.25682	
62.96179	2009.768		-31.02627	
63.0159	2008.068		-30.78943	
63.07001	2006.377		-30.54595	
63.12411	2004.699		-30.29547	
63.17822	2003.038		-30.03757	
63.23233	2001.395		-29.77182	
63.28644	1999.768		-29.4977	
63.34055	1998.159		-29.21466	
63.39465	1996.564		-28.92209	
63.44876	1994.983		-28.61934	
63.50286	1993.416		-28.30576	
63.55697	1991.864		-27.98064	
63.61108	1990.318		-27.64336	
63.66519	1988.777		-27.2933	
63.7193	1987.239		-26.92988	
63.7734	1985.71		-26.55255	
63.82751	1984.198		-26.16077	
63.88162	1982.709		-25.75405	
63.93573	1981.246		-25.33192	
63.98983	1979.811		-24.89396	
64.04394	1978.401		-24.43978	
64.09805	1977.014		-23.96894	
64.15215	1975.644		-23.48106	
64.20626	1974.284		-22.97577	
64.26037	1972.926		-22.45269	
64.31448	1971.563		-21.91145	
64.36858	1970.191		-21.35168	
64.42269	1968.813		-20.77298	
64.4768	1967.434		-20.17491	
64.53091	1966.056		-19.55692	
64.58501	1964.685		-18.91845	
64.63912	1963.332		-18.25881	
64.69323	1962.012		-17.57725	
64.74734	1960.737		-16.87292	
64.80145	1959.518		-16.14492	
64.85555	1958.36		-15.39223	
64.90966	1957.265		-14.6138	
64.96377	1956.228		-13.80851	
65.01788	1955.238		-12.97525	
65.07198	1954.289		-12.11288	
65.12609	1953.38		-11.22026	
65.1802	1952.51		-10.29627	
65.23431	1951.678		-9.339797	
65.28841	1950.887		-8.349722	
65.34252	1950.145		-7.32495	
65.39663	1949.461		-6.264338	
65.45074	1948.849		-5.166753	
65.50484	1948.321		-4.031227	
65.55894	1947.89		-2.856312	
65.61305	1947.558		-1.641044	
65.66716	1947.324		-0.3842943	
65.72127	1947.179		0.915089	
65.77538	1947.108		2.258265	
65.82948	1947.096		3.646394	
65.88359	1947.134		5.080625	
65.9377	1947.213		6.562089	
65.99181	1947.332		8.091886	
66.04591	1947.493		9.671078	
66.10002	1947.698		11.30066	
66.15413	1947.948		12.98162	
66.20824	1948.248		14.71485	
66.26234	1948.605		16.50116	
66.31645	1949.029		18.34133	
66.37056	1949.532		20.23608	
66.42467	1950.125		22.18608	
66.47878	1950.816		24.19199	
66.53288	1951.609		26.25446	
66.58699	1952.509		28.37418	
66.6411	1953.518		30.55195	
66.69521	1954.639		32.78853	
66.74931	1955.874		35.08485	
66.80342	1957.224		37.44184	
66.85753	1958.695		39.8605	
66.91164	1960.287		42.34184	
66.96574	1961.998		44.88689	
67.01985	1963.826		47.49668	
67.07395	1965.78		50.17181	
67.12806	1967.881		52.91399	
67.18217	1970.145		55.72372	
67.23627	1972.585		58.60184	
67.29038	1975.204		61.5491	
67.34449	1978		64.56617	
67.3986	1980.97		67.65368	
67.45271	1984.112		70.81216	
67.50681	1987.425		74.04211	
67.56092	1990.907		77.34401	
67.61503	1994.562		80.71831	
67.66914	1998.393		84.16535	
67.72324	2002.4		87.68571	
67.77735	2006.581		91.27974	
67.83146	2010.939		94.9479	
67.88557	2015.481		98.69064	
67.93967	2020.213		102.5084	
67.99378	2025.15		106.4016	
68.04789	2030.311		110.3707	
68.102	2035.705		114.4159	
68.15611	2041.338		118.5374	
68.21021	2047.211		122.7352	
68.26432	2053.327		127.0096	
68.31843	2059.689		131.3602	
68.37254	2066.303		135.7868	
68.42664	2073.173		140.289	
68.48075	2080.3		144.8663	
68.53486	2087.682		149.518	
68.58897	2095.319		154.2433	
68.64307	2103.212		159.0413	
68.69717	2111.362		163.9103	
68.75128	2119.777		168.8506	
68.80539	2128.467		173.8602	
68.8595	2137.445		178.9379	
68.9136	2146.723		184.0822	
68.96771	2156.303		189.2913	
69.02182	2166.183		194.5637	
69.07593	2176.366		199.8974	
69.13004	2186.859		205.2905	
69.18414	2197.666		210.7406	
69.23825	2208.787		216.2455	
69.29236	2220.221		221.8022	
69.34647	2231.964		227.4081	
69.40057	2244.019		233.0597	
69.45468	2256.389		238.7536	
69.50879	2269.077		244.4861	
69.5629	2282.084		250.2531	
69.617	2295.41		256.05	
69.67111	2309.054		261.8723	
69.72522	2323.019		267.7147	
69.77933	2337.31		273.5718	
69.83344	2351.931		279.4376	
69.88754	2366.888		285.306	
69.94165	2382.187		291.1703	
69.99576	2397.843		297.0233	
70.04987	2413.871		302.8575	
70.10397	2430.28		308.6649	
70.15808	2447.078		314.4372	
70.21219	2464.272		320.1654	
70.26629	2481.861		325.8396	
70.3204	2499.853		331.4517	
70.3745	2518.248		336.9908	
70.42861	2537.044		342.4466	
70.48272	2556.237		347.8081	
70.53683	2575.822		353.0644	
70.59093	2595.797		358.2039	
70.64504	2616.158		363.215	
70.69915	2636.903		368.0856	
70.75326	2658.025		372.8036	
70.80737	2679.525		377.3567	
70.86147	2701.403		381.7328	
70.91558	2723.656		385.9191	
70.96969	2746.275		389.9037	
71.0238	2769.255		393.6746	
71.0779	2792.594		397.2202	
71.13201	2816.281		400.5294	
71.18612	2840.305		403.5915	
71.24023	2864.648		406.3962	
71.29433	2889.288		408.9339	
71.34844	2914.207		411.1963	
71.40255	2939.391		413.1753	
71.45666	2964.825		414.8637	
71.51077	2990.493		416.2552	
71.56487	3016.39		417.3446	
71.61898	3042.512		418.1275	
71.67309	3068.853		418.6003	
71.7272	3095.407		418.7604	
71.7813	3122.156		418.6064	
71.83541	3149.076		418.1374	
71.88951	3176.139		417.3539	
71.94362	3203.325		416.257	
71.99773	3230.601		414.8489	
72.05183	3257.936		413.1325	
72.10594	3285.29		411.1118	
72.16005	3312.623		408.7913	
72.21416	3339.888		406.1765	
72.26826	3367.042		403.2738	
72.32237	3394.033		400.0899	
72.37648	3420.807		396.6324	
72.43059	3447.309		392.9096	
72.4847	3473.486		388.9303	
72.5388	3499.287		384.7029	
72.59291	3524.656		380.2373	
72.64702	3549.543		375.5431	
72.70113	3573.908		370.6304	
72.75523	3597.708		365.5093	
72.80934	3620.907		360.1902	
72.86345	3643.467		354.6833	
72.91756	3665.356		348.9998	
72.97166	3686.553		343.1499	
73.02577	3707.04		337.1444	
73.07988	3726.8		330.9943	
73.13399	3745.811		324.7104	
73.1881	3764.046		318.3038	
73.2422	3781.487		311.7857	
73.29631	3798.131		305.1676	
73.35042	3813.984		298.461	
73.40453	3829.062		291.6776	
73.45863	3843.381		284.8303	
73.51273	3856.966		277.9293	
73.56684	3869.844		270.9879	
73.62095	3882.059		264.0184	
73.67506	3893.656		257.0333	
73.72916	3904.673		250.0453	
73.78327	3915.152		243.067	
73.83738	3925.123		236.1112	
73.89149	3934.616		229.1906	
73.94559	3943.662		222.3176	
73.9997	3952.292		215.5048	
74.05381	3960.533		208.7641	
74.10792	3968.403		202.1077	
74.16203	3975.917		195.5469	
74.21613	3983.095		189.0928	
74.27024	3989.972		182.7558	
74.32435	3996.588		176.5461	
74.37846	4002.977		170.4731	
74.43256	4009.17		164.5453	
74.48667	4015.196		158.7709	
74.54078	4021.077		153.1566	
74.59489	4026.824		147.7088	
74.64899	4032.446		142.4328	
74.7031	4037.948		137.3329	
74.75721	4043.331		132.4124	
74.81132	4048.593		127.6736	
74.86543	4053.725		123.1176	
74.91953	4058.716		118.7448	
74.97364	4063.557		114.5543	
75.02775	4068.246		110.5445	
75.08185	4072.789		106.7131	
75.13596	4077.201		103.0555	
75.19006	4081.488		99.56815	
75.24417	4085.65		96.24589	
75.29828	4089.678		93.08318	
75.35239	4093.569		90.07395	
75.40649	4097.332		87.21177	
75.4606	4100.966		84.48988	
75.51471	4104.469		81.90137	
75.56882	4107.84		79.43926	
75.62292	4111.09		77.09666	
75.67703	4114.232		74.86668	
75.73114	4117.285		72.74299	
75.78525	4120.259		70.71915	
75.83936	4123.157		68.78915	
75.89346	4125.983		66.94726	
75.94757	4128.756		65.18809	
76.00168	4131.498		63.50659	
76.05579	4134.227		61.89812	
76.10989	4136.947		60.3582	
76.164	4139.652		58.88287	
76.21811	4142.337		57.46848	
76.27222	4145.006		56.11171	
76.32632	4147.666		54.80962	
76.38043	4150.322		53.55954	
76.43454	4152.975		52.3591	
76.48865	4155.626		51.20617	
76.54276	4158.276		50.09886	
76.59686	4160.922		49.03542	
76.65096	4163.556		48.01436	
76.70507	4166.169		47.03386	
76.75918	4168.762		46.0926	
76.81329	4171.343		45.18913	
76.86739	4173.918		44.322	
76.9215	4176.479		43.48973	
76.97561	4179.001		42.69083	
77.02972	4181.469		41.92373	
77.08382	4183.873		41.18681	
77.13793	4186.208		40.47838	
77.19204	4188.455		39.79671	
77.24615	4190.592		39.13998	
77.30025	4192.605		38.5064	
77.35436	4194.488		37.8941	
77.40847	4196.251		37.30119	
77.46258	4197.903		36.72586	
77.51669	4199.445		36.16641	
77.57079	4200.882		35.62127	
77.6249	4202.221		35.08907	
77.67901	4203.479		34.56863	
77.73312	4204.681		34.05893	
77.78722	4205.848		33.55924	
77.84133	4207		33.06903	
77.89544	4208.156		32.58804	
77.94955	4209.331		32.11617	
78.00365	4210.538		31.65357	
78.05776	4211.791		31.20057	
78.11187	4213.101		30.75775	
78.16598	4214.473		30.3258	
78.22009	4215.9		29.90555	
78.27419	4217.369		29.49801	
78.32829	4218.868		29.10411	
78.3824	4220.392		28.72507	
78.43651	4221.934		28.36214	
78.49062	4223.497		28.01663	
78.54472	4225.08		27.68984	
78.59883	4226.687		27.3831	
78.65294	4228.319		27.09772	
78.70705	4229.971		26.835	
78.76115	4231.642		26.59616	
78.81526	4233.323		26.3823	
78.86937	4235.009		26.19439	
78.92348	4236.683		26.03328	
78.97758	4238.333		25.89963	
79.03169	4239.949		25.79397	
79.0858	4241.521		25.71664	
79.13991	4243.03		25.66783	
79.19402	4244.454		25.64753	
79.24812	4245.78		25.65557	
79.30223	4247.001		25.69155	
79.35634	4248.124		25.75496	
79.41045	4249.163		25.84512	
79.46455	4250.14		25.96125	
79.51866	4251.075		26.10248	
79.57277	4251.991		26.26785	
79.62688	4252.905		26.45634	
79.68098	4253.834		26.66688	
79.73509	4254.791		26.89845	
79.7892	4255.788		27.15007	
79.8433	4256.829		27.42072	
79.89741	4257.91		27.70952	
79.95152	4259.01		28.01546	
80.00562	4260.118		28.33764	
80.05973	4261.225		28.67522	
80.11384	4262.34		29.02741	
80.16795	4263.467		29.39337	
80.22205	4264.619		29.77228	
80.27616	4265.798		30.16325	
80.33027	4267.016		30.56538	
80.38438	4268.276		30.97775	
80.43848	4269.589		31.39935	
80.49259	4270.955		31.82923	
80.5467	4272.378		32.26634	
80.60081	4273.86		32.70959	
80.65491	4275.402		33.15785	
80.70902	4276.996		33.60995	
80.76313	4278.63		34.0647	
80.81724	4280.299		34.52094	
80.87135	4282		34.97746	
80.92545	4283.742		35.43301	
80.97956	4285.54		35.88634	
81.03367	4287.408		36.33609	
81.08778	4289.362		36.78084	
81.14188	4291.408		37.2191	
81.19599	4293.55		37.6493	
81.2501	4295.786		38.06978	
81.30421	4298.114		38.47883	
81.35831	4300.529		38.87465	
81.41242	4303.021		39.25545	
81.46652	4305.575		39.61936	
81.52063	4308.175		39.96473	
81.57474	4310.81		40.28978	
81.62885	4313.475		40.59291	
81.68295	4316.169		40.87265	
81.73706	4318.897		41.12768	
81.79117	4321.668		41.35678	
81.84528	4324.49		41.55887	
81.89938	4327.366		41.73294	
81.95349	4330.293		41.87812	
82.0076	4333.272		41.99366	
82.06171	4336.296		42.07899	
82.11581	4339.349		42.13344	
82.16992	4342.413		42.15655	
82.22403	4345.474		42.14781	
82.27814	4348.518		42.10673	
82.33224	4351.529		42.03281	
82.38635	4354.485		41.92558	
82.44046	4357.361		41.78457	
82.49457	4360.143		41.60947	
82.54868	4362.846		41.39988	
82.60278	4365.489		41.15545	
82.65689	4368.089		40.87589	
82.711	4370.652		40.56099	
82.76511	4373.18		40.2107	
82.81921	4375.664		39.82505	
82.87332	4378.105		39.40418	
82.92743	4380.501		38.94825	
82.98154	4382.852		38.45749	
83.03564	4385.15		37.93221	
83.08974	4387.391		37.37255	
83.14385	4389.552		36.77887	
83.19796	4391.632		36.15147	
83.25207	4393.629		35.4907	
83.30618	4395.554		34.79691	
83.36028	4397.414		34.0705	
83.41439	4399.229		33.31188	
83.4685	4401.001		32.52152	
83.52261	4402.735		31.69995	
83.57671	4404.425		30.84776	
83.63082	4406.077		29.96571	
83.68493	4407.681		29.05454	
83.73904	4409.237		28.1152	
83.79314	4410.737		27.1487	
83.84725	4412.181		26.15614	
83.90136	4413.562		25.13868	
83.95547	4414.887		24.09761	
84.00957	4416.155		23.03428	
84.06368	4417.376		21.9501	
84.11779	4418.555		20.84652	
84.1719	4419.703		19.72495	
84.22601	4420.824		18.58675	
84.28011	4421.93		17.4333	
84.33422	4423.025		16.26589	
84.38833	4424.105		15.08581	
84.44244	4425.151		13.89427	
84.49654	4426.152		12.69242	
84.55065	4427.103		11.48133	
84.60476	4427.996		10.26199	
84.65886	4428.815		9.035507	
84.71297	4429.55		7.80244	
84.76707	4430.191		6.563777	
84.82118	4430.736		5.320266	
84.87529	4431.182		4.072577	
84.9294	4431.543		2.821332	
84.98351	4431.841		1.567093	
85.03761	4432.093		0.3103668	
85.09172	4432.299		-0.9484196	
85.14583	4432.457		-2.20891	
85.19994	4432.561		-3.470811	
85.25404	4432.608		-4.73385	
85.30815	4432.583		-5.997798	
85.36226	4432.466		-7.262422	
85.41637	4432.231		-8.527523	
85.47047	4431.856		-9.792928	
85.52458	4431.315		-11.05849	
85.57869	4430.597		-12.32404	
85.6328	4429.707		-13.58944	
85.6869	4428.66		-14.85448	
85.74101	4427.479		-16.11894	
85.79512	4426.187		-17.38256	
85.84923	4424.804		-18.64506	
85.90334	4423.354		-19.90604	
85.95744	4421.855		-21.16499	
86.01155	4420.314		-22.42129	
86.06566	4418.738		-23.6742	
86.11977	4417.135		-24.92284	
86.17387	4415.501		-26.16622	
86.22797	4413.817		-27.40306	
86.28208	4412.063		-28.63245	
86.33619	4410.213		-29.85286	
86.3903	4408.249		-31.06279	
86.4444	4406.158		-32.2607	
86.49851	4403.962		-33.44496	
86.55262	4401.688		-34.61397	
86.60673	4399.36		-35.76613	
86.66084	4397.001		-36.89986	
86.71494	4394.636		-38.01362	
86.76905	4392.285		-39.10596	
86.82316	4389.961		-40.17549	
86.87727	4387.664		-41.22085	
86.93137	4385.39		-42.24081	
86.98548	4383.125		-43.23426	
87.03959	4380.842		-44.20019	
87.0937	4378.505		-45.13776	
87.1478	4376.083		-46.04627	
87.20191	4373.555		-46.92511	
87.25602	4370.92		-47.77382	
87.31013	4368.175		-48.59209	
87.36423	4365.331		-49.3797	
87.41834	4362.401		-50.1366	
87.47245	4359.407		-50.86287	
87.52656	4356.352		-51.55884	
87.58067	4353.255		-52.22496	
87.63477	4350.122		-52.86187	
87.68888	4346.96		-53.47035	
87.74299	4343.757		-54.05136	
87.7971	4340.509		-54.60593	
87.8512	4337.208		-55.13514	
87.9053	4333.865		-55.64028	
87.95941	4330.475		-56.12246	
88.01352	4327.036		-56.58284	
88.06763	4323.537		-57.02256	
88.12173	4319.983		-57.44271	
88.17584	4316.375		-57.84438	
88.22995	4312.733		-58.22859	
88.28406	4309.071		-58.59639	
88.33817	4305.408		-58.94878	
88.39227	4301.745		-59.28672	
88.44638	4298.094		-59.61121	
88.50049	4294.456		-59.92313	
88.5546	4290.833		-60.22342	
88.6087	4287.218		-60.51295	
88.66281	4283.606		-60.79255	
88.71692	4279.989		-61.06298	
88.77103	4276.371		-61.32495	
88.82513	4272.756		-61.57916	
88.87924	4269.159		-61.82635	
88.93335	4265.593		-62.06725	
88.98746	4262.075		-62.30256	
89.04156	4258.607		-62.53306	
89.09567	4255.191		-62.75951	
89.14978	4251.825		-62.9827	
89.20389	4248.51		-63.20343	
89.258	4245.249		-63.42252	
89.3121	4242.03		-63.64078	
89.36621	4238.834		-63.85907	
89.42031	4235.649		-64.07819	
89.47442	4232.461		-64.29905	
89.52853	4229.266		-64.5224	
89.58263	4226.063		-64.74903	
89.63674	4222.855		-64.97966	
89.69085	4219.645		-65.215	
89.74496	4216.425		-65.45569	
89.79906	4213.187		-65.70234	
89.85317	4209.933		-65.95543	
89.90728	4206.671		-66.21535	
89.96139	4203.407		-66.48235	
90.0155	4200.134		-66.75658	
90.0696	4196.845		-67.03812	
90.12371	4193.527		-67.32692	
90.17782	4190.167		-67.62286	
90.23193	4186.751		-67.92579	
90.28603	4183.269		-68.2355	
90.34014	4179.725		-68.55178	
90.39425	4176.131		-68.87439	
90.44836	4172.503		-69.20313	
90.50246	4168.857		-69.53773	
90.55657	4165.208		-69.87791	
90.61068	4161.575		-70.22334	
90.66479	4157.967		-70.57358	
90.71889	4154.376		-70.92811	
90.773	4150.784		-71.28637	
90.82711	4147.166		-71.64777	
90.88122	4143.496		-72.01165	
90.93533	4139.753		-72.37724	
90.98943	4135.93		-72.74372	
91.04353	4132.021		-73.11015	
91.09764	4128.029		-73.47566	
91.15175	4123.954		-73.83926	
91.20586	4119.811		-74.19996	
91.25996	4115.611		-74.55684	
91.31407	4111.359		-74.909	
91.36818	4107.048		-75.25568	
91.42229	4102.677		-75.59616	
91.47639	4098.245		-75.92986	
91.5305	4093.765		-76.25622	
91.58461	4089.237		-76.57465	
91.63872	4084.67		-76.88455	
91.69283	4080.055		-77.18523	
91.74693	4075.389		-77.47607	
91.80104	4070.663		-77.75636	
91.85515	4065.893		-78.02546	
91.90926	4061.094		-78.28267	
91.96336	4056.295		-78.52731	
92.01747	4051.521		-78.75872	
92.07158	4046.806		-78.97631	
92.12569	4042.162		-79.1795	
92.17979	4037.603		-79.36777	
92.2339	4033.113		-79.54067	
92.28801	4028.684		-79.69781	
92.34212	4024.298		-79.83889	
92.39622	4019.951		-79.96371	
92.45033	4015.621		-79.93978	
92.50444	4011.289		-79.90794	
92.55855	4006.931		-79.87068	
92.61265	4002.552		-79.83006	
92.66676	3998.146		-79.78738	
92.72086	3993.727		-79.74333	
92.77497	3989.309		-79.69819	
92.82908	3984.914		-79.65202	
92.88319	3980.544		-79.60474	
92.93729	3976.197		-79.55625	
92.9914	3971.857		-79.50642	
93.04551	3967.518		-79.45512	
93.09962	3963.163		-79.40224	
93.15372	3958.788		-79.34769	
93.20783	3954.398		-79.29142	
93.26194	3950.006		-79.23336	
93.31605	3945.604		-79.17348	
93.37016	3941.189		-79.11175	
93.42426	3936.762		-79.04815	
93.47837	3932.338		-78.98267	
93.53248	3927.929		-78.91529	
93.58659	3923.562		-78.84602	
93.64069	3919.252		-78.77489	
93.6948	3915.008		-78.70188	
93.74891	3910.826		-78.62704	
93.80302	3906.706		-78.55038	
93.85712	3902.624		-78.47192	
93.91123	3898.547		-78.3917	
93.96534	3894.434		-78.30973	
94.01945	3890.261		-78.22604	
94.07355	3886.031		-78.14064	
94.12766	3881.702		-78.05355	
94.18177	3877.45		-77.96481	
94.23587	3873.266		-77.87444	
94.28998	3869.129		-77.78245	
94.34409	3865.025		-77.68889	
94.39819	3860.943		-77.59379	
94.4523	3856.875		-77.49719	
94.50641	3852.814		-77.39914	
94.56052	3848.754		-77.29967	
94.61462	3844.691		-77.19884	
94.66873	3840.623		-77.09669	
94.72284	3836.547		-76.99327	
94.77695	3832.461		-76.88862	
94.83105	3828.364		-76.7828	
94.88516	3824.259		-76.67585	
94.93927	3820.147		-76.56782	
94.99338	3816.033		-76.45876	
