T[Â°C]	330nm [counts / mm]	S.D.	First derivative	S.D. of first derivative
19.99993	8070.734		-125.062	
20.05392	8063.77		-124.6603	
20.1079	8056.825		-124.2606	
20.16189	8049.9		-123.863	
20.21587	8042.994		-123.4676	
20.26986	8036.107		-123.0745	
20.32385	8029.24		-122.6839	
20.37783	8022.39		-122.2957	
20.43182	8015.556		-121.9101	
20.48581	8008.733		-121.5272	
20.53979	8001.918		-121.1471	
20.59378	7995.107		-120.7699	
20.64777	7988.296		-120.3957	
20.70175	7981.478		-120.0246	
20.75574	7974.646		-119.6566	
20.80973	7967.798		-119.2919	
20.86371	7960.931		-118.9304	
20.9177	7954.061		-118.5722	
20.97169	7947.254		-118.2173	
21.02567	7940.621		-117.8658	
21.07966	7934.039		-117.5176	
21.13365	7927.518		-117.1728	
21.18763	7921.072		-116.8312	
21.24162	7914.715		-116.4929	
21.29561	7908.456		-116.1578	
21.34959	7902.294		-115.8258	
21.40358	7896.214		-115.4968	
21.45757	7890.201		-115.1708	
21.51155	7884.237		-114.8475	
21.56554	7878.3		-114.527	
21.61953	7872.364		-114.2091	
21.67351	7866.426		-113.8935	
21.7275	7860.493		-113.5803	
21.78149	7854.572		-113.2691	
21.83547	7848.672		-112.9598	
21.88946	7842.799		-112.6521	
21.94345	7836.951		-112.3457	
21.99743	7831.125		-112.0404	
22.05142	7825.322		-111.7356	
22.10541	7819.556		-111.431	
22.15939	7813.847		-111.1261	
22.21338	7808.206		-110.8203	
22.26736	7802.624		-110.5134	
22.32135	7797.084		-110.2049	
22.37534	7791.565		-109.8951	
22.42933	7786.061		-109.5847	
22.48331	7780.573		-109.2757	
22.5373	7775.104		-108.9716	
22.59129	7769.647		-108.6771	
22.64527	7764.2		-108.5532	
22.69926	7758.749		-108.4414	
22.75324	7753.283		-108.3418	
22.80723	7747.792		-108.2539	
22.86122	7742.275		-108.1778	
22.91521	7736.73		-108.1131	
22.96919	7731.164		-108.0596	
23.02318	7725.58		-108.0168	
23.07716	7719.982		-107.9843	
23.13115	7714.373		-107.9613	
23.18514	7708.756		-107.9472	
23.23912	7703.135		-107.9411	
23.29311	7697.51		-107.9422	
23.3471	7691.876		-107.9496	
23.40108	7686.225		-107.9623	
23.45507	7680.549		-107.9796	
23.50906	7674.845		-108.0004	
23.56304	7669.102		-108.024	
23.61703	7663.298		-108.0493	
23.67102	7657.421		-108.0757	
23.725	7651.466		-108.1024	
23.77899	7645.434		-108.1291	
23.83298	7639.327		-108.1551	
23.88696	7633.15		-108.1802	
23.94095	7626.913		-108.204	
23.99494	7620.625		-108.2261	
24.04892	7614.303		-108.2463	
24.10291	7607.96		-108.2642	
24.1569	7601.621		-108.2794	
24.21088	7595.308		-108.2914	
24.26487	7589.041		-108.2997	
24.31886	7582.822		-108.3039	
24.37284	7576.656		-108.3033	
24.42683	7570.551		-108.2973	
24.48082	7564.51		-108.2856	
24.5348	7558.528		-108.2674	
24.58879	7552.587		-108.2424	
24.64278	7546.661		-108.2101	
24.69676	7540.732		-108.1705	
24.75075	7534.791		-108.1234	
24.80474	7528.829		-108.0689	
24.85872	7522.848		-108.0074	
24.91271	7516.854		-107.9394	
24.9667	7510.859		-107.8654	
25.02068	7504.876		-107.7864	
25.07467	7498.924		-107.703	
25.12866	7493.026		-107.616	
25.18264	7487.211		-107.5259	
25.23663	7481.487		-107.4336	
25.29062	7475.854		-107.3395	
25.3446	7470.286		-107.2441	
25.39859	7464.747		-107.1478	
25.45258	7459.198		-107.0508	
25.50656	7453.608		-106.9534	
25.56055	7447.97		-106.8557	
25.61454	7442.29		-106.7577	
25.66852	7436.573		-106.6593	
25.72251	7430.835		-106.5607	
25.77649	7425.083		-106.4619	
25.83048	7419.32		-106.3631	
25.88447	7413.561		-106.2645	
25.93846	7407.823		-106.1664	
25.99244	7402.13		-106.0692	
26.04643	7396.5		-105.9732	
26.10041	7390.948		-105.8786	
26.1544	7385.486		-105.7856	
26.20839	7380.104		-105.6945	
26.26237	7374.77		-105.6052	
26.31636	7369.44		-105.5178	
26.37035	7364.082		-105.4322	
26.42434	7358.677		-105.3483	
26.47832	7353.227		-105.2658	
26.53231	7347.728		-105.1845	
26.58629	7342.184		-105.104	
26.64028	7336.614		-105.0239	
26.69427	7331.046		-104.944	
26.74825	7325.497		-104.8639	
26.80224	7319.975		-104.7837	
26.85623	7314.471		-104.7032	
26.91021	7308.972		-104.6226	
26.9642	7303.455		-104.542	
27.01819	7297.893		-104.4616	
27.07217	7292.268		-104.3814	
27.12616	7286.57		-104.3016	
27.18015	7280.794		-104.222	
27.23413	7274.949		-104.1424	
27.28812	7269.046		-104.0626	
27.34211	7263.097		-103.9822	
27.39609	7257.102		-103.9008	
27.45008	7251.054		-103.8181	
27.50407	7244.961		-103.7336	
27.55805	7238.842		-103.6469	
27.61204	7232.725		-103.5575	
27.66603	7226.652		-103.4649	
27.72001	7220.663		-103.3689	
27.774	7214.773		-103.2689	
27.82799	7208.984		-103.1647	
27.88197	7203.283		-103.0558	
27.93596	7197.654		-102.9423	
27.98995	7192.067		-102.824	
28.04393	7186.499		-102.701	
28.09792	7180.941		-102.5734	
28.15191	7175.398		-102.4417	
28.20589	7169.877		-102.3059	
28.25988	7164.386		-102.1666	
28.31387	7158.931		-102.024	
28.36785	7153.517		-101.8783	
28.42184	7148.142		-101.7299	
28.47583	7142.789		-101.579	
28.52981	7137.445		-101.4261	
28.5838	7132.109		-101.2713	
28.63778	7126.782		-101.1151	
28.69177	7121.466		-100.9578	
28.74576	7116.165		-100.7999	
28.79975	7110.872		-100.642	
28.85373	7105.577		-100.4848	
28.90772	7100.262		-100.3291	
28.96171	7094.908		-100.1755	
29.01569	7089.507		-100.0249	
29.06968	7084.068		-99.87818	
29.12366	7078.608		-99.73598	
29.17765	7073.147		-99.59903	
29.23164	7067.7		-99.46799	
29.28563	7062.27		-99.34345	
29.33961	7056.853		-99.22596	
29.3936	7051.45		-99.11591	
29.44758	7046.07		-99.01369	
29.50157	7040.72		-98.91956	
29.55556	7035.4		-98.83376	
29.60954	7030.125		-98.75644	
29.66353	7024.914		-98.68765	
29.71752	7019.787		-98.62737	
29.77151	7014.745		-98.57548	
29.82549	7009.781		-98.53178	
29.87948	7004.877		-98.49605	
29.93346	7000.004		-98.46796	
29.98745	6995.131		-98.44721	
30.04144	6990.23		-98.43352	
30.09542	6985.283		-98.42661	
30.14941	6980.281		-98.42624	
30.2034	6975.226		-98.43221	
30.25738	6970.131		-98.44428	
30.31137	6965.014		-98.46214	
30.36536	6959.875		-98.48538	
30.41934	6954.703		-98.51357	
30.47333	6949.478		-98.54613	
30.52732	6944.187		-98.58245	
30.5813	6938.817		-98.62192	
30.63529	6933.363		-98.66388	
30.68928	6927.835		-98.70767	
30.74326	6922.258		-98.75259	
30.79725	6916.661		-98.79788	
30.85124	6911.073		-98.84271	
30.90522	6905.513		-98.88625	
30.95921	6899.975		-98.92761	
31.0132	6894.454		-98.96597	
31.06718	6888.946		-99.00054	
31.12117	6883.461		-99.03065	
31.17516	6878.005		-99.05578	
31.22914	6872.583		-99.07558	
31.28313	6867.191		-99.0898	
31.33712	6861.829		-99.09826	
31.3911	6856.488		-99.10084	
31.44509	6851.162		-99.09737	
31.49908	6845.828		-99.08771	
31.55306	6840.479		-99.0717	
31.60705	6835.112		-99.04925	
31.66104	6829.738		-99.02026	
31.71502	6824.363		-98.98474	
31.76901	6818.993		-98.94266	
31.823	6813.629		-98.89401	
31.87698	6808.268		-98.83884	
31.93097	6802.913		-98.77722	
31.98496	6797.557		-98.70934	
32.03894	6792.183		-98.63548	
32.09293	6786.766		-98.55608	
32.14692	6781.278		-98.47174	
32.2009	6775.71		-98.38322	
32.25489	6770.071		-98.29141	
32.30888	6764.371		-98.1973	
32.36286	6758.63		-98.10186	
32.41685	6752.88		-98.00607	
32.47084	6747.152		-97.91086	
32.52482	6741.476		-97.81711	
32.57881	6735.876		-97.72561	
32.6328	6730.37		-97.63708	
32.68678	6724.959		-97.55216	
32.74077	6719.63		-97.47135	
32.79475	6714.36		-97.39503	
32.84874	6709.138		-97.32338	
32.90273	6703.954		-97.25646	
32.95671	6698.803		-97.19421	
33.0107	6693.694		-97.13651	
33.06469	6688.635		-97.08318	
33.11868	6683.619		-97.03413	
33.17266	6678.634		-96.98926	
33.22665	6673.672		-96.94857	
33.28064	6668.729		-96.91218	
33.33462	6663.803		-96.88024	
33.38861	6658.902		-96.85301	
33.4426	6654.027		-96.83075	
33.49658	6649.175		-96.81373	
33.55057	6644.342		-96.80227	
33.60455	6639.528		-96.79671	
33.65854	6634.726		-96.79739	
33.71253	6629.92		-96.8046	
33.76651	6625.083		-96.81852	
33.8205	6620.185		-96.83926	
33.87449	6615.211		-96.86681	
33.92847	6610.162		-96.90109	
33.98246	6605.045		-96.94196	
34.03645	6599.888		-96.98925	
34.09044	6594.722		-97.04288	
34.14442	6589.57		-97.10278	
34.19841	6584.442		-97.16896	
34.2524	6579.329		-97.24145	
34.30638	6574.216		-97.32018	
34.36037	6569.092		-97.40506	
34.41435	6563.948		-97.4959	
34.46834	6558.766		-97.5924	
34.52233	6553.539		-97.69413	
34.57631	6548.258		-97.80053	
34.6303	6542.922		-97.91087	
34.68429	6537.533		-98.02429	
34.73827	6532.091		-98.13979	
34.79226	6526.601		-98.25625	
34.84624	6521.066		-98.37232	
34.90023	6515.493		-98.48658	
34.95422	6509.898		-98.59747	
35.00821	6504.311		-98.70343	
35.06219	6498.747		-98.80292	
35.11618	6493.228		-98.89438	
35.17017	6487.77		-98.97634	
35.22415	6482.38		-99.04742	
35.27814	6477.048		-99.1063	
35.33213	6471.749		-99.15184	
35.38611	6466.456		-99.18304	
35.4401	6461.133		-99.19916	
35.49409	6455.754		-99.19964	
35.54807	6450.297		-99.1842	
35.60206	6444.758		-99.15279	
35.65604	6439.159		-99.10547	
35.71003	6433.535		-99.04255	
35.76402	6427.913		-98.96447	
35.818	6422.31		-98.87179	
35.87199	6416.73		-98.76518	
35.92598	6411.167		-98.64544	
35.97997	6405.618		-98.5134	
36.03395	6400.077		-98.36995	
36.08794	6394.541		-98.21599	
36.14193	6389.002		-98.05251	
36.19591	6383.454		-97.88049	
36.2499	6377.89		-97.70089	
36.30389	6372.307		-97.51466	
36.35787	6366.703		-97.3228	
36.41186	6361.077		-97.1263	
36.46584	6355.437		-96.9262	
36.51983	6349.801		-96.72356	
36.57382	6344.19		-96.5195	
36.6278	6338.624		-96.31515	
36.68179	6333.107		-96.11156	
36.73578	6327.638		-95.90977	
36.78976	6322.218		-95.71065	
36.84375	6316.861		-95.51491	
36.89774	6311.583		-95.32314	
36.95173	6306.402		-95.13583	
37.00571	6301.32		-94.9533	
37.0597	6296.335		-94.77574	
37.11369	6291.443		-94.60323	
37.16767	6286.63		-94.43578	
37.22166	6281.879		-94.27326	
37.27564	6277.172		-94.11544	
37.32963	6272.496		-93.96203	
37.38362	6267.854		-93.81275	
37.4376	6263.258		-93.66735	
37.49159	6258.709		-93.52563	
37.54558	6254.19		-93.3875	
37.59956	6249.673		-93.25293	
37.65355	6245.134		-93.12195	
37.70754	6240.567		-92.9947	
37.76152	6235.965		-92.87141	
37.81551	6231.329		-92.75234	
37.8695	6226.667		-92.63779	
37.92348	6222.001		-92.52801	
37.97747	6217.345		-92.42326	
38.03146	6212.704		-92.32372	
38.08544	6208.066		-92.22948	
38.13943	6203.41		-92.14046	
38.19342	6198.718		-92.05652	
38.2474	6193.971		-91.97733	
38.30139	6189.154		-91.90246	
38.35538	6184.26		-91.83138	
38.40936	6179.289		-91.7635	
38.46335	6174.251		-91.69823	
38.51734	6169.162		-91.63503	
38.57132	6164.047		-91.57339	
38.62531	6158.938		-91.51294	
38.67929	6153.856		-91.45327	
38.73328	6148.809		-91.39404	
38.78727	6143.797		-91.33489	
38.84126	6138.802		-91.27551	
38.89524	6133.797		-91.21559	
38.94923	6128.762		-91.15484	
39.00322	6123.683		-91.09297	
39.0572	6118.559		-91.02967	
39.11119	6113.386		-90.96454	
39.16518	6108.159		-90.89713	
39.21916	6102.875		-90.82686	
39.27315	6097.537		-90.75308	
39.32714	6092.166		-90.67513	
39.38112	6086.787		-90.5924	
39.43511	6081.43		-90.50433	
39.48909	6076.128		-90.41053	
39.54308	6070.903		-90.31071	
39.59707	6065.762		-90.20483	
39.65105	6060.696		-90.09293	
39.70504	6055.688		-89.97532	
39.75903	6050.712		-89.85238	
39.81301	6045.753		-89.72467	
39.867	6040.8		-89.59282	
39.92099	6035.839		-89.45752	
39.97498	6030.866		-89.31956	
40.02896	6025.879		-89.17976	
40.08295	6020.884		-89.03891	
40.13694	6015.899		-88.89777	
40.19092	6010.954		-88.75707	
40.24491	6006.062		-88.61754	
40.29889	6001.225		-88.4798	
40.35288	5996.442		-88.34446	
40.40687	5991.725		-88.21205	
40.46085	5987.073		-88.08311	
40.51484	5982.482		-87.95808	
40.56883	5977.936		-87.83741	
40.62281	5973.418		-87.7215	
40.6768	5968.921		-87.61068	
40.73079	5964.448		-87.50528	
40.78477	5959.999		-87.40562	
40.83876	5955.561		-87.31206	
40.89275	5951.14		-87.22498	
40.94674	5946.743		-87.14481	
41.00072	5942.379		-87.07205	
41.05471	5938.049		-87.00717	
41.10869	5933.75		-86.95058	
41.16268	5929.471		-86.9026	
41.21667	5925.202		-86.86344	
41.27065	5920.943		-86.83314	
41.32464	5916.697		-86.81161	
41.37863	5912.457		-86.79863	
41.43261	5908.208		-86.79389	
41.4866	5903.929		-86.79701	
41.54059	5899.606		-86.80758	
41.59457	5895.228		-86.82511	
41.64856	5890.793		-86.8491	
41.70255	5886.303		-86.879	
41.75653	5881.768		-86.91425	
41.81052	5877.2		-86.95429	
41.86451	5872.606		-86.99858	
41.91849	5867.985		-87.04659	
41.97248	5863.337		-87.09779	
42.02647	5858.655		-87.15167	
42.08045	5853.924		-87.2077	
42.13444	5849.134		-87.26524	
42.18843	5844.285		-87.32362	
42.24241	5839.37		-87.38213	
42.2964	5834.388		-87.44002	
42.35039	5829.35		-87.49651	
42.40437	5824.282		-87.55084	
42.45836	5819.213		-87.60221	
42.51234	5814.164		-87.6498	
42.56633	5809.138		-87.6928	
42.62032	5804.136		-87.73039	
42.6743	5799.163		-87.76181	
42.72829	5794.225		-87.78636	
42.78228	5789.316		-87.80345	
42.83627	5784.431		-87.81261	
42.89025	5779.568		-87.81351	
42.94424	5774.71		-87.806	
42.99823	5769.84		-87.79008	
43.05221	5764.94		-87.76585	
43.1062	5759.99		-87.73352	
43.16019	5754.971		-87.69342	
43.21417	5749.877		-87.64596	
43.26816	5744.729		-87.59155	
43.32214	5739.562		-87.53061	
43.37613	5734.41		-87.4635	
43.43012	5729.303		-87.39055	
43.4841	5724.264		-87.31202	
43.53809	5719.299		-87.22813	
43.59208	5714.405		-87.13902	
43.64606	5709.579		-87.04488	
43.70005	5704.812		-86.94585	
43.75404	5700.087		-86.84211	
43.80803	5695.392		-86.73393	
43.86201	5690.714		-86.62157	
43.916	5686.053		-86.50533	
43.96999	5681.415		-86.3855	
44.02397	5676.796		-86.26244	
44.07796	5672.193		-86.13651	
44.13194	5667.605		-86.00806	
44.18593	5663.034		-85.8776	
44.23992	5658.48		-85.74572	
44.2939	5653.942		-85.61302	
44.34789	5649.428		-85.48016	
44.40188	5644.959		-85.34776	
44.45586	5640.557		-85.21638	
44.50985	5636.227		-85.08656	
44.56384	5631.957		-84.95872	
44.61782	5627.737		-84.8333	
44.67181	5623.554		-84.71062	
44.7258	5619.392		-84.59106	
44.77979	5615.237		-84.47501	
44.83377	5611.075		-84.36289	
44.88776	5606.89		-84.25522	
44.94174	5602.675		-84.15257	
44.99573	5598.428		-84.05554	
45.04972	5594.152		-83.96478	
45.1037	5589.85		-83.8809	
45.15769	5585.522		-83.8045	
45.21168	5581.169		-83.73621	
45.26566	5576.787		-83.67655	
45.31965	5572.368		-83.626	
45.37364	5567.903		-83.58478	
45.42762	5563.384		-83.55296	
45.48161	5558.811		-83.53037	
45.53559	5554.187		-83.51667	
45.58958	5549.523		-83.51131	
45.64357	5544.828		-83.51364	
45.69756	5540.1		-83.52286	
45.75154	5535.336		-83.53808	
45.80553	5530.549		-83.55836	
45.85952	5525.76		-83.5827	
45.9135	5520.998		-83.60999	
45.96749	5516.284		-83.63906	
46.02148	5511.635		-83.66871	
46.07546	5507.052		-83.69772	
46.12945	5502.522		-83.72492	
46.18344	5498.031		-83.74928	
46.23742	5493.559		-83.7698	
46.29141	5489.083		-83.78561	
46.34539	5484.598		-83.79586	
46.39938	5480.11		-83.79974	
46.45337	5475.628		-83.79642	
46.50735	5471.153		-83.78513	
46.56134	5466.689		-83.76507	
46.61533	5462.25		-83.73554	
46.66932	5457.847		-83.69597	
46.7233	5453.474		-83.6459	
46.77729	5449.11		-83.58508	
46.83128	5444.731		-83.5134	
46.88526	5440.323		-83.43102	
46.93925	5435.871		-83.33826	
46.99324	5431.369		-83.23569	
47.04722	5426.804		-83.12405	
47.10121	5422.169		-83.00417	
47.15519	5417.468		-82.87708	
47.20918	5412.707		-82.74387	
47.26317	5407.897		-82.60577	
47.31715	5403.05		-82.464	
47.37114	5398.181		-82.31976	
47.42513	5393.307		-82.17419	
47.47911	5388.438		-82.02836	
47.5331	5383.586		-81.88326	
47.58709	5378.769		-81.73981	
47.64108	5374.004		-81.59875	
47.69506	5369.301		-81.46076	
47.74905	5364.665		-81.32635	
47.80304	5360.091		-81.19592	
47.85702	5355.569		-81.06977	
47.91101	5351.101		-80.9481	
47.96499	5346.693		-80.83109	
48.01898	5342.356		-80.71886	
48.07297	5338.091		-80.61162	
48.12695	5333.891		-80.50953	
48.18094	5329.743		-80.41282	
48.23493	5325.635		-80.3217	
48.28891	5321.558		-80.23645	
48.3429	5317.491		-80.1573	
48.39688	5313.415		-80.08442	
48.45087	5309.324		-80.01791	
48.50486	5305.221		-79.95776	
48.55885	5301.118		-79.90378	
48.61283	5297.03		-79.85569	
48.66682	5292.972		-79.81315	
48.72081	5288.946		-79.77571	
48.77479	5284.947		-79.74293	
48.82878	5280.966		-79.71437	
48.88277	5276.998		-79.68964	
48.93675	5273.043		-79.66843	
48.99074	5269.112		-79.65054	
49.04473	5265.197		-79.63586	
49.09871	5261.291		-79.62433	
49.1527	5257.378		-79.61595	
49.20669	5253.438		-79.61079	
49.26067	5249.442		-79.60889	
49.31466	5245.377		-79.61032	
49.36864	5241.244		-79.61512	
49.42263	5237.053		-79.62335	
49.47662	5232.81		-79.63504	
49.53061	5228.518		-79.65015	
49.58459	5224.187		-79.66854	
49.63858	5219.837		-79.68994	
49.69257	5215.489		-79.71395	
49.74655	5211.152		-79.73999	
49.80054	5206.823		-79.76732	
49.85453	5202.495		-79.79507	
49.90851	5198.162		-79.82231	
49.9625	5193.822		-79.84805	
50.01649	5189.468		-79.87129	
50.07047	5185.088		-79.89109	
50.12446	5180.665		-79.90655	
50.17844	5176.188		-79.91686	
50.23243	5171.665		-79.92136	
50.28642	5167.103		-79.91946	
50.3404	5162.506		-79.91076	
50.39439	5157.88		-79.89492	
50.44838	5153.232		-79.8717	
50.50237	5148.576		-79.84091	
50.55635	5143.927		-79.80237	
50.61034	5139.298		-79.75589	
50.66433	5134.694		-79.70131	
50.71831	5130.113		-79.63846	
50.7723	5125.543		-79.56724	
50.82629	5120.97		-79.48758	
50.88027	5116.374		-79.39951	
50.93426	5111.752		-79.30314	
50.98824	5107.117		-79.19866	
51.04223	5102.486		-79.0864	
51.09622	5097.888		-78.96684	
51.1502	5093.34		-78.84049	
51.20419	5088.855		-78.70802	
51.25818	5084.441		-78.57016	
51.31216	5080.092		-78.42779	
51.36615	5075.8		-78.28187	
51.42014	5071.558		-78.13348	
51.47412	5067.352		-77.98373	
51.52811	5063.162		-77.83379	
51.5821	5058.976		-77.68468	
51.63609	5054.792		-77.53734	
51.69007	5050.614		-77.39259	
51.74406	5046.449		-77.25111	
51.79804	5042.303		-77.11347	
51.85203	5038.183		-76.98011	
51.90602	5034.097		-76.85142	
51.96	5030.058		-76.72775	
52.01399	5026.073		-76.60938	
52.06798	5022.152		-76.49656	
52.12196	5018.288		-76.38957	
52.17595	5014.473		-76.28867	
52.22993	5010.691		-76.19413	
52.28392	5006.931		-76.10628	
52.33791	5003.18		-76.02544	
52.3919	4999.433		-75.95189	
52.44588	4995.67		-75.88589	
52.49987	4991.88		-75.82765	
52.55386	4988.058		-75.77728	
52.60784	4984.212		-75.73485	
52.66183	4980.355		-75.70035	
52.71582	4976.505		-75.67372	
52.7698	4972.678		-75.65487	
52.82379	4968.882		-75.64365	
52.87778	4965.11		-75.63986	
52.93176	4961.366		-75.64318	
52.98575	4957.647		-75.65321	
53.03973	4953.96		-75.66948	
53.09372	4950.292		-75.69147	
53.14771	4946.616		-75.71857	
53.20169	4942.907		-75.75009	
53.25568	4939.137		-75.78532	
53.30967	4935.283		-75.82346	
53.36366	4931.326		-75.86372	
53.41764	4927.252		-75.90538	
53.47163	4923.065		-75.94777	
53.52562	4918.783		-75.99029	
53.5796	4914.421		-76.03235	
53.63359	4909.995		-76.07337	
53.68758	4905.528		-76.11275	
53.74156	4901.043		-76.14983	
53.79555	4896.563		-76.18393	
53.84953	4892.1		-76.21431	
53.90352	4887.662		-76.2402	
53.95751	4883.246		-76.26079	
54.01149	4878.848		-76.27529	
54.06548	4874.463		-76.28297	
54.11947	4870.093		-76.28311	
54.17345	4865.736		-76.27511	
54.22744	4861.38		-76.25842	
54.28143	4857.017		-76.23263	
54.33541	4852.648		-76.19736	
54.3894	4848.28		-76.15237	
54.44339	4843.915		-76.09752	
54.49738	4839.552		-76.03276	
54.55136	4835.193		-75.95822	
54.60535	4830.843		-75.87415	
54.65933	4826.514		-75.78092	
54.71332	4822.219		-75.67912	
54.76731	4817.96		-75.56949	
54.82129	4813.722		-75.45287	
54.87528	4809.49		-75.33019	
54.92927	4805.255		-75.20247	
54.98325	4801.025		-75.07067	
55.03724	4796.816		-74.93577	
55.09123	4792.631		-74.79869	
55.14521	4788.47		-74.6603	
55.1992	4784.335		-74.52135	
55.25319	4780.229		-74.38246	
55.30717	4776.152		-74.24418	
55.36116	4772.086		-74.10693	
55.41515	4768.019		-73.97109	
55.46913	4763.952		-73.83703	
55.52312	4759.891		-73.70511	
55.57711	4755.849		-73.57574	
55.63109	4751.836		-73.44926	
55.68508	4747.868		-73.32592	
55.73907	4743.96		-73.20592	
55.79305	4740.139		-73.08939	
55.84704	4736.428		-72.97631	
55.90103	4732.838		-72.86661	
55.95501	4729.352		-72.7601	
56.009	4725.931		-72.65657	
56.06298	4722.539		-72.55576	
56.11697	4719.146		-72.45736	
56.17096	4715.73		-72.36109	
56.22495	4712.282		-72.26665	
56.27893	4708.793		-72.17371	
56.33292	4705.271		-72.08198	
56.38691	4701.722		-71.99122	
56.44089	4698.162		-71.90121	
56.49488	4694.595		-71.81183	
56.54887	4691.021		-71.72302	
56.60285	4687.437		-71.63487	
56.65684	4683.838		-71.54755	
56.71083	4680.225		-71.46135	
56.76481	4676.601		-71.37666	
56.8188	4672.957		-71.29395	
56.87278	4669.281		-71.21373	
56.92677	4665.559		-71.13655	
56.98076	4661.785		-71.06298	
57.03474	4657.954		-70.99356	
57.08873	4654.064		-70.92876	
57.14272	4650.111		-70.86899	
57.1967	4646.092		-70.81451	
57.25069	4642.002		-70.76553	
57.30468	4637.833		-70.72209	
57.35867	4633.592		-70.68419	
57.41265	4629.294		-70.65166	
57.46664	4624.957		-70.62434	
57.52063	4620.601		-70.60191	
57.57461	4616.247		-70.58392	
57.6286	4611.916		-70.56976	
57.68258	4607.621		-70.55861	
57.73657	4603.372		-70.54946	
57.79056	4599.172		-70.54118	
57.84454	4595.025		-70.5325	
57.89853	4590.939		-70.52206	
57.95252	4586.921		-70.50842	
58.0065	4582.969		-70.49016	
58.06049	4579.073		-70.46584	
58.11448	4575.218		-70.43412	
58.16846	4571.396		-70.39374	
58.22245	4567.598		-70.34357	
58.27644	4563.823		-70.2827	
58.33043	4560.069		-70.21043	
58.38441	4556.345		-70.12629	
58.4384	4552.669		-70.03001	
58.49238	4549.066		-69.9215	
58.54637	4545.554		-69.80087	
58.60036	4542.131		-69.66843	
58.65434	4538.779		-69.52468	
58.70833	4535.471		-69.37029	
58.76232	4532.175		-69.20613	
58.8163	4528.86		-69.03319	
58.87029	4525.498		-68.85259	
58.92428	4522.059		-68.66559	
58.97826	4518.523		-68.47353	
59.03225	4514.886		-68.27781	
59.08624	4511.16		-68.07984	
59.14022	4507.367		-67.88104	
59.19421	4503.534		-67.68287	
59.2482	4499.679		-67.48673	
59.30218	4495.819		-67.29401	
59.35617	4491.971		-67.106	
59.41016	4488.148		-66.924	
59.46414	4484.348		-66.74915	
59.51813	4480.559		-66.5825	
59.57212	4476.766		-66.42492	
59.6261	4472.961		-66.27699	
59.68009	4469.151		-66.13899	
59.73408	4465.352		-66.01096	
59.78806	4461.577		-65.89261	
59.84205	4457.829		-65.78337	
59.89603	4454.113		-65.68243	
59.95002	4450.435		-65.58878	
60.00401	4446.797		-65.50124	
60.05799	4443.201		-65.41846	
60.11198	4439.655		-65.33907	
60.16597	4436.174		-65.26162	
60.21996	4432.773		-65.18473	
60.27394	4429.456		-65.10706	
60.32793	4426.214		-65.02737	
60.38192	4423.033		-64.94448	
60.4359	4419.895		-64.85733	
60.48989	4416.782		-64.76495	
60.54388	4413.685		-64.66642	
60.59786	4410.6		-64.56097	
60.65185	4407.519		-64.44786	
60.70583	4404.429		-64.32648	
60.75982	4401.316		-64.1963	
60.81381	4398.167		-64.05688	
60.86779	4394.969		-63.90786	
60.92178	4391.709		-63.749	
60.97577	4388.382		-63.58011	
61.02975	4384.993		-63.40113	
61.08374	4381.546		-63.21201	
61.13773	4378.05		-63.01272	
61.19172	4374.512		-62.8033	
61.2457	4370.936		-62.58378	
61.29969	4367.329		-62.35426	
61.35368	4363.701		-62.11486	
61.40766	4360.06		-61.86578	
61.46165	4356.409		-61.6072	
61.51563	4352.75		-61.33931	
61.56962	4349.08		-61.06234	
61.62361	4345.394		-60.77647	
61.67759	4341.692		-60.4818	
61.73158	4337.98		-60.17834	
61.78557	4334.271		-59.86596	
61.83955	4330.585		-59.54441	
61.89354	4326.945		-59.21328	
61.94753	4323.366		-58.87204	
62.00151	4319.847		-58.52008	
62.0555	4316.375		-58.15664	
62.10949	4312.947		-57.78095	
62.16348	4309.563		-57.39217	
62.21746	4306.23		-56.98958	
62.27145	4302.957		-56.57238	
62.32543	4299.747		-56.13982	
62.37942	4296.598		-55.69115	
62.43341	4293.503		-55.22572	
62.48739	4290.454		-54.74295	
62.54138	4287.444		-54.24236	
62.59537	4284.462		-53.72361	
62.64935	4281.503		-53.18656	
62.70334	4278.565		-52.63102	
62.75733	4275.65		-52.05692	
62.81131	4272.76		-51.46426	
62.8653	4269.891		-50.85304	
62.91928	4267.038		-50.22328	
62.97327	4264.198		-49.57502	
63.02726	4261.369		-48.90845	
63.08125	4258.555		-48.22362	
63.13523	4255.761		-47.52061	
63.18922	4253.003		-46.79937	
63.24321	4250.299		-46.05989	
63.29719	4247.674		-45.30201	
63.35118	4245.149		-44.52551	
63.40517	4242.723		-43.73008	
63.45915	4240.377		-42.91551	
63.51314	4238.103		-42.08135	
63.56713	4235.882		-41.22709	
63.62111	4233.703		-40.35231	
63.6751	4231.55		-39.45636	
63.72908	4229.421		-38.53857	
63.78307	4227.32		-37.59809	
63.83706	4225.254		-36.63419	
63.89104	4223.226		-35.64582	
63.94503	4221.247		-34.6319	
63.99902	4219.317		-33.59119	
64.053	4217.441		-32.52266	
64.10699	4215.623		-31.42464	
64.16098	4213.859		-30.29616	
64.21497	4212.144		-29.13562	
64.26895	4210.465		-27.94153	
64.32294	4208.818		-26.71234	
64.37692	4207.201		-25.44642	
64.43091	4205.622		-24.1421	
64.4849	4204.081		-22.79744	
64.53889	4202.582		-21.41111	
64.59287	4201.125		-19.98116	
64.64686	4199.706		-18.50597	
64.70084	4198.32		-16.98393	
64.75483	4196.963		-15.41354	
64.80882	4195.637		-13.79345	
64.8628	4194.352		-12.12231	
64.91679	4193.121		-10.39863	
64.97078	4191.962		-8.621777	
65.02477	4190.889		-6.790329	
65.07875	4189.893		-4.903249	
65.13274	4188.96		-2.959421	
65.18672	4188.087		-0.9577946	
65.24071	4187.28		1.102822	
65.2947	4186.568		3.223927	
65.34869	4185.976		5.406155	
65.40267	4185.521		7.651217	
65.45666	4185.213		9.960552	
65.51064	4185.059		12.33573	
65.56463	4185.051		14.77847	
65.61861	4185.174		17.29051	
65.6726	4185.413		19.87378	
65.72659	4185.763		22.53066	
65.78058	4186.224		25.26247	
65.83456	4186.792		28.07186	
65.88855	4187.467		30.9611	
65.94254	4188.252		33.93269	
65.99652	4189.157		36.98911	
66.05051	4190.211		40.1331	
66.1045	4191.451		43.3679	
66.15849	4192.912		46.69547	
66.21247	4194.609		50.11937	
66.26646	4196.557		53.64262	
66.32044	4198.753		57.26845	
66.37443	4201.2		61.00021	
66.42841	4203.888		64.84123	
66.4824	4206.808		68.79511	
66.53639	4209.947		72.8661	
66.59038	4213.29		77.05677	
66.64436	4216.817		81.37167	
66.69835	4220.521		85.81438	
66.75233	4224.396		90.38914	
66.80632	4228.456		95.0994	
66.86031	4232.711		99.94897	
66.9143	4237.195		104.9422	
66.96828	4241.941		110.0812	
67.02227	4246.975		115.3702	
67.07626	4252.31		120.8123	
67.13024	4257.953		126.4113	
67.18423	4263.898		132.1706	
67.23821	4270.137		138.0932	
67.2922	4276.65		144.1828	
67.34619	4283.414		150.4437	
67.40018	4290.404		156.8777	
67.45416	4297.603		163.4892	
67.50815	4305.003		170.2818	
67.56213	4312.607		177.2599	
67.61612	4320.426		184.4267	
67.6701	4328.484		191.7864	
67.7241	4336.821		199.3441	
67.77808	4345.477		207.1016	
67.83207	4354.492		215.064	
67.88605	4363.896		223.235	
67.94004	4373.715		231.6193	
67.99403	4383.972		240.2201	
68.04801	4394.683		249.0418	
68.102	4405.852		258.088	
68.15599	4417.477		267.3638	
68.20998	4429.549		276.87	
68.26396	4442.071		286.6107	
68.31795	4455.053		296.5883	
68.37193	4468.51		306.8055	
68.42592	4482.469		317.2628	
68.4799	4496.961		327.9609	
68.5339	4512.024		338.9012	
68.58788	4527.694		350.0792	
68.64187	4544.013		361.4943	
68.69585	4561.02		373.1432	
68.74984	4578.742		385.0226	
68.80383	4597.194		397.1265	
68.85781	4616.377		409.4492	
68.9118	4636.29		421.9837	
68.96579	4656.926		434.7241	
69.01978	4678.269		447.6581	
69.07376	4700.314		460.7782	
69.12775	4723.068		474.0738	
69.18173	4746.541		487.5349	
69.23572	4770.745		501.1491	
69.2897	4795.688		514.9042	
69.3437	4821.39		528.7889	
69.39768	4847.861		542.7855	
69.45167	4875.134		556.8807	
69.50565	4903.23		571.0591	
69.55964	4932.175		585.3045	
69.61362	4961.986		599.5995	
69.66761	4992.702		613.9263	
69.7216	5024.354		628.2666	
69.77559	5056.974		642.6031	
69.82957	5090.558		656.9119	
69.88356	5125.122		671.1748	
69.93755	5160.677		685.3708	
69.99153	5197.249		699.4788	
70.04552	5234.857		713.477	
70.0995	5273.533		727.3435	
70.1535	5313.298		741.0579	
70.20748	5354.169		754.5936	
70.26147	5396.177		767.9295	
70.31545	5439.348		781.0422	
70.36944	5483.7		793.9072	
70.42342	5529.247		806.5008	
70.47741	5575.977		818.7979	
70.5314	5623.884		830.775	
70.58539	5672.934		842.4029	
70.63937	5723.111		853.6575	
70.69336	5774.387		864.5123	
70.74734	5826.706		874.9415	
70.80133	5879.997		884.9172	
70.85532	5934.17		894.4146	
70.9093	5989.138		903.4073	
70.96329	6044.818		911.8713	
71.01728	6101.104		919.7793	
71.07127	6157.914		927.1091	
71.12525	6215.178		933.8387	
71.17924	6272.838		939.9448	
71.23322	6330.852		945.4097	
71.28721	6389.188		950.2143	
71.3412	6447.846		954.3428	
71.39519	6506.808		957.7792	
71.44917	6566.09		960.5113	
71.50316	6625.694		962.5283	
71.55714	6685.615		963.8224	
71.61113	6745.838		964.3845	
71.66512	6806.346		964.2126	
71.7191	6867.109		963.304	
71.77309	6928.097		961.6581	
71.82708	6989.246		959.2778	
71.88107	7050.494		956.1674	
71.93505	7111.763		952.3341	
71.98904	7172.973		947.7842	
72.04302	7234.048		942.5312	
72.09701	7294.923		936.5868	
72.151	7355.551		929.9648	
72.20499	7415.855		922.6837	
72.25897	7475.785		914.7606	
72.31296	7535.267		906.2151	
72.36694	7594.214		897.0693	
72.42093	7652.528		887.3431	
72.47491	7710.099		877.0623	
72.5289	7766.823		866.2505	
72.58289	7822.603		854.9313	
72.63688	7877.332		843.1338	
72.69086	7930.908		830.8827	
72.74485	7983.219		818.2053	
72.79884	8034.136		805.1268	
72.85282	8083.553		791.6758	
72.90681	8131.395		777.8785	
72.9608	8177.623		763.7592	
73.01479	8222.197		749.3481	
73.06877	8265.124		734.6694	
73.12276	8306.41		719.7484	
73.17674	8346.075		704.61	
73.23073	8384.154		689.2788	
73.28471	8420.699		673.7798	
73.3387	8455.762		658.1371	
73.39269	8489.391		642.3727	
73.44668	8521.6		626.5152	
73.50066	8552.415		610.5864	
73.55465	8581.861		594.6102	
73.60863	8609.956		578.6111	
73.66262	8636.715		562.6126	
73.71661	8662.154		546.639	
73.7706	8686.322		530.7114	
73.82458	8709.262		514.858	
73.87857	8731.034		499.0996	
73.93256	8751.705		483.4583	
73.98654	8771.329		467.9568	
74.04053	8789.969		452.6166	
74.09451	8807.71		437.4575	
74.1485	8824.655		422.4996	
74.20249	8840.905		407.76	
74.25648	8856.539		393.2609	
74.31046	8871.624		379.0172	
74.36445	8886.191		365.0449	
74.41843	8900.253		351.3601	
74.47242	8913.815		337.9757	
74.52641	8926.885		324.9049	
74.5804	8939.473		312.1575	
74.63438	8951.59		299.7473	
74.68837	8963.269		287.6814	
74.74236	8974.542		275.9669	
74.79634	8985.433		264.6103	
74.85033	8995.967		253.616	
74.90431	9006.164		242.9857	
74.9583	9016.052		232.7205	
75.01229	9025.658		222.8181	
75.06628	9035.005		213.2784	
75.12026	9044.09		204.0951	
75.17425	9052.916		195.2616	
75.22823	9061.48		186.7709	
75.28222	9069.792		178.6126	
75.3362	9077.835		170.7765	
75.3902	9085.579		163.2498	
75.44418	9092.967		156.0223	
75.49817	9099.964		149.0797	
75.55215	9106.554		142.4083	
75.60614	9112.734		135.9949	
75.66013	9118.508		129.8257	
75.71411	9123.883		123.8866	
75.7681	9128.874		118.1645	
75.82209	9133.5		112.6453	
75.87608	9137.802		107.318	
75.93006	9141.818		102.1694	
75.98405	9145.571		97.18752	
76.03803	9149.069		92.36154	
76.09202	9152.328		87.68041	
76.146	9155.358		83.13438	
76.2	9158.159		78.71371	
76.25398	9160.731		74.41138	
76.30797	9163.071		70.21932	
76.36195	9165.174		66.13092	
76.41594	9167.045		62.14069	
76.46992	9168.709		58.24388	
76.52391	9170.191		54.43643	
76.5779	9171.507		50.71543	
76.63189	9172.687		47.07809	
76.68587	9173.78		43.52391	
76.73986	9174.85		40.05148	
76.79385	9175.959		36.6604	
76.84783	9177.153		33.35098	
76.90182	9178.447		30.12352	
76.9558	9179.832		26.9788	
77.0098	9181.287		23.91718	
77.06378	9182.767		20.94025	
77.11777	9184.212		18.04816	
77.17175	9185.576		15.2412	
77.22574	9186.826		12.51957	
77.27972	9187.956		9.882972	
77.33371	9188.952		7.330559	
77.3877	9189.802		4.861261	
77.44169	9190.487		2.473165	
77.49567	9190.998		0.1649478	
77.54966	9191.33		-2.06615	
77.60365	9191.478		-4.222968	
77.65763	9191.427		-6.308453	
77.71162	9191.161		-8.326155	
77.7656	9190.653		-10.27964	
77.8196	9189.88		-12.17296	
77.87358	9188.82		-14.00942	
77.92757	9187.459		-15.79313	
77.98155	9185.793		-17.52793	
78.03554	9183.831		-19.21732	
78.08952	9181.6		-20.86473	
78.14351	9179.14		-22.47338	
78.19749	9176.497		-24.04599	
78.25149	9173.716		-25.58519	
78.30547	9170.839		-27.09254	
78.35946	9167.894		-28.56989	
78.41344	9164.895		-30.01847	
78.46743	9161.852		-31.43893	
78.52142	9158.763		-32.83171	
78.5754	9155.62		-34.19664	
78.62939	9152.424		-35.53339	
78.68338	9149.184		-36.84072	
78.73737	9145.919		-38.11767	
78.79135	9142.666		-39.3628	
78.84534	9139.473		-40.57439	
78.89932	9136.378		-41.75056	
78.95331	9133.418		-42.88942	
79.00729	9130.628		-43.98891	
79.06129	9128.029		-45.04717	
79.11527	9125.634		-46.06199	
79.16926	9123.433		-47.03175	
79.22324	9121.4		-47.95509	
79.27723	9119.479		-48.83076	
79.33121	9117.6		-49.65817	
79.3852	9115.687		-50.43692	
79.43919	9113.682		-51.16714	
79.49318	9111.547		-51.84906	
79.54716	9109.254		-52.48361	
79.60115	9106.773		-53.07206	
79.65514	9104.104		-53.61598	
79.70912	9101.261		-54.11745	
79.76311	9098.279		-54.57895	
79.81709	9095.192		-55.0032	
79.87109	9092.033		-55.39318	
79.92507	9088.828		-55.75186	
79.97906	9085.597		-56.08241	
80.03304	9082.348		-56.38791	
80.08703	9079.077		-56.67129	
80.14101	9075.761		-56.93532	
80.195	9072.372		-57.18252	
80.24899	9068.896		-57.41519	
80.30298	9065.332		-57.63533	
80.35696	9061.68		-57.84475	
80.41095	9057.941		-58.04494	
80.46494	9054.124		-58.23705	
80.51892	9050.234		-58.42191	
80.57291	9046.298		-58.6	
80.62689	9042.36		-58.77154	
80.68089	9038.479		-58.93641	
80.73487	9034.701		-59.09421	
80.78886	9031.07		-59.24433	
80.84284	9027.607		-59.38602	
80.89683	9024.308		-59.51823	
80.95081	9021.154		-59.63992	
81.0048	9018.115		-59.7499	
81.05879	9015.144		-59.84703	
81.11278	9012.201		-59.93024	
81.16676	9009.254		-59.99869	
81.22075	9006.264		-60.05176	
81.27473	9003.205		-60.08908	
81.32872	9000.06		-60.11071	
81.38271	8996.823		-60.11709	
81.43669	8993.512		-60.10895	
81.49068	8990.156		-60.08737	
81.54467	8986.792		-60.05378	
81.59866	8983.445		-60.0099	
81.65264	8980.146		-59.95774	
81.70663	8976.912		-59.89954	
81.76061	8973.741		-59.83782	
81.8146	8970.606		-59.7752	
81.86859	8967.474		-59.71448	
81.92258	8964.308		-59.65852	
81.97656	8961.067		-59.61019	
82.03055	8957.729		-59.5723	
82.08453	8954.3		-59.54762	
82.13852	8950.791		-59.53868	
82.1925	8947.226		-59.54784	
82.24649	8943.629		-59.5773	
82.30048	8940.029		-59.62912	
82.35447	8936.46		-59.70514	
82.40845	8932.948		-59.80708	
82.46244	8929.52		-59.93639	
82.51643	8926.187		-60.09444	
82.57041	8922.95		-60.28215	
82.6244	8919.814		-60.50032	
82.67839	8916.78		-60.74946	
82.73238	8913.84		-61.02968	
82.78636	8910.969		-61.34095	
82.84035	8908.125		-61.68292	
82.89433	8905.274		-62.05508	
82.94832	8902.406		-62.45655	
83.0023	8899.526		-62.88617	
83.05629	8896.666		-63.34271	
83.11028	8893.86		-63.82494	
83.16427	8891.139		-64.33144	
83.21825	8888.517		-64.86099	
83.27224	8886.01		-65.41238	
83.32623	8883.602		-65.98464	
83.38021	8881.245		-66.57683	
83.4342	8878.879		-67.18829	
83.48819	8876.453		-67.8187	
83.54218	8873.911		-68.46761	
83.59616	8871.206		-69.13512	
83.65015	8868.302		-69.82136	
83.70413	8865.18		-70.52676	
83.75812	8861.847		-71.25183	
83.8121	8858.328		-71.99712	
83.86609	8854.653		-72.76343	
83.92008	8850.836		-73.55175	
83.97407	8846.888		-74.36291	
84.02805	8842.828		-75.19817	
84.08204	8838.69		-76.05882	
84.13602	8834.496		-76.94629	
84.19001	8830.264		-77.86195	
84.244	8825.995		-78.80721	
84.29799	8821.685		-79.78359	
84.35197	8817.308		-80.7921	
84.40596	8812.828		-81.83409	
84.45995	8808.209		-82.91066	
84.51393	8803.423		-84.02293	
84.56792	8798.462		-85.17184	
84.6219	8793.344		-86.35837	
84.67589	8788.113		-87.58338	
84.72988	8782.837		-88.84784	
84.78387	8777.583		-90.15199	
84.83785	8772.39		-91.49648	
84.89184	8767.271		-92.88151	
84.94582	8762.211		-94.30712	
84.99981	8757.184		-95.77289	
85.05379	8752.154		-97.27818	
85.10779	8747.08		-98.82219	
85.16177	8741.923		-100.4032	
85.21576	8736.661		-102.0197	
85.26974	8731.291		-103.6697	
85.32373	8725.794		-105.3508	
85.37772	8720.165		-107.0601	
85.4317	8714.405		-108.7946	
85.48569	8708.551		-110.5512	
85.53968	8702.643		-112.327	
85.59367	8696.741		-114.1181	
85.64765	8690.865		-115.9216	
85.70164	8685.036		-117.7342	
85.75562	8679.261		-119.553	
85.80961	8673.56		-121.3747	
85.86359	8667.911		-123.1964	
85.91759	8662.287		-125.0154	
85.97157	8656.624		-126.8283	
86.02556	8650.882		-128.6326	
86.07954	8645.021		-130.4257	
86.13353	8639.023		-132.2051	
86.18752	8632.859		-133.9684	
86.2415	8626.522		-135.7132	
86.29549	8620.013		-137.4374	
86.34948	8613.354		-139.1394	
86.40347	8606.559		-140.8169	
86.45745	8599.64		-142.4684	
86.51144	8592.588		-144.0925	
86.56542	8585.37		-145.688	
86.61941	8577.924		-147.2541	
86.67339	8570.202		-148.7904	
86.72739	8562.17		-150.2967	
86.78137	8553.813		-151.7723	
86.83536	8545.126		-153.2176	
86.88934	8536.12		-154.6325	
86.94333	8526.82		-156.0172	
86.99731	8517.263		-157.372	
87.0513	8507.472		-158.6972	
87.10529	8497.468		-159.9931	
87.15928	8487.273		-161.2598	
87.21326	8476.909		-162.4973	
87.26725	8466.396		-163.7057	
87.32124	8455.754		-164.8846	
87.37522	8444.997		-166.0328	
87.42921	8434.132		-167.1495	
87.48319	8423.169		-168.2331	
87.53719	8412.131		-169.282	
87.59117	8401.056		-170.2943	
87.64516	8389.977		-171.2682	
87.69914	8378.928		-172.202	
87.75313	8367.948		-173.0937	
87.80711	8357.092		-173.942	
87.8611	8346.42		-174.7453	
87.91509	8335.964		-175.5026	
87.96908	8325.727		-176.2126	
88.02306	8315.69		-176.8747	
88.07705	8305.828		-177.4886	
88.13103	8296.1		-178.0541	
88.18502	8286.463		-178.5711	
88.23901	8276.865		-179.0401	
88.29299	8267.251		-179.4618	
88.34698	8257.59		-179.8374	
88.40097	8247.881		-180.1679	
88.45496	8238.147		-180.4553	
88.50894	8228.425		-180.7017	
88.56293	8218.765		-180.9096	
88.61691	8209.214		-181.0822	
88.6709	8199.822		-181.2229	
88.72489	8190.599		-181.3354	
88.77888	8181.53		-181.4234	
88.83286	8172.56		-181.4911	
88.88685	8163.625		-181.5423	
88.94083	8154.654		-181.5811	
88.99482	8145.609		-181.6115	
89.04881	8136.449		-181.6373	
89.10279	8127.154		-181.662	
89.15678	8117.69		-181.6891	
89.21077	8108.057		-181.7217	
89.26476	8098.258		-181.7629	
89.31874	8088.352		-181.8152	
89.37273	8078.397		-181.8807	
89.42671	8068.458		-181.961	
89.4807	8058.563		-182.0575	
89.53469	8048.75		-182.1707	
89.58868	8039.029		-182.3006	
89.64266	8029.407		-182.4469	
89.69665	8019.84		-182.6084	
89.75063	8010.286		-182.7838	
89.80462	8000.696		-182.9712	
89.8586	7991.065		-183.1682	
89.91259	7981.383		-183.3723	
89.96658	7971.663		-183.5808	
90.02057	7961.909		-183.7909	
90.07455	7952.139		-183.9998	
90.12854	7942.373		-184.2049	
90.18253	7932.641		-184.4037	
90.23651	7922.955		-184.5939	
90.2905	7913.323		-184.7736	
90.34449	7903.733		-184.9409	
90.39848	7894.178		-185.0945	
90.45246	7884.62		-185.2332	
90.50645	7875.019		-185.3561	
90.56043	7865.33		-185.4625	
90.61442	7855.534		-185.552	
90.6684	7845.616		-185.6248	
90.72239	7835.565		-185.6809	
90.77638	7825.374		-185.721	
90.83037	7815.041		-185.7457	
90.88435	7804.572		-185.7559	
90.93834	7793.98		-185.7531	
90.99232	7783.282		-185.7386	
91.04631	7772.479		-185.7142	
91.1003	7761.559		-185.6817	
91.15429	7750.505		-185.643	
91.20827	7739.304		-185.5998	
91.26226	7727.967		-185.554	
91.31625	7716.54		-185.5072	
91.37023	7705.082		-185.4612	
91.42422	7693.657		-185.4176	
91.4782	7682.316		-185.3778	
91.53219	7671.106		-185.3431	
91.58618	7660.069		-185.3142	
91.64017	7649.248		-185.2917	
91.69415	7638.664		-185.2758	
91.74814	7628.315		-185.2663	
91.80212	7618.182		-185.2628	
91.85611	7608.232		-185.2647	
91.9101	7598.441		-185.2712	
91.96409	7588.778		-185.2813	
92.01807	7579.22		-185.294	
92.07206	7569.753		-185.3081	
92.12605	7560.366		-185.3225	
92.18003	7551.049		-185.3364	
92.23402	7541.785		-185.349	
92.288	7532.569		-185.3596	
92.34199	7523.396		-185.3679	
92.39598	7514.272		-185.374	
92.44997	7505.193		-185.5226	
92.50395	7496.154		-185.6783	
92.55794	7487.145		-185.8358	
92.61192	7478.163		-185.9912	
92.66591	7469.173		-186.1424	
92.71989	7460.143		-186.2888	
92.77389	7451.025		-186.4305	
92.82787	7441.798		-186.5683	
92.88186	7432.438		-186.7032	
92.93584	7422.969		-186.8361	
92.98983	7413.416		-186.968	
93.04382	7403.823		-187.0999	
93.0978	7394.204		-187.2325	
93.15179	7384.565		-187.3667	
93.20578	7374.887		-187.5029	
93.25977	7365.172		-187.6418	
93.31375	7355.403		-187.7838	
93.36774	7345.587		-187.9295	
93.42172	7335.707		-188.079	
93.47571	7325.744		-188.2328	
93.52969	7315.649		-188.391	
93.58369	7305.404		-188.554	
93.63767	7295.021		-188.7218	
93.69166	7284.521		-188.8946	
93.74564	7273.922		-189.0725	
93.79963	7263.26		-189.2555	
93.85361	7252.532		-189.4438	
93.9076	7241.73		-189.6374	
93.96159	7230.847		-189.8362	
94.01558	7219.89		-190.0402	
94.06956	7208.968		-190.2494	
94.12355	7198.226		-190.4637	
94.17754	7187.592		-190.6831	
94.23152	7177.009		-190.9075	
94.28551	7166.45		-191.1367	
94.33949	7155.901		-191.3707	
94.39349	7145.356		-191.6093	
94.44747	7134.815		-191.8525	
94.50146	7124.28		-192.1	
94.55544	7113.752		-192.3518	
94.60943	7103.233		-192.6077	
94.66341	7092.726		-192.8676	
94.7174	7082.23		-193.1313	
94.77139	7071.747		-193.3987	
94.82538	7061.276		-193.6696	
94.87936	7050.824		-193.9439	
94.93335	7040.394		-194.2214	
94.98734	7029.989		-194.502	
