T[Â°C]	330nm [counts / mm]	S.D.	First derivative	S.D. of first derivative
19.99944	7951.657	29.49062	-117.036	2.55305
20.05342	7945.345	29.44076	-116.8637	2.538512
20.10741	7939.03	29.40303	-116.6916	2.523422
20.1614	7932.711	29.37787	-116.5196	2.507714
20.21539	7926.391	29.36465	-116.3477	2.491338
20.26938	7920.069	29.36251	-116.1761	2.474233
20.32337	7913.748	29.37074	-116.0046	2.456362
20.37736	7907.426	29.38696	-115.8335	2.437677
20.43135	7901.105	29.41004	-115.6626	2.418135
20.48534	7894.786	29.43818	-115.4921	2.397711
20.53933	7888.466	29.46984	-115.3219	2.376375
20.59332	7882.149	29.50381	-115.1521	2.354106
20.64731	7875.833	29.53801	-114.9828	2.330886
20.7013	7869.519	29.57193	-114.8139	2.306709
20.75529	7863.207	29.60519	-114.6456	2.281573
20.80928	7856.895	29.63802	-114.4778	2.255478
20.86327	7850.58	29.67371	-114.3106	2.228445
20.91726	7844.253	29.72407	-114.144	2.200479
20.97124	7837.899	29.81727	-113.9781	2.171625
21.02523	7831.616	29.85426	-113.8128	2.141905
21.07922	7825.355	29.87801	-113.6482	2.111372
21.13321	7819.12	29.88571	-113.4844	2.08008
21.1872	7812.91	29.87232	-113.3212	2.048092
21.24119	7806.717	29.83002	-113.1589	2.015481
21.29518	7800.541	29.74767	-112.9973	1.982331
21.34917	7794.38	29.61833	-112.8364	1.948741
21.40316	7788.232	29.4417	-112.6763	1.914805
21.45715	7782.095	29.21962	-112.517	1.880643
21.51114	7775.971	28.95385	-112.3583	1.846379
21.56513	7769.861	28.64522	-112.2004	1.812142
21.61912	7763.77	28.28633	-112.0431	1.778072
21.67311	7757.704	27.87171	-111.8865	1.744307
21.7271	7751.673	27.40294	-111.7303	1.711011
21.78109	7745.684	26.88889	-111.5747	1.67832
21.83508	7739.733	26.34174	-111.4194	1.646394
21.88906	7733.813	25.77325	-111.2644	1.615382
21.94305	7727.917	25.20019	-111.1095	1.585436
21.99704	7722.036	24.63836	-110.9547	1.556698
22.05103	7716.168	24.10518	-110.7996	1.529296
22.10502	7710.314	23.61794	-110.6443	1.503332
22.15901	7704.479	23.19428	-110.4883	1.478882
22.213	7698.668	22.84848	-110.3315	1.455947
22.26699	7692.882	22.58409	-110.1735	1.434418
22.32098	7687.118	22.39351	-110.0141	1.413967
22.37497	7681.363	22.26896	-109.8529	1.393948
22.42896	7675.605	22.20165	-109.6896	1.373191
22.48295	7669.839	22.18677	-109.524	1.349819
22.53694	7664.064	22.21786	-109.3562	1.321156
22.59093	7658.277	22.2969	-109.1866	1.284117
22.64492	7652.483	22.42881	-109.0532	1.193659
22.69891	7646.68	22.61201	-108.9231	1.100154
22.7529	7640.872	22.8471	-108.7967	1.004136
22.80688	7635.066	23.13834	-108.6744	0.9061689
22.86087	7629.266	23.47716	-108.5566	0.8068883
22.91486	7623.467	23.85116	-108.4437	0.7070217
22.96885	7617.665	24.24099	-108.3361	0.607399
23.02284	7611.853	24.63068	-108.2341	0.5090541
23.07683	7606.028	25.01117	-108.1381	0.4133534
23.13082	7600.19	25.37974	-108.0483	0.3223811
23.18481	7594.337	25.74072	-107.9649	0.239974
23.2388	7588.471	26.08894	-107.888	0.1746561
23.29279	7582.598	26.40671	-107.8175	0.1441544
23.34678	7576.727	26.67333	-107.7534	0.1612216
23.40077	7570.857	26.87786	-107.6953	0.2080435
23.45476	7564.993	27.01883	-107.6429	0.2635485
23.50875	7559.132	27.10444	-107.5959	0.3180247
23.56274	7553.274	27.14166	-107.5537	0.3672997
23.61673	7547.416	27.13049	-107.5158	0.4092825
23.67072	7541.563	27.07049	-107.4817	0.4427938
23.72471	7535.726	26.96445	-107.4508	0.4672122
23.7787	7529.917	26.821	-107.4225	0.4823553
23.83269	7524.153	26.64799	-107.3962	0.4884938
23.88667	7518.44	26.45701	-107.3715	0.4863747
23.94066	7512.777	26.26635	-107.3477	0.4773117
23.99465	7507.154	26.094	-107.3244	0.4633119
24.04864	7501.554	25.95411	-107.3011	0.4471939
24.10263	7495.955	25.85073	-107.2774	0.4327037
24.15662	7490.334	25.7883	-107.2529	0.4242969
24.21061	7484.675	25.77059	-107.2273	0.4265319
24.2646	7478.973	25.79358	-107.2002	0.4428484
24.31859	7473.226	25.85144	-107.1714	0.4744854
24.37258	7467.44	25.94182	-107.1408	0.520296
24.42657	7461.625	26.0627	-107.1081	0.5775552
24.48056	7455.788	26.20539	-107.0734	0.6429853
24.53455	7449.938	26.36187	-107.0366	0.7134483
24.58854	7444.084	26.52846	-106.998	0.7861943
24.64253	7438.229	26.70505	-106.9576	0.858918
24.69652	7432.381	26.88965	-106.9156	0.9297056
24.75051	7426.551	27.07564	-106.8724	0.9969595
24.80449	7420.748	27.26231	-106.8281	1.059392
24.85848	7414.98	27.44656	-106.783	1.115982
24.91247	7409.243	27.61653	-106.7374	1.165983
24.96646	7403.52	27.75979	-106.6913	1.208919
25.02045	7397.796	27.86754	-106.6451	1.244531
25.07444	7392.053	27.92835	-106.5987	1.27276
25.12843	7386.281	27.93331	-106.5522	1.293689
25.18242	7380.473	27.88081	-106.5058	1.307502
25.23641	7374.624	27.76877	-106.4595	1.314461
25.2904	7368.738	27.59825	-106.4132	1.314899
25.34439	7362.823	27.36968	-106.367	1.309217
25.39838	7356.894	27.08151	-106.3206	1.297886
25.45237	7350.963	26.73354	-106.2741	1.281393
25.50636	7345.047	26.33054	-106.2271	1.260258
25.56035	7339.157	25.88224	-106.1796	1.235044
25.61434	7333.299	25.40152	-106.1312	1.206331
25.66833	7327.477	24.90111	-106.0816	1.174667
25.72231	7321.685	24.39308	-106.0307	1.140545
25.7763	7315.918	23.8888	-105.978	1.104354
25.83029	7310.176	23.39149	-105.9232	1.06638
25.88428	7304.457	22.90187	-105.866	1.026806
25.93827	7298.762	22.42116	-105.806	0.9857432
25.99226	7293.087	21.95481	-105.7429	0.9432741
26.04625	7287.429	21.51048	-105.6763	0.899457
26.10024	7281.78	21.09625	-105.606	0.8543187
26.15423	7276.138	20.7229	-105.5316	0.8079041
26.20822	7270.5	20.40269	-105.4531	0.7602569
26.26221	7264.867	20.1478	-105.3701	0.7114701
26.3162	7259.238	19.96616	-105.2827	0.6616906
26.37019	7253.617	19.86333	-105.1908	0.6111596
26.42418	7248.007	19.84149	-105.0944	0.5602159
26.47817	7242.414	19.89995	-104.9936	0.5092981
26.53216	7236.842	20.03437	-104.8886	0.4589569
26.58615	7231.29	20.23829	-104.7795	0.4098264
26.64013	7225.751	20.50122	-104.6667	0.3626499
26.69412	7220.222	20.80956	-104.5504	0.3183143
26.74811	7214.697	21.15086	-104.431	0.2778548
26.8021	7209.168	21.50891	-104.3089	0.2424614
26.85609	7203.628	21.8623	-104.1845	0.2134394
26.91008	7198.064	22.19425	-104.0582	0.1919757
26.96407	7192.468	22.49583	-103.9304	0.1787679
27.01806	7186.828	22.76479	-103.8015	0.1735241
27.07205	7181.137	23.00438	-103.6718	0.1748818
27.12604	7175.396	23.21695	-103.5415	0.1808339
27.18003	7169.61	23.40801	-103.4112	0.1893399
27.23402	7163.789	23.59158	-103.2811	0.1987319
27.28801	7157.945	23.78353	-103.1517	0.2078086
27.342	7152.098	23.99676	-103.0232	0.2157895
27.39599	7146.264	24.23822	-102.8961	0.2221502
27.44998	7140.466	24.4959	-102.7707	0.2265542
27.50397	7134.724	24.75035	-102.6472	0.2288058
27.55795	7129.053	24.98195	-102.526	0.228781
27.61194	7123.463	25.17559	-102.4072	0.2264144
27.66593	7117.946	25.31909	-102.291	0.2217101
27.71992	7112.481	25.41811	-102.1774	0.2147369
27.77391	7107.047	25.49128	-102.0667	0.2057059
27.8279	7101.624	25.55497	-101.9586	0.1950623
27.88189	7096.2	25.61994	-101.8532	0.1835686
27.93588	7090.773	25.69254	-101.7503	0.1724848
27.98987	7085.343	25.77759	-101.6498	0.1637109
28.04386	7079.911	25.87606	-101.5515	0.1597699
28.09785	7074.475	25.98264	-101.4553	0.1633038
28.15184	7069.034	26.08427	-101.3611	0.1760723
28.20583	7063.597	26.1666	-101.2687	0.198246
28.25982	7058.173	26.21782	-101.178	0.2287084
28.31381	7052.77	26.23167	-101.0891	0.2659068
28.3678	7047.395	26.20554	-101.0018	0.308397
28.42179	7042.052	26.13802	-100.9163	0.3550142
28.47577	7036.736	26.03316	-100.8325	0.4048762
28.52976	7031.432	25.89458	-100.7505	0.4572939
28.58375	7026.125	25.72305	-100.6702	0.5117266
28.63774	7020.802	25.51962	-100.5916	0.5676868
28.69173	7015.457	25.29118	-100.5148	0.624772
28.74572	7010.087	25.0416	-100.4395	0.6825994
28.79971	7004.698	24.77427	-100.3658	0.7407963
28.8537	6999.301	24.49362	-100.2935	0.7989595
28.90769	6993.9	24.19825	-100.2225	0.8566214
28.96168	6988.504	23.88112	-100.1528	0.913237
29.01567	6983.123	23.53621	-100.0843	0.9681411
29.06966	6977.764	23.15512	-100.017	1.020578
29.12365	6972.431	22.73598	-99.9509	1.069734
29.17764	6967.128	22.28845	-99.88608	1.11476
29.23163	6961.849	21.82867	-99.82265	1.15483
29.28562	6956.589	21.37592	-99.76077	1.189151
29.33961	6951.336	20.95371	-99.70061	1.216996
29.3936	6946.079	20.58735	-99.64236	1.237718
29.44759	6940.805	20.29339	-99.58618	1.250775
29.50158	6935.514	20.07994	-99.53221	1.255739
29.55556	6930.211	19.9477	-99.48058	1.25232
29.60955	6924.902	19.88568	-99.43136	1.240358
29.66354	6919.59	19.87441	-99.38459	1.219822
29.71753	6914.277	19.89712	-99.34028	1.190804
29.77152	6908.962	19.94122	-99.29842	1.15355
29.82551	6903.634	20.00314	-99.25896	1.108438
29.8795	6898.283	20.08069	-99.22183	1.055979
29.93349	6892.908	20.17435	-99.18698	0.9968149
29.98748	6887.512	20.28968	-99.15435	0.9316806
30.04147	6882.093	20.4394	-99.12388	0.8614199
30.09546	6876.648	20.63083	-99.0955	0.7870214
30.14945	6871.175	20.86317	-99.06911	0.7096499
30.20344	6865.683	21.13104	-99.04457	0.6307275
30.25743	6860.179	21.43054	-99.02169	0.5520525
30.31142	6854.674	21.75619	-99.00024	0.4760615
30.36541	6849.177	22.09632	-98.97997	0.406162
30.4194	6843.699	22.43773	-98.96061	0.347267
30.47338	6838.246	22.76336	-98.9419	0.3060082
30.52737	6832.815	23.05576	-98.92358	0.2890127
30.58136	6827.407	23.29766	-98.90536	0.2984007
30.63535	6822.019	23.47482	-98.88689	0.3292263
30.68934	6816.644	23.57786	-98.86786	0.373244
30.74333	6811.277	23.60978	-98.84791	0.4233372
30.79732	6805.92	23.58235	-98.82667	0.4746761
30.85131	6800.57	23.50974	-98.80379	0.5242482
30.9053	6795.222	23.40866	-98.7789	0.5702258
30.95929	6789.875	23.29323	-98.75163	0.6115692
31.01328	6784.525	23.17344	-98.72164	0.6478561
31.06727	6779.178	23.052	-98.68865	0.6791376
31.12126	6773.843	22.92613	-98.65243	0.705919
31.17525	6768.526	22.79227	-98.61281	0.7290698
31.22924	6763.234	22.64813	-98.56968	0.7497595
31.28323	6757.969	22.49103	-98.52301	0.7693676
31.33722	6752.732	22.32615	-98.47282	0.7893658
31.3912	6747.523	22.16479	-98.41918	0.8111867
31.44519	6742.336	22.01742	-98.36216	0.8360503
31.49918	6737.162	21.89548	-98.3019	0.8648047
31.55317	6731.99	21.81126	-98.23853	0.897848
31.60716	6726.807	21.77263	-98.17221	0.9350607
31.66115	6721.598	21.78563	-98.10307	0.9758866
31.71514	6716.358	21.85066	-98.03123	1.019441
31.76913	6711.086	21.96014	-97.95688	1.064624
31.82312	6705.782	22.10316	-97.88022	1.110214
31.87711	6700.452	22.26613	-97.8015	1.155005
31.9311	6695.108	22.43368	-97.72103	1.197827
31.98509	6689.762	22.59744	-97.63921	1.237649
32.03908	6684.42	22.7483	-97.55644	1.273624
32.09307	6679.085	22.87831	-97.47314	1.305125
32.14706	6673.762	22.98646	-97.38977	1.331773
32.20105	6668.457	23.07736	-97.30669	1.35348
32.25504	6663.167	23.15376	-97.22427	1.370442
32.30902	6657.886	23.21686	-97.14277	1.383154
32.36301	6652.604	23.26094	-97.06242	1.392318
32.417	6647.316	23.28585	-96.98341	1.398801
32.47099	6642.017	23.2905	-96.90588	1.403564
32.52498	6636.699	23.27515	-96.82993	1.407615
32.57897	6631.357	23.23812	-96.75565	1.411919
32.63296	6625.995	23.17144	-96.68311	1.417372
32.68695	6620.618	23.06102	-96.61234	1.42474
32.74094	6615.236	22.89751	-96.54343	1.43463
32.79493	6609.866	22.66856	-96.47639	1.447495
32.84892	6604.531	22.36528	-96.41123	1.463579
32.90291	6599.253	21.98618	-96.34798	1.482909
32.9569	6594.041	21.54041	-96.28664	1.505295
33.01089	6588.894	21.04963	-96.2272	1.530345
33.06488	6583.8	20.53585	-96.16963	1.557489
33.11887	6578.744	20.01986	-96.11388	1.586003
33.17286	6573.71	19.52019	-96.05988	1.61507
33.22684	6568.685	19.04848	-96.00751	1.643841
33.28083	6563.651	18.60754	-95.95669	1.671467
33.33482	6558.6	18.20041	-95.9073	1.697142
33.38881	6553.528	17.83256	-95.85922	1.720122
33.4428	6548.438	17.50938	-95.81237	1.739732
33.49679	6543.335	17.23092	-95.76665	1.755395
33.55078	6538.229	16.99286	-95.72202	1.76663
33.60477	6533.121	16.79436	-95.67841	1.773071
33.65876	6528.02	16.64204	-95.6358	1.774479
33.71275	6522.931	16.54471	-95.59418	1.770737
33.76674	6517.855	16.50864	-95.55351	1.761859
33.82073	6512.789	16.53413	-95.51377	1.747976
33.87472	6507.726	16.62064	-95.47495	1.729351
33.92871	6502.661	16.77161	-95.43706	1.706362
33.9827	6497.583	16.98511	-95.40006	1.67945
34.03669	6492.482	17.25333	-95.36394	1.649127
34.09068	6487.35	17.56288	-95.3286	1.61594
34.14466	6482.187	17.89787	-95.29395	1.580456
34.19865	6477	18.24078	-95.25983	1.543242
34.25264	6471.804	18.57691	-95.22614	1.504853
34.30663	6466.612	18.89135	-95.19273	1.4658
34.36062	6461.43	19.17229	-95.15949	1.426588
34.41461	6456.267	19.40686	-95.1263	1.387687
34.4686	6451.123	19.58314	-95.09303	1.349542
34.52259	6445.998	19.70146	-95.05952	1.31256
34.57658	6440.896	19.77147	-95.02557	1.27714
34.63057	6435.82	19.80076	-94.991	1.243645
34.68456	6430.762	19.79902	-94.95564	1.212413
34.73855	6425.709	19.77954	-94.91927	1.183748
34.79254	6420.657	19.74984	-94.88172	1.157951
34.84653	6415.603	19.71106	-94.84275	1.135288
34.90052	6410.544	19.65737	-94.80216	1.116012
34.95451	6405.481	19.58626	-94.75977	1.1004
35.0085	6400.412	19.499	-94.71542	1.088738
35.06248	6395.335	19.40246	-94.66894	1.081316
35.11647	6390.247	19.30679	-94.62018	1.078446
35.17046	6385.141	19.22606	-94.56899	1.080404
35.22445	6380.008	19.16982	-94.51522	1.087367
35.27844	6374.844	19.13741	-94.45873	1.099404
35.33243	6369.649	19.11711	-94.39944	1.11644
35.38642	6364.43	19.09599	-94.3373	1.138243
35.44041	6359.194	19.05964	-94.27229	1.164431
35.4944	6353.941	19.00001	-94.20441	1.19445
35.54839	6348.667	18.9154	-94.13369	1.22762
35.60238	6343.374	18.81352	-94.06017	1.263139
35.65637	6338.071	18.70868	-93.98397	1.300132
35.71036	6332.773	18.61495	-93.90524	1.337678
35.76435	6327.494	18.5418	-93.82418	1.374832
35.81834	6322.243	18.49117	-93.74097	1.410664
35.87233	6317.028	18.46037	-93.65582	1.444297
35.92632	6311.856	18.43629	-93.56896	1.474944
35.9803	6306.724	18.40803	-93.48064	1.501936
36.03429	6301.62	18.37117	-93.39109	1.524743
36.08828	6296.533	18.31977	-93.30051	1.542976
36.14227	6291.451	18.24447	-93.20911	1.556393
36.19626	6286.372	18.13009	-93.11708	1.56489
36.25025	6281.299	17.96552	-93.02466	1.568485
36.30424	6276.242	17.75357	-92.9321	1.567305
36.35823	6271.209	17.50575	-92.83969	1.561541
36.41222	6266.206	17.23248	-92.74776	1.551497
36.46621	6261.232	16.94179	-92.65663	1.537554
36.5202	6256.289	16.64788	-92.56664	1.520144
36.57419	6251.375	16.35806	-92.47808	1.499756
36.62818	6246.494	16.07168	-92.39127	1.4769
36.68217	6241.638	15.79711	-92.30651	1.45207
36.73616	6236.801	15.54423	-92.22399	1.425748
36.79015	6231.968	15.31511	-92.14388	1.398347
36.84414	6227.123	15.10718	-92.06627	1.370193
36.89812	6222.247	14.90895	-91.99116	1.341526
36.95211	6217.328	14.71546	-91.91849	1.312539
37.0061	6212.372	14.5174	-91.84818	1.283385
37.06009	6207.395	14.30412	-91.78013	1.254212
37.11408	6202.417	14.0694	-91.7142	1.22519
37.16807	6197.455	13.81599	-91.65027	1.196482
37.22206	6192.512	13.55917	-91.58818	1.168229
37.27605	6187.592	13.32613	-91.52782	1.140569
37.33004	6182.703	13.14679	-91.46908	1.113611
37.38403	6177.854	13.04368	-91.4119	1.08744
37.43802	6173.044	13.02992	-91.3562	1.062136
37.49201	6168.271	13.09916	-91.30194	1.037756
37.546	6163.521	13.23079	-91.24904	1.014348
37.59999	6158.786	13.40222	-91.19745	0.9919806
37.65398	6154.054	13.58835	-91.1471	0.9707254
37.70797	6149.316	13.76897	-91.09794	0.9506609
37.76196	6144.569	13.93718	-91.04989	0.9318531
37.81594	6139.813	14.09731	-91.00287	0.9143594
37.86993	6135.043	14.25786	-90.95679	0.8982018
37.92392	6130.257	14.42726	-90.91158	0.8834186
37.97791	6125.456	14.61779	-90.86712	0.8700646
38.0319	6120.642	14.83927	-90.82334	0.8582167
38.08589	6115.82	15.09678	-90.78014	0.8479994
38.13988	6110.992	15.38531	-90.73749	0.8395902
38.19387	6106.15	15.6897	-90.69534	0.8331884
38.24786	6101.288	15.98994	-90.65373	0.8290248
38.30185	6096.408	16.26417	-90.61266	0.8273177
38.35584	6091.515	16.49835	-90.57218	0.8282728
38.40983	6086.61	16.68048	-90.53235	0.8320286
38.46382	6081.689	16.81209	-90.4932	0.8386689
38.51781	6076.745	16.89561	-90.45483	0.8481743
38.5718	6071.77	16.92913	-90.41725	0.8603966
38.62579	6066.762	16.91591	-90.38054	0.8750511
38.67978	6061.728	16.86253	-90.34471	0.8917067
38.73376	6056.673	16.77715	-90.30976	0.9098532
38.78776	6051.607	16.67252	-90.27562	0.9289405
38.84175	6046.538	16.55696	-90.24217	0.9484085
38.89574	6041.467	16.44341	-90.20921	0.9677266
38.94973	6036.392	16.34435	-90.17646	0.9864051
39.00372	6031.308	16.26558	-90.14362	1.004012
39.0577	6026.216	16.21079	-90.11036	1.020217
39.11169	6021.12	16.17587	-90.07635	1.034815
39.16568	6016.022	16.14665	-90.04127	1.047695
39.21967	6010.936	16.10004	-90.0048	1.058875
39.27366	6005.879	16.01563	-89.96663	1.068465
39.32765	6000.877	15.88031	-89.92643	1.076669
39.38164	5995.941	15.70026	-89.88385	1.083798
39.43563	5991.075	15.4934	-89.83854	1.090215
39.48962	5986.267	15.27606	-89.79018	1.096358
39.54361	5981.498	15.05764	-89.73851	1.102663
39.5976	5976.746	14.84037	-89.68327	1.109519
39.65159	5971.991	14.61756	-89.62428	1.117205
39.70558	5967.227	14.37923	-89.56135	1.125846
39.75957	5962.455	14.11741	-89.49434	1.135391
39.81356	5957.681	13.82662	-89.42314	1.145583
39.86755	5952.906	13.50245	-89.34769	1.155955
39.92154	5948.137	13.14193	-89.26794	1.165886
39.97552	5943.379	12.75138	-89.18391	1.174591
40.02951	5938.643	12.34406	-89.09566	1.181181
40.0835	5933.931	11.93235	-89.00333	1.184705
40.13749	5929.245	11.52951	-88.90717	1.184204
40.19148	5924.577	11.1499	-88.80749	1.178785
40.24547	5919.919	10.80816	-88.70468	1.167665
40.29946	5915.264	10.51286	-88.59924	1.150246
40.35345	5910.603	10.26943	-88.49168	1.126163
40.40744	5905.93	10.08485	-88.38258	1.095297
40.46143	5901.239	9.961305	-88.27254	1.057809
40.51542	5896.529	9.890697	-88.1622	1.014125
40.56941	5891.795	9.86285	-88.05221	0.965001
40.6234	5887.033	9.867541	-87.94319	0.9114636
40.67739	5882.24	9.895926	-87.83578	0.8548408
40.73138	5877.416	9.940069	-87.73055	0.7967752
40.78537	5872.569	10.00324	-87.62805	0.7393039
40.83936	5867.711	10.08826	-87.5288	0.684909
40.89334	5862.85	10.20238	-87.43327	0.6364993
40.94733	5857.994	10.35354	-87.34184	0.5972798
41.00132	5853.156	10.54755	-87.25483	0.5704282
41.05531	5848.348	10.79477	-87.17245	0.5584751
41.1093	5843.572	11.10931	-87.09486	0.5626246
41.16329	5838.821	11.50281	-87.02213	0.5823072
41.21728	5834.09	11.97488	-86.95428	0.6154182
41.27127	5829.375	12.50594	-86.8912	0.6590112
41.32526	5824.677	13.05975	-86.83273	0.7099829
41.37925	5819.998	13.60161	-86.77855	0.7654826
41.43324	5815.346	14.10693	-86.72836	0.8230695
41.48723	5810.726	14.55711	-86.68173	0.8807092
41.54122	5806.141	14.94257	-86.63827	0.9366853
41.59521	5801.583	15.25954	-86.59751	0.9895509
41.6492	5797.042	15.50529	-86.55904	1.038078
41.70319	5792.5	15.6858	-86.5224	1.081246
41.75718	5787.942	15.81502	-86.48716	1.118191
41.81116	5783.357	15.9114	-86.4529	1.148192
41.86515	5778.743	15.98864	-86.41924	1.170682
41.91914	5774.108	16.05433	-86.38575	1.185296
41.97313	5769.472	16.11227	-86.35208	1.191868
42.02712	5764.844	16.15929	-86.31789	1.19054
42.08111	5760.233	16.18967	-86.28288	1.18179
42.1351	5755.644	16.19126	-86.2468	1.166433
42.18909	5751.074	16.1563	-86.20948	1.14565
42.24308	5746.52	16.08084	-86.17084	1.120976
42.29707	5741.979	15.96881	-86.13086	1.094265
42.35106	5737.445	15.82997	-86.08958	1.067656
42.40505	5732.912	15.68371	-86.04707	1.043445
42.45904	5728.374	15.54588	-86.00348	1.023978
42.51303	5723.827	15.42518	-85.95897	1.011438
42.56702	5719.264	15.32645	-85.91374	1.007607
42.62101	5714.674	15.25366	-85.86803	1.013648
42.675	5710.049	15.20843	-85.82208	1.029927
42.72898	5705.392	15.19724	-85.77612	1.055952
42.78297	5700.708	15.22159	-85.7304	1.090465
42.83696	5696.005	15.28081	-85.68519	1.131629
42.89095	5691.291	15.37431	-85.64073	1.177282
42.94494	5686.575	15.4918	-85.59729	1.225191
42.99893	5681.861	15.61484	-85.55505	1.27323
43.05292	5677.155	15.7255	-85.51418	1.319488
43.10691	5672.458	15.81202	-85.47479	1.362322
43.1609	5667.77	15.87232	-85.43695	1.400353
43.21489	5663.093	15.90897	-85.40066	1.432475
43.26888	5658.425	15.9216	-85.36587	1.457883
43.32287	5653.758	15.91403	-85.33247	1.476002
43.37686	5649.084	15.89362	-85.3003	1.486558
43.43085	5644.398	15.86507	-85.2692	1.489509
43.48484	5639.697	15.82765	-85.23891	1.485058
43.53883	5634.986	15.77876	-85.20921	1.473644
43.59282	5630.275	15.71569	-85.17986	1.455911
43.6468	5625.57	15.62836	-85.15061	1.432668
43.70079	5620.872	15.50479	-85.12123	1.404881
43.75478	5616.18	15.33519	-85.09151	1.373591
43.80877	5611.499	15.11556	-85.06128	1.339908
43.86276	5606.835	14.84736	-85.03039	1.304976
43.91675	5602.193	14.53773	-84.99872	1.269926
43.97074	5597.575	14.2031	-84.96616	1.235823
44.02473	5592.983	13.85889	-84.93262	1.203578
44.07872	5588.421	13.51689	-84.89802	1.173901
44.13271	5583.892	13.17588	-84.86227	1.147241
44.1867	5579.391	12.84077	-84.82529	1.123743
44.24069	5574.916	12.52489	-84.78698	1.10325
44.29468	5570.459	12.24052	-84.74726	1.085341
44.34867	5566.012	11.99863	-84.70609	1.069334
44.40266	5561.573	11.807	-84.6634	1.054363
44.45665	5557.14	11.66612	-84.61919	1.039452
44.51064	5552.705	11.57631	-84.57349	1.023616
44.56462	5548.259	11.52901	-84.52631	1.005988
44.61861	5543.796	11.51079	-84.47775	0.9858749
44.6726	5539.312	11.50684	-84.42789	0.9627993
44.72659	5534.81	11.50666	-84.37684	0.9365221
44.78058	5530.287	11.50328	-84.32475	0.907047
44.83457	5525.74	11.49834	-84.27175	0.8746247
44.88856	5521.175	11.50148	-84.218	0.8397106
44.94255	5516.598	11.51666	-84.16364	0.8029464
44.99654	5512.017	11.54281	-84.10877	0.7650892
45.05053	5507.439	11.58233	-84.05354	0.7269931
45.10452	5502.867	11.63316	-83.99801	0.6895872
45.15851	5498.298	11.6897	-83.94228	0.6538436
45.2125	5493.732	11.74373	-83.88637	0.6207177
45.26649	5489.171	11.79092	-83.8303	0.5910941
45.32048	5484.615	11.83143	-83.77405	0.5657457
45.37447	5480.063	11.86718	-83.71761	0.5451867
45.42846	5475.513	11.90144	-83.66094	0.5296859
45.48244	5470.965	11.93354	-83.604	0.5191769
45.53643	5466.422	11.96603	-83.54676	0.5132888
45.59042	5461.888	12.00131	-83.48918	0.5114241
45.64441	5457.363	12.04522	-83.43124	0.5128018
45.6984	5452.84	12.0998	-83.37292	0.516581
45.75239	5448.32	12.16029	-83.31425	0.5219758
45.80638	5443.81	12.21589	-83.25525	0.5283034
45.86037	5439.317	12.25506	-83.19597	0.5349964
45.91436	5434.843	12.27278	-83.13651	0.5416335
45.96835	5430.385	12.27472	-83.07699	0.5479554
46.02234	5425.938	12.26852	-83.01753	0.5538545
46.07633	5421.499	12.25683	-82.95826	0.5593802
46.13032	5417.063	12.24673	-82.89928	0.5646485
46.18431	5412.627	12.25564	-82.84068	0.5698543
46.2383	5408.183	12.29768	-82.78244	0.5752046
46.29229	5403.722	12.37777	-82.72455	0.5808896
46.34628	5399.244	12.50087	-82.66694	0.5870309
46.40026	5394.748	12.66441	-82.60955	0.5936627
46.45425	5390.235	12.86503	-82.55228	0.6007244
46.50824	5385.702	13.095	-82.49503	0.6080525
46.56223	5381.149	13.34494	-82.43771	0.6154245
46.61622	5376.576	13.60428	-82.38026	0.6225731
46.67021	5371.985	13.85923	-82.32258	0.6292045
46.7242	5367.389	14.09407	-82.2646	0.6350214
46.77819	5362.797	14.29205	-82.20626	0.6397477
46.83218	5358.219	14.43992	-82.14751	0.6431625
46.88617	5353.666	14.53061	-82.08833	0.6450815
46.94016	5349.148	14.56771	-82.02866	0.6454185
46.99415	5344.675	14.56767	-81.9685	0.6441579
47.04814	5340.25	14.54958	-81.90784	0.6413792
47.10213	5335.863	14.52173	-81.84666	0.6372515
47.15612	5331.506	14.48317	-81.78495	0.6319874
47.21011	5327.171	14.42994	-81.72263	0.6258592
47.2641	5322.852	14.36117	-81.65962	0.6191488
47.31808	5318.542	14.27179	-81.59582	0.6121353
47.37207	5314.24	14.1521	-81.53109	0.6050625
47.42606	5309.946	13.99234	-81.46535	0.5981237
47.48005	5305.663	13.78411	-81.39851	0.5914358
47.53404	5301.393	13.52381	-81.33051	0.5850267
47.58803	5297.134	13.20989	-81.26131	0.5788509
47.64202	5292.88	12.84957	-81.19087	0.5728192
47.69601	5288.624	12.45678	-81.11919	0.5668021
47.75	5284.359	12.04953	-81.04632	0.5606776
47.80399	5280.085	11.64576	-80.97232	0.5543218
47.85798	5275.806	11.26013	-80.89735	0.5476214
47.91197	5271.518	10.90917	-80.8216	0.5404765
47.96596	5267.214	10.60814	-80.74533	0.5327977
48.01995	5262.89	10.36063	-80.66879	0.5245359
48.07394	5258.542	10.16795	-80.59226	0.515645
48.12793	5254.171	10.02931	-80.51604	0.5060986
48.18192	5249.779	9.936821	-80.44038	0.4958677
48.2359	5245.368	9.873536	-80.36553	0.4848545
48.28989	5240.942	9.828309	-80.29173	0.4728793
48.34388	5236.507	9.79916	-80.21919	0.4596666
48.39787	5232.067	9.784678	-80.1481	0.4448562
48.45186	5227.628	9.789705	-80.07864	0.4280498
48.50585	5223.195	9.819754	-80.01093	0.4088743
48.55984	5218.772	9.885272	-79.94508	0.387022
48.61383	5214.361	9.998699	-79.88116	0.3623203
48.66782	5209.968	10.15998	-79.81918	0.3348158
48.72181	5205.592	10.36335	-79.75912	0.304967
48.7758	5201.232	10.60122	-79.70093	0.2738213
48.82979	5196.884	10.86747	-79.64455	0.2433892
48.88378	5192.546	11.15467	-79.58988	0.2171488
48.93777	5188.225	11.45446	-79.53687	0.2003298
48.99176	5183.924	11.76094	-79.48545	0.1987872
49.04575	5179.643	12.06272	-79.43553	0.2155121
49.09974	5175.38	12.34774	-79.38701	0.2484556
49.15372	5171.132	12.6054	-79.33976	0.2928728
49.20771	5166.899	12.82885	-79.29363	0.3442366
49.2617	5162.676	13.00892	-79.24849	0.3991767
49.31569	5158.457	13.13814	-79.20417	0.4552539
49.36968	5154.234	13.21446	-79.16051	0.5106398
49.42367	5150.003	13.23994	-79.11734	0.5638732
49.47766	5145.765	13.21977	-79.0745	0.6137691
49.53165	5141.521	13.15944	-79.03185	0.6593422
49.58564	5137.269	13.06562	-78.9892	0.699775
49.63963	5133.008	12.94973	-78.94638	0.734409
49.69362	5128.742	12.83017	-78.90322	0.7627425
49.74761	5124.479	12.72463	-78.85955	0.7844015
49.8016	5120.233	12.63947	-78.81525	0.7991378
49.85559	5116.02	12.57239	-78.77023	0.8068442
49.90958	5111.837	12.51341	-78.7245	0.8075493
49.96357	5107.678	12.44752	-78.67808	0.8014131
50.01756	5103.529	12.36694	-78.63103	0.7886897
50.07154	5099.383	12.27203	-78.58346	0.7697131
50.12553	5095.231	12.16295	-78.53545	0.7449109
50.17952	5091.068	12.04117	-78.48709	0.7147955
50.23351	5086.893	11.91306	-78.4385	0.6799546
50.2875	5082.704	11.791	-78.38977	0.641111
50.34149	5078.5	11.68451	-78.341	0.5990739
50.39548	5074.284	11.60533	-78.29227	0.5547776
50.44947	5070.051	11.56441	-78.24364	0.5092587
50.50346	5065.8	11.57455	-78.19512	0.4636416
50.55745	5061.534	11.64555	-78.14674	0.41915
50.61144	5057.262	11.78377	-78.09844	0.3771595
50.66543	5052.991	11.98051	-78.05019	0.3392252
50.71942	5048.726	12.21838	-78.00193	0.3071469
50.77341	5044.472	12.47948	-77.95356	0.2829687
50.8274	5040.231	12.75031	-77.90497	0.2687044
50.88139	5036.01	13.01773	-77.85603	0.2657429
50.93538	5031.811	13.27038	-77.80664	0.2742132
50.98936	5027.625	13.49537	-77.75664	0.2929028
51.04335	5023.443	13.67869	-77.70587	0.3197991
51.09734	5019.256	13.80882	-77.65419	0.3527835
51.15133	5015.056	13.88337	-77.60143	0.3900081
51.20532	5010.844	13.90829	-77.54746	0.4299748
51.25932	5006.622	13.89093	-77.49216	0.4714839
51.3133	5002.393	13.83558	-77.4355	0.5135536
51.36729	4998.163	13.74545	-77.37744	0.555351
51.42128	4993.94	13.62445	-77.318	0.5961472
51.47527	4989.73	13.4771	-77.25721	0.6352983
51.52926	4985.529	13.30486	-77.19511	0.6722141
51.58325	4981.334	13.10233	-77.13176	0.7063402
51.63724	4977.142	12.8674	-77.06719	0.7371344
51.69123	4972.953	12.60749	-77.00148	0.7640949
51.74522	4968.766	12.33508	-76.93467	0.7867402
51.79921	4964.582	12.05933	-76.86685	0.8046628
51.8532	4960.4	11.78726	-76.79811	0.8175279
51.90719	4956.218	11.52447	-76.72855	0.8250847
51.96118	4952.038	11.27138	-76.65832	0.8271913
52.01517	4947.863	11.03189	-76.58755	0.8237862
52.06916	4943.69	10.80948	-76.51638	0.8148917
52.12315	4939.512	10.60716	-76.44495	0.8005807
52.17714	4935.328	10.43247	-76.37338	0.7809681
52.23112	4931.14	10.2907	-76.30183	0.7561725
52.28511	4926.958	10.1841	-76.23045	0.7263799
52.3391	4922.786	10.11741	-76.15943	0.6918205
52.39309	4918.627	10.09869	-76.08895	0.6527998
52.44708	4914.478	10.13411	-76.01916	0.6097012
52.50107	4910.338	10.22529	-75.95019	0.5629736
52.55506	4906.208	10.37077	-75.88216	0.5131369
52.60905	4902.088	10.56392	-75.81517	0.4607748
52.66304	4897.98	10.78816	-75.74937	0.4065387
52.71703	4893.888	11.02467	-75.68486	0.35113
52.77102	4889.814	11.25949	-75.62172	0.2952904
52.82501	4885.761	11.48445	-75.56001	0.2398214
52.879	4881.737	11.69734	-75.49974	0.1857059
52.93299	4877.744	11.90229	-75.44093	0.1345326
52.98698	4873.778	12.10261	-75.38355	0.09009068
53.04097	4869.833	12.29164	-75.3276	0.06424101
53.09496	4865.897	12.45815	-75.27305	0.07483389
53.14894	4861.963	12.59524	-75.21989	0.1092639
53.20293	4858.025	12.70673	-75.16809	0.1501156
53.25692	4854.078	12.8032	-75.11765	0.1918877
53.31091	4850.113	12.88889	-75.06853	0.2330048
53.3649	4846.135	12.95784	-75.02074	0.2729859
53.41889	4842.146	13.00492	-74.97428	0.3117168
53.47288	4838.146	13.02954	-74.92915	0.3492395
53.52687	4834.136	13.03006	-74.88534	0.3856887
53.58086	4830.117	13.00684	-74.84283	0.4212473
53.63485	4826.098	12.96709	-74.80162	0.4561408
53.68884	4822.088	12.92426	-74.76173	0.4906259
53.74283	4818.095	12.88686	-74.72321	0.5249544
53.79682	4814.123	12.86095	-74.68606	0.5593492
53.85081	4810.163	12.85383	-74.6503	0.5939605
53.9048	4806.208	12.87017	-74.61589	0.6288515
53.95879	4802.253	12.91442	-74.58279	0.6639699
54.01278	4798.298	12.98353	-74.5509	0.699185
54.06676	4794.333	13.06458	-74.52007	0.7342895
54.12075	4790.352	13.14474	-74.49014	0.7689939
54.17474	4786.348	13.21264	-74.46094	0.8030216
54.22873	4782.322	13.25802	-74.43231	0.8360834
54.28272	4778.276	13.27525	-74.40411	0.8678881
54.33671	4774.217	13.26383	-74.37621	0.8981246
54.3907	4770.15	13.22794	-74.34845	0.9264831
54.44469	4766.08	13.17977	-74.32072	0.9526489
54.49868	4762.011	13.12983	-74.29286	0.9763354
54.55267	4757.945	13.08472	-74.26476	0.99728
54.60666	4753.884	13.04414	-74.23622	1.015292
54.66065	4749.833	13.00583	-74.20712	1.030246
54.71464	4745.796	12.96287	-74.17729	1.042106
54.76863	4741.773	12.90579	-74.14656	1.050928
54.82262	4737.76	12.83016	-74.11473	1.056866
54.87661	4733.75	12.73569	-74.08158	1.060202
54.9306	4729.736	12.62197	-74.04684	1.061336
54.98458	4725.713	12.48837	-74.01024	1.060797
55.03857	4721.678	12.33405	-73.97152	1.059205
55.09256	4717.628	12.15739	-73.93041	1.057253
55.14655	4713.565	11.95426	-73.88667	1.055614
55.20054	4709.491	11.73006	-73.84004	1.054893
55.25453	4705.409	11.49902	-73.79031	1.055589
55.30852	4701.325	11.27659	-73.73728	1.058051
55.36251	4697.25	11.0694	-73.68076	1.06244
55.4165	4693.194	10.87594	-73.62065	1.068742
55.47049	4689.158	10.68726	-73.55682	1.076671
55.52448	4685.137	10.49409	-73.48922	1.085745
55.57847	4681.128	10.2916	-73.41781	1.09524
55.63246	4677.124	10.07708	-73.34262	1.104293
55.68645	4673.123	9.851076	-73.26375	1.111907
55.74044	4669.129	9.62635	-73.18133	1.117065
55.79443	4665.146	9.414418	-73.09557	1.118784
55.84842	4661.173	9.224895	-73.00669	1.116094
55.9024	4657.209	9.064001	-72.91499	1.108151
55.95639	4653.252	8.9353	-72.82076	1.094206
56.01038	4649.3	8.841217	-72.72433	1.073671
56.06437	4645.352	8.778666	-72.62605	1.046143
56.11836	4641.406	8.737848	-72.5263	1.011416
56.17235	4637.461	8.708714	-72.42547	0.9694625
56.22634	4633.515	8.684427	-72.32396	0.9204502
56.28033	4629.571	8.660214	-72.22218	0.8647009
56.33432	4625.632	8.635777	-72.12053	0.8026878
56.38831	4621.703	8.615806	-72.01934	0.735002
56.4423	4617.785	8.607346	-71.91895	0.6623563
56.49629	4613.88	8.62104	-71.81967	0.5855908
56.55028	4609.988	8.666984	-71.72179	0.5056843
56.60427	4606.115	8.750583	-71.62554	0.4238272
56.65826	4602.262	8.869502	-71.53115	0.3415774
56.71225	4598.424	9.019882	-71.43884	0.2613505
56.76624	4594.597	9.200223	-71.34875	0.187962
56.82022	4590.775	9.409763	-71.26104	0.1337778
56.87421	4586.954	9.644189	-71.1758	0.1244643
56.9282	4583.131	9.895142	-71.09309	0.1642488
56.98219	4579.309	10.14746	-71.01291	0.2251287
57.03618	4575.492	10.384	-70.9352	0.2907104
57.09017	4571.685	10.58428	-70.85985	0.3550772
57.14416	4567.888	10.732	-70.78677	0.4157561
57.19815	4564.102	10.81657	-70.71581	0.471446
57.25214	4560.319	10.8363	-70.64677	0.5213321
57.30613	4556.541	10.79956	-70.57944	0.5648421
57.36012	4552.773	10.72265	-70.51356	0.6015268
57.41411	4549.023	10.62929	-70.44886	0.6310617
57.4681	4545.297	10.53817	-70.38507	0.6532222
57.52209	4541.596	10.46356	-70.32187	0.6679335
57.57608	4537.917	10.41219	-70.25895	0.6752565
57.63007	4534.255	10.37911	-70.19599	0.6754125
57.68406	4530.604	10.36094	-70.13268	0.6687848
57.73804	4526.96	10.35456	-70.0687	0.6559355
57.79203	4523.325	10.35852	-70.00378	0.6376199
57.84602	4519.695	10.36849	-69.93768	0.6148184
57.90001	4516.065	10.37838	-69.87023	0.5887598
57.954	4512.427	10.38752	-69.80125	0.5609338
58.00799	4508.776	10.39662	-69.73065	0.5330603
58.06198	4505.119	10.41308	-69.65837	0.5069968
58.11597	4501.455	10.44816	-69.58442	0.4845738
58.16996	4497.784	10.50918	-69.50887	0.4674302
58.22395	4494.102	10.60257	-69.43183	0.456724
58.27794	4490.406	10.72869	-69.35346	0.4529107
58.33193	4486.695	10.88363	-69.2739	0.4556552
58.38592	4482.965	11.06423	-69.19334	0.4639301
58.43991	4479.207	11.27087	-69.11188	0.4762063
58.4939	4475.417	11.51068	-69.02966	0.4907146
58.54789	4471.592	11.78575	-68.94676	0.505666
58.60188	4467.737	12.08196	-68.86329	0.5193944
58.65586	4463.858	12.37429	-68.77927	0.5304773
58.70985	4459.962	12.63454	-68.6947	0.537747
58.76384	4456.057	12.83868	-68.60957	0.5403463
58.81783	4452.15	12.97314	-68.52383	0.5377123
58.87182	4448.248	13.03275	-68.43738	0.5295934
58.92581	4444.356	13.01885	-68.35013	0.5160243
58.9798	4440.475	12.93993	-68.26196	0.4973012
59.03379	4436.606	12.80891	-68.17272	0.4739897
59.08778	4432.75	12.64092	-68.08228	0.4468826
59.14177	4428.908	12.44616	-67.99047	0.4170305
59.19576	4425.08	12.23044	-67.89716	0.3857591
59.24975	4421.266	11.99971	-67.80213	0.3547298
59.30374	4417.466	11.76007	-67.70517	0.3260273
59.35773	4413.684	11.51779	-67.606	0.3021452
59.41172	4409.922	11.27486	-67.50431	0.285819
59.46571	4406.184	11.02742	-67.39982	0.279391
59.5197	4402.474	10.76871	-67.29219	0.2839935
59.57368	4398.799	10.493	-67.1811	0.2990054
59.62767	4395.163	10.2002	-67.06624	0.3223871
59.68166	4391.561	9.894764	-66.94728	0.35151
59.73565	4387.992	9.583436	-66.82392	0.3838457
59.78964	4384.455	9.272931	-66.69588	0.4172392
59.84363	4380.947	8.970442	-66.56287	0.4499532
59.89762	4377.464	8.684443	-66.42467	0.4805964
59.95161	4373.994	8.414878	-66.28111	0.5080398
60.0056	4370.529	8.164208	-66.13199	0.5313517
60.05959	4367.062	7.940164	-65.97719	0.5497966
60.11358	4363.59	7.749259	-65.81664	0.5628278
60.16757	4360.112	7.602313	-65.65028	0.5700243
60.22156	4356.627	7.508981	-65.47813	0.5711422
60.27555	4353.135	7.475758	-65.30027	0.5660583
60.32954	4349.64	7.504993	-65.11682	0.5547313
60.38353	4346.143	7.593247	-64.92791	0.5371895
60.43752	4342.65	7.737336	-64.7337	0.5135019
60.4915	4339.172	7.93419	-64.53435	0.4837871
60.54549	4335.712	8.179479	-64.33002	0.44822
60.59948	4332.268	8.465177	-64.12084	0.4070629
60.65347	4328.836	8.778085	-63.90694	0.3606376
60.70746	4325.408	9.099852	-63.68837	0.3093266
60.76145	4321.977	9.410749	-63.46518	0.2535812
60.81544	4318.537	9.696076	-63.23734	0.1939585
60.86943	4315.09	9.945093	-63.00478	0.1312808
60.92342	4311.635	10.15576	-62.76742	0.06760614
60.97741	4308.175	10.33421	-62.52512	0.02789845
61.0314	4304.714	10.49396	-62.27774	0.08153254
61.08539	4301.26	10.64691	-62.0251	0.1500996
61.13938	4297.816	10.7975	-61.76699	0.2197566
61.19337	4294.386	10.94499	-61.50319	0.2886119
61.24736	4290.973	11.08923	-61.23346	0.355508
61.30135	4287.58	11.22605	-60.9575	0.4194323
61.35534	4284.21	11.34707	-60.67498	0.4794348
61.40932	4280.862	11.44004	-60.38556	0.5346298
61.46331	4277.53	11.49396	-60.08886	0.5842192
61.5173	4274.209	11.49888	-59.78445	0.6275035
61.57129	4270.901	11.45006	-59.47193	0.6639058
61.62528	4267.603	11.34877	-59.15082	0.6929842
61.67927	4264.31	11.20042	-58.82064	0.7144588
61.73326	4261.021	11.01453	-58.48084	0.7282327
61.78725	4257.737	10.80454	-58.13086	0.7343652
61.84124	4254.467	10.5857	-57.77008	0.7331157
61.89523	4251.22	10.37432	-57.39791	0.7249687
61.94922	4248.004	10.18623	-57.01372	0.7106231
62.00321	4244.816	10.03516	-56.6169	0.6910916
62.0572	4241.654	9.926902	-56.20679	0.6676737
62.11119	4238.517	9.86366	-55.78281	0.6420138
62.16518	4235.4	9.839713	-55.34436	0.6160661
62.21917	4232.3	9.846701	-54.89087	0.5921428
62.27316	4229.212	9.877064	-54.42182	0.5727215
62.32714	4226.134	9.922502	-53.93671	0.560222
62.38113	4223.065	9.976427	-53.43513	0.556554
62.43512	4220.008	10.03543	-52.91668	0.5627085
62.48911	4216.965	10.09914	-52.38099	0.5784063
62.5431	4213.939	10.17233	-51.8277	0.6022751
62.59709	4210.938	10.26452	-51.2565	0.6320827
62.65108	4207.968	10.37995	-50.66705	0.6653532
62.70507	4205.037	10.51678	-50.05903	0.6995751
62.75906	4202.15	10.67212	-49.43209	0.7325667
62.81305	4199.313	10.83982	-48.78588	0.7623956
62.86704	4196.524	11.01388	-48.12001	0.7875598
62.92103	4193.778	11.1877	-47.43407	0.806865
62.97502	4191.074	11.35865	-46.72764	0.8195269
63.02901	4188.409	11.52686	-46.00021	0.8250284
63.083	4185.784	11.69253	-45.25127	0.8232343
63.13699	4183.198	11.85017	-44.48022	0.8142114
63.19098	4180.652	11.98924	-43.68645	0.7983577
63.24496	4178.141	12.10098	-42.86928	0.7762213
63.29895	4175.663	12.17953	-42.02808	0.7485816
63.35294	4173.22	12.22153	-41.16212	0.7163349
63.40693	4170.817	12.22385	-40.27074	0.6805679
63.46092	4168.456	12.18227	-39.35321	0.6424673
63.51491	4166.142	12.09029	-38.40885	0.6034143
63.5689	4163.877	11.94574	-37.43689	0.564865
63.62289	4161.666	11.74916	-36.43663	0.5283757
63.67688	4159.508	11.50563	-35.40724	0.4954325
63.73087	4157.396	11.22403	-34.34792	0.4673629
63.78486	4155.323	10.91117	-33.25777	0.4451328
63.83885	4153.287	10.57646	-32.13589	0.4291735
63.89284	4151.288	10.23472	-30.98129	0.419303
63.94683	4149.332	9.899429	-29.79289	0.4146423
64.00082	4147.422	9.579114	-28.56957	0.4139038
64.05481	4145.563	9.277817	-27.31015	0.4154893
64.1088	4143.76	8.995335	-26.01341	0.4176967
64.16279	4142.015	8.731412	-24.67809	0.4189856
64.21677	4140.334	8.488284	-23.30292	0.4179159
64.27077	4138.726	8.266787	-21.88657	0.4133743
64.32475	4137.198	8.068163	-20.42775	0.4044176
64.37875	4135.758	7.892651	-18.92511	0.3904451
64.43273	4134.41	7.739708	-17.37732	0.3710455
64.48672	4133.153	7.611862	-15.78303	0.3461262
64.54071	4131.991	7.51818	-14.14082	0.3158605
64.5947	4130.925	7.470067	-12.44928	0.2808095
64.64869	4129.951	7.47337	-10.70695	0.242042
64.70268	4129.063	7.528536	-8.912377	0.2016675
64.75667	4128.256	7.631845	-7.064015	0.1640008
64.81066	4127.528	7.776884	-5.160363	0.1380742
64.86465	4126.875	7.954057	-3.199856	0.1373056
64.91864	4126.289	8.151333	-1.180963	0.1666997
64.97263	4125.767	8.357549	0.8979815	0.21714
65.02662	4125.31	8.568071	3.038577	0.2792969
65.0806	4124.926	8.780131	5.242632	0.3480439
65.1346	4124.628	8.987272	7.511894	0.4208862
65.18858	4124.427	9.186725	9.848337	0.4963181
65.24258	4124.336	9.377032	12.25388	0.5735164
65.29656	4124.359	9.555429	14.73067	0.6517539
65.35056	4124.501	9.719075	17.28079	0.7305602
65.40454	4124.768	9.869442	19.90652	0.8093897
65.45853	4125.158	10.00887	22.61008	0.8877813
65.51252	4125.673	10.14112	25.39385	0.9652287
65.56651	4126.313	10.27228	28.26016	1.041296
65.6205	4127.086	10.40525	31.21148	1.115549
65.67449	4127.997	10.52919	34.25019	1.187639
65.72848	4129.052	10.62777	37.37885	1.257267
65.78247	4130.258	10.69033	40.59995	1.324127
65.83646	4131.622	10.71392	43.91602	1.388119
65.89045	4133.151	10.70189	47.32965	1.449046
65.94444	4134.857	10.66218	50.84345	1.507
65.99843	4136.747	10.60563	54.46009	1.561987
66.05241	4138.826	10.54422	58.18225	1.614332
66.10641	4141.096	10.49028	62.01271	1.664279
66.16039	4143.563	10.44898	65.95425	1.712356
66.21439	4146.232	10.42255	70.00964	1.759115
66.26837	4149.11	10.41708	74.18179	1.805175
66.32236	4152.196	10.43657	78.47352	1.851258
66.37635	4155.491	10.48319	82.88779	1.898047
66.43034	4158.999	10.55648	87.42756	1.946213
66.48433	4162.728	10.65043	92.09579	1.996343
66.53832	4166.683	10.75463	96.89555	2.048916
66.59231	4170.868	10.85646	101.8299	2.104245
66.6463	4175.284	10.94917	106.9019	2.162476
66.70029	4179.93	11.03426	112.1148	2.223551
66.75428	4184.805	11.11739	117.4718	2.287249
66.80827	4189.92	11.20644	122.9759	2.35314
66.86226	4195.286	11.30992	128.6305	2.420666
66.91624	4200.915	11.43591	134.4387	2.489129
66.97024	4206.823	11.58924	140.4039	2.557729
67.02422	4213.022	11.77085	146.5295	2.625613
67.07822	4219.52	11.97351	152.8189	2.691848
67.1322	4226.325	12.18596	159.2757	2.755555
67.1862	4233.449	12.39869	165.9037	2.81589
67.24018	4240.904	12.60198	172.7069	2.872086
67.29417	4248.707	12.7847	179.6894	2.923504
67.34816	4256.869	12.93311	186.8554	2.969642
67.40215	4265.396	13.03733	194.2095	3.010095
67.45614	4274.286	13.09225	201.7564	3.044678
67.51013	4283.542	13.10049	209.5009	3.073287
67.56412	4293.171	13.07506	217.4478	3.096252
67.61811	4303.185	13.03041	225.6023	3.113611
67.6721	4313.598	12.97658	233.9689	3.126116
67.72609	4324.427	12.92219	242.553	3.134052
67.78008	4335.692	12.87647	251.3587	3.138361
67.83407	4347.412	12.8447	260.3908	3.139538
67.88805	4359.602	12.82331	269.6529	3.138657
67.94205	4372.276	12.80489	279.1489	3.136345
67.99603	4385.445	12.78023	288.8811	3.133778
68.05003	4399.118	12.74607	298.8522	3.131627
68.10401	4413.306	12.70219	309.0633	3.130993
68.158	4428.021	12.64841	319.5153	3.132529
68.21199	4443.276	12.58746	330.2075	3.137187
68.26598	4459.072	12.52414	341.139	3.145609
68.31997	4475.413	12.46231	352.3074	3.158276
68.37396	4492.298	12.4108	363.7098	3.17583
68.42795	4509.733	12.37978	375.3419	3.198573
68.48194	4527.733	12.38078	387.1991	3.226578
68.53593	4546.317	12.42075	399.2751	3.259919
68.58992	4565.511	12.50269	411.5636	3.298336
68.64391	4585.343	12.62405	424.0567	3.34163
68.6979	4605.832	12.78148	436.7462	3.389378
68.75188	4626.995	12.96828	449.6223	3.441226
68.80588	4648.841	13.17469	462.675	3.496685
68.85986	4671.376	13.39511	475.893	3.55537
68.91386	4694.609	13.62158	489.2644	3.616791
68.96784	4718.556	13.84723	502.7763	3.680608
69.02184	4743.232	14.06773	516.4151	3.746329
69.07582	4768.651	14.28024	530.1661	3.813566
69.12981	4794.83	14.48062	544.0143	3.881856
69.1838	4821.791	14.66695	557.9437	3.950693
69.23779	4849.558	14.84307	571.9375	4.019564
69.29178	4878.158	15.02305	585.9784	4.087958
69.34577	4907.621	15.21991	600.0486	4.155186
69.39976	4937.97	15.44673	614.1295	4.220698
69.45375	4969.241	15.71785	628.2019	4.283709
69.50774	5001.456	16.03597	642.2466	4.343456
69.56173	5034.649	16.39288	656.2434	4.399237
69.61572	5068.85	16.77998	670.172	4.45018
69.66971	5104.093	17.18901	684.0116	4.495525
69.72369	5140.413	17.61358	697.741	4.534501
69.77769	5177.848	18.04781	711.3383	4.566359
69.83167	5216.425	18.48977	724.7817	4.590277
69.88567	5256.18	18.93707	738.0483	4.605627
69.93965	5297.135	19.38089	751.1154	4.611687
69.99364	5339.313	19.81542	763.9592	4.607788
70.04764	5382.725	20.23736	776.5558	4.593619
70.10162	5427.374	20.6539	788.8807	4.568467
70.15562	5473.251	21.06985	800.9091	4.532041
70.2096	5520.343	21.49236	812.615	4.48404
70.2636	5568.625	21.91969	823.9731	4.424204
70.31758	5618.063	22.34568	834.9567	4.352511
70.37157	5668.609	22.76359	845.54	4.268828
70.42556	5720.197	23.16352	855.6962	4.173251
70.47955	5772.747	23.53856	865.3992	4.065939
70.53354	5826.173	23.88369	874.6226	3.947035
70.58753	5880.392	24.19431	883.3414	3.816849
70.64152	5935.325	24.46804	891.5298	3.67551
70.69551	5990.891	24.70188	899.1644	3.523538
70.7495	6047.012	24.89596	906.2213	3.36117
70.80349	6103.617	25.05474	912.679	3.189097
70.85748	6160.65	25.18581	918.5159	3.007638
70.91147	6218.075	25.30196	923.7137	2.817517
70.96545	6275.866	25.41393	928.2535	2.619212
71.01945	6333.998	25.5342	932.1203	2.413612
71.07343	6392.445	25.67464	935.2986	2.201241
71.12743	6451.187	25.83327	937.7773	1.98344
71.18141	6510.198	26.00712	939.5449	1.760959
71.2354	6569.45	26.19946	940.594	1.535895
71.28939	6628.903	26.41077	940.9174	1.309825
71.34338	6688.513	26.62981	940.5121	1.086808
71.39737	6748.239	26.85117	939.375	0.8719084
71.45136	6808.042	27.06979	937.5076	0.6780231
71.50535	6867.874	27.27746	934.9113	0.5300598
71.55934	6927.692	27.47012	931.5917	0.4765786
71.61333	6987.447	27.64748	927.5549	0.5440837
71.66732	7047.094	27.81023	922.8105	0.6980219
71.72131	7106.584	27.95606	917.3688	0.8919128
71.7753	7165.873	28.08355	911.2429	1.102586
71.82928	7224.9	28.18835	904.4472	1.319403
71.88328	7283.599	28.26123	896.999	1.537548
71.93726	7341.889	28.28945	888.9156	1.753836
71.99126	7399.692	28.26133	880.2175	1.966941
72.04524	7456.924	28.16275	870.925	2.17549
72.09924	7513.485	27.99008	861.0612	2.379154
72.15322	7569.254	27.75313	850.6484	2.577255
72.20721	7624.104	27.46519	839.7119	2.769896
72.2612	7677.901	27.1396	828.2757	2.956699
72.31519	7730.524	26.79033	816.3663	3.138053
72.36918	7781.86	26.4247	804.0087	3.313719
72.42317	7831.811	26.04823	791.2301	3.484024
72.47716	7880.299	25.66585	778.0562	3.648802
72.53115	7927.274	25.27595	764.5142	3.808258
72.58514	7972.717	24.87125	750.6301	3.962136
72.63913	8016.628	24.44128	736.4312	4.110631
72.69312	8059.011	23.98368	721.9434	4.253427
72.74711	8099.868	23.49303	707.1936	4.390371
72.80109	8139.203	22.96523	692.2082	4.521087
72.85509	8177.024	22.40136	677.0137	4.645215
72.90907	8213.346	21.81075	661.6365	4.762261
72.96307	8248.181	21.20687	646.103	4.871669
73.01705	8281.538	20.61151	630.4395	4.97297
73.07104	8313.436	20.02962	614.6723	5.065517
73.12503	8343.903	19.46372	598.8278	5.148722
73.17902	8372.984	18.91817	582.932	5.221902
73.23301	8400.73	18.40592	567.011	5.284363
73.287	8427.186	17.94084	551.0906	5.335559
73.34099	8452.396	17.53143	535.1962	5.374897
73.39498	8476.415	17.17764	519.3531	5.401824
73.44897	8499.289	16.86059	503.5857	5.415962
73.50296	8521.074	16.55525	487.918	5.416991
73.55695	8541.825	16.24144	472.3734	5.404651
73.61094	8561.602	15.9139	456.9745	5.378776
73.66492	8580.46	15.57095	441.7432	5.339361
73.71892	8598.458	15.22664	426.7004	5.286405
73.7729	8615.652	14.90259	411.8662	5.220203
73.8269	8632.082	14.61695	397.2597	5.141068
73.88088	8647.772	14.39021	382.899	5.049559
73.93488	8662.751	14.23734	368.801	4.946332
73.98886	8677.051	14.15369	354.9814	4.83207
74.04285	8690.709	14.12528	341.4548	4.707736
74.09684	8703.763	14.14711	328.2342	4.574216
74.15083	8716.242	14.21679	315.3313	4.432588
74.20482	8728.176	14.33234	302.7563	4.283987
74.25881	8739.594	14.4886	290.518	4.129659
74.3128	8750.522	14.67363	278.6235	3.97082
74.36679	8760.984	14.86934	267.0782	3.808855
74.42078	8771.007	15.06889	255.886	3.645187
74.47477	8780.608	15.26805	245.0491	3.481278
74.52876	8789.805	15.45678	234.5678	3.318591
74.58275	8798.604	15.62899	224.4412	3.158701
74.63673	8807.015	15.7797	214.6664	3.003196
74.69073	8815.048	15.91941	205.2395	2.853669
74.74471	8822.717	16.05467	196.1548	2.711693
74.79871	8830.044	16.18979	187.4056	2.578682
74.85269	8837.052	16.33168	178.9839	2.455923
74.90668	8843.755	16.49007	170.8811	2.344465
74.96067	8850.168	16.67793	163.0873	2.245095
75.01466	8856.298	16.90505	155.5923	2.15827
75.06865	8862.155	17.17127	148.3853	2.084083
75.12264	8867.748	17.46694	141.4551	2.022212
75.17663	8873.095	17.76748	134.7904	1.971893
75.23062	8878.214	18.04672	128.3798	1.931947
75.28461	8883.128	18.28408	122.212	1.9009
75.3386	8887.858	18.47486	116.2759	1.877064
75.39259	8892.425	18.61917	110.5603	1.858653
75.44658	8896.841	18.71604	105.0546	1.84389
75.50056	8901.111	18.77207	99.74816	1.831054
75.55456	8905.235	18.79957	94.63086	1.818552
75.60854	8909.209	18.80315	89.69289	1.804892
75.66254	8913.026	18.78426	84.92488	1.788739
75.71652	8916.689	18.75029	80.31784	1.768897
75.77052	8920.19	18.70792	75.8633	1.744348
75.8245	8923.521	18.66803	71.55322	1.714251
75.87849	8926.669	18.64166	67.38005	1.677953
75.93248	8929.625	18.63396	63.3367	1.634946
75.98647	8932.384	18.64046	59.41648	1.584854
76.04046	8934.942	18.64736	55.61319	1.527414
76.09445	8937.31	18.63837	51.92101	1.462488
76.14844	8939.497	18.59951	48.33457	1.390026
76.20243	8941.526	18.52201	44.84886	1.31015
76.25642	8943.417	18.40774	41.4592	1.223185
76.31041	8945.18	18.26467	38.16122	1.129769
76.3644	8946.823	18.1098	34.95081	1.030893
76.41839	8948.349	17.96711	31.82417	0.9280909
76.47237	8949.753	17.85761	28.77774	0.8236342
76.52637	8951.028	17.79174	25.80818	0.7209616
76.58035	8952.162	17.78103	22.91238	0.625338
76.63435	8953.139	17.83084	20.08749	0.5448731
76.68833	8953.949	17.94704	17.33084	0.4910153
76.74232	8954.593	18.11923	14.63996	0.4758007
76.79631	8955.063	18.33643	12.01251	0.5042293
76.8503	8955.36	18.58816	9.446271	0.5699543
76.90429	8955.477	18.85273	6.939156	0.6610997
76.95828	8955.417	19.10965	4.489166	0.7671421
77.01227	8955.193	19.3474	2.094387	0.8807741
77.06626	8954.821	19.56546	-0.2470085	0.9972189
77.12025	8954.311	19.76523	-2.536751	1.113274
77.17424	8953.663	19.94511	-4.776463	1.226702
77.22823	8952.876	20.10703	-6.967635	1.335866
77.28222	8951.938	20.24675	-9.111616	1.439526
77.3362	8950.834	20.3647	-11.2096	1.536704
77.3902	8949.563	20.46078	-13.26258	1.626622
77.44418	8948.127	20.53325	-15.27135	1.708662
77.49818	8946.529	20.57874	-17.23648	1.782362
77.55216	8944.772	20.59521	-19.15837	1.847409
77.60616	8942.854	20.5825	-21.03722	1.903633
77.66014	8940.777	20.54776	-22.87305	1.950994
77.71413	8938.56	20.49576	-24.66572	1.989575
77.76812	8936.226	20.42815	-26.41497	2.019586
77.82211	8933.811	20.33783	-28.12041	2.041347
77.8761	8931.346	20.21474	-29.78154	2.055295
77.93009	8928.859	20.05818	-31.39781	2.061977
77.98408	8926.371	19.87134	-32.96861	2.062065
78.03807	8923.89	19.65911	-34.49326	2.056336
78.09206	8921.401	19.41936	-35.97111	2.045649
78.14605	8918.896	19.14394	-37.4015	2.03089
78.20004	8916.37	18.82275	-38.78389	2.012954
78.25403	8913.821	18.45314	-40.11783	1.992664
78.30801	8911.249	18.04042	-41.40301	1.970739
78.36201	8908.656	17.5991	-42.6392	1.947702
78.41599	8906.043	17.14684	-43.8263	1.923904
78.46999	8903.413	16.6949	-44.96428	1.899494
78.52397	8900.76	16.23866	-46.05322	1.874454
78.57796	8898.072	15.76379	-47.09329	1.848637
78.63195	8895.347	15.26168	-48.08481	1.821806
78.68594	8892.592	14.72672	-49.02821	1.793689
78.73993	8889.807	14.15422	-49.92411	1.764012
78.79392	8886.98	13.55148	-50.77328	1.732518
78.84791	8884.094	12.94119	-51.57669	1.698937
78.9019	8881.126	12.33966	-52.3354	1.662985
78.95589	8878.067	11.76223	-53.05062	1.624384
79.00988	8874.916	11.23124	-53.72371	1.582916
79.06387	8871.677	10.77156	-54.35611	1.538437
79.11786	8868.363	10.40376	-54.94934	1.490944
79.17184	8864.997	10.14116	-55.50502	1.440541
79.22584	8861.596	9.989939	-56.02479	1.387457
79.27982	8858.169	9.951888	-56.51029	1.33204
79.33382	8854.719	10.02202	-56.96313	1.274762
79.3878	8851.238	10.19186	-57.38488	1.216236
79.4418	8847.732	10.44296	-57.77698	1.157221
79.49578	8844.205	10.75036	-58.14081	1.098688
79.54977	8840.658	11.09124	-58.4776	1.041834
79.60376	8837.085	11.45308	-58.78848	0.9880849
79.65775	8833.483	11.83309	-59.07443	0.9390802
79.71174	8829.853	12.24208	-59.3363	0.8966113
79.76573	8826.201	12.69355	-59.57481	0.8625119
79.81972	8822.533	13.19092	-59.79056	0.8384828
79.87371	8818.855	13.7359	-59.98407	0.8258542
79.9277	8815.175	14.33586	-60.15575	0.8253185
79.98169	8811.512	14.99923	-60.30596	0.836744
80.03568	8807.879	15.72933	-60.43499	0.8591818
80.08967	8804.286	16.5127	-60.54307	0.8910782
80.14365	8800.743	17.31669	-60.63049	0.9305136
80.19765	8797.26	18.10144	-60.69757	0.9754746
80.25163	8793.834	18.82717	-60.74474	1.024022
80.30563	8790.464	19.46094	-60.77253	1.074423
80.35961	8787.142	19.98368	-60.78154	1.125174
80.4136	8783.859	20.3988	-60.77245	1.175005
80.46759	8780.605	20.71806	-60.74601	1.222813
80.52158	8777.36	20.9551	-60.70304	1.267658
80.57557	8774.115	21.12342	-60.64447	1.308719
80.62956	8770.872	21.2352	-60.57133	1.345305
80.68355	8767.636	21.30678	-60.48475	1.376825
80.73754	8764.407	21.35081	-60.38602	1.402806
80.79153	8761.182	21.37977	-60.27654	1.422885
80.84552	8757.952	21.40293	-60.15781	1.436847
80.89951	8754.723	21.4293	-60.03148	1.444646
80.9535	8751.504	21.45746	-59.89925	1.446411
81.00748	8748.297	21.47826	-59.76296	1.442446
81.06148	8745.103	21.47518	-59.62455	1.433222
81.11546	8741.921	21.42485	-59.48603	1.419344
81.16946	8738.752	21.30294	-59.34951	1.401547
81.22344	8735.586	21.09488	-59.21712	1.380697
81.27744	8732.412	20.79363	-59.091	1.35782
81.33142	8729.214	20.40462	-58.97322	1.334091
81.38541	8725.979	19.94525	-58.86578	1.310797
81.4394	8722.701	19.44032	-58.77058	1.289323
81.49339	8719.385	18.91914	-58.68938	1.271043
81.54738	8716.031	18.40534	-58.62384	1.257246
81.60137	8712.644	17.91954	-58.57539	1.249053
81.65536	8709.228	17.47529	-58.54533	1.247314
81.70935	8705.807	17.0879	-58.53474	1.252536
81.76334	8702.41	16.76122	-58.5446	1.2648
81.81733	8699.069	16.49103	-58.57567	1.283774
81.87132	8695.813	16.26659	-58.62863	1.308652
81.92531	8692.66	16.07582	-58.70402	1.338275
81.97929	8689.624	15.90921	-58.80229	1.371162
82.03329	8686.705	15.76432	-58.92381	1.405737
82.08727	8683.9	15.64175	-59.06887	1.440347
82.14127	8681.197	15.54802	-59.23774	1.473495
82.19525	8678.57	15.48761	-59.43062	1.503782
82.24924	8675.994	15.45768	-59.64777	1.530032
82.30323	8673.447	15.4531	-59.88941	1.551199
82.35722	8670.901	15.47592	-60.15585	1.566505
82.41121	8668.334	15.53538	-60.44735	1.575295
82.4652	8665.733	15.63836	-60.7643	1.577261
82.5192	8663.094	15.78753	-61.10711	1.572254
82.57318	8660.424	15.97412	-61.47633	1.560461
82.62717	8657.737	16.18937	-61.87254	1.542141
82.68116	8655.042	16.42707	-62.29643	1.517843
82.73515	8652.334	16.67228	-62.74869	1.488156
82.78914	8649.598	16.90347	-63.23011	1.453927
82.84313	8646.816	17.10803	-63.74146	1.415997
82.89712	8643.968	17.2798	-64.28364	1.37546
82.95111	8641.026	17.42178	-64.85747	1.333338
83.0051	8637.979	17.54548	-65.46391	1.290889
83.05909	8634.825	17.6569	-66.10384	1.249248
83.11308	8631.557	17.75464	-66.77827	1.209784
83.16707	8628.176	17.83491	-67.48814	1.17378
83.22105	8624.691	17.89273	-68.23443	1.142791
83.27505	8621.125	17.92447	-69.01801	1.118237
83.32903	8617.499	17.92638	-69.83977	1.101657
83.38303	8613.824	17.89484	-70.70044	1.094322
83.43701	8610.11	17.82745	-71.60075	1.097356
83.491	8606.364	17.7226	-72.54128	1.111403
83.54499	8602.589	17.58383	-73.5225	1.136745
83.59898	8598.78	17.4099	-74.54465	1.173106
83.65297	8594.922	17.2024	-75.60789	1.219866
83.70696	8591.005	16.96299	-76.71205	1.276058
83.76095	8587.021	16.69985	-77.85683	1.340551
83.81494	8582.968	16.42943	-79.04161	1.4121
83.86893	8578.843	16.17126	-80.26563	1.489457
83.92292	8574.645	15.93835	-81.52782	1.571444
83.97691	8570.376	15.73187	-82.82705	1.657008
84.0309	8566.053	15.5503	-84.16192	1.745242
84.08488	8561.7	15.38759	-85.53091	1.835262
84.13888	8557.345	15.24828	-86.9323	1.926276
84.19286	8553.005	15.13066	-88.3643	2.017484
84.24686	8548.684	15.02114	-89.82496	2.108175
84.30084	8544.36	14.9036	-91.31233	2.197647
84.35484	8540	14.77357	-92.82433	2.285296
84.40882	8535.557	14.63678	-94.35887	2.370521
84.46281	8530.99	14.50731	-95.91386	2.45279
84.5168	8526.267	14.39427	-97.48724	2.531527
84.57079	8521.364	14.29636	-99.07698	2.606188
84.62478	8516.281	14.21219	-100.6811	2.676177
84.67877	8511.029	14.14513	-102.2976	2.740946
84.73276	8505.626	14.09695	-103.9246	2.799956
84.78675	8500.099	14.07219	-105.5603	2.852727
84.84074	8494.477	14.07138	-107.2028	2.898768
84.89473	8488.785	14.08636	-108.8506	2.937657
84.94872	8483.048	14.11226	-110.502	2.968947
85.00271	8477.284	14.14307	-112.1553	2.992221
85.05669	8471.493	14.16486	-113.8092	3.007077
85.11069	8465.647	14.1651	-115.4621	3.013221
85.16467	8459.713	14.13773	-117.1125	3.010422
85.21867	8453.665	14.07762	-118.7591	2.998605
85.27265	8447.481	13.98415	-120.4005	2.977823
85.32664	8441.137	13.8685	-122.0351	2.948284
85.38063	8434.617	13.74792	-123.6618	2.910312
85.43462	8427.906	13.64155	-125.2791	2.864304
85.48861	8421.009	13.57042	-126.8857	2.810697
85.5426	8413.935	13.55534	-128.4805	2.750011
85.59659	8406.701	13.61521	-130.0625	2.682801
85.65058	8399.325	13.75198	-131.6305	2.609718
85.70457	8391.83	13.96165	-133.1837	2.531463
85.75856	8384.231	14.22569	-134.7213	2.448801
85.81255	8376.552	14.52622	-136.2425	2.362527
85.86654	8368.795	14.85253	-137.7464	2.273467
85.92052	8360.964	15.19767	-139.2323	2.182456
85.97452	8353.045	15.55743	-140.6994	2.090446
86.0285	8345.022	15.92994	-142.1468	1.998333
86.0825	8336.876	16.31779	-143.5737	1.907026
86.13648	8328.596	16.72711	-144.9789	1.817417
86.19048	8320.165	17.16467	-146.3616	1.730322
86.24446	8311.588	17.62957	-147.7206	1.646502
86.29845	8302.873	18.11608	-149.0549	1.566685
86.35244	8294.043	18.61772	-150.3636	1.49153
86.40643	8285.12	19.13157	-151.6457	1.421667
86.46042	8276.134	19.65892	-152.9003	1.357603
86.51441	8267.099	20.20027	-154.1269	1.299788
86.5684	8258.032	20.7439	-155.325	1.248489
86.62239	8248.95	21.26958	-156.494	1.203892
86.67638	8239.871	21.75111	-157.6338	1.166034
86.73037	8230.799	22.16377	-158.7439	1.134813
86.78436	8221.738	22.4921	-159.8242	1.109958
86.83835	8212.687	22.7193	-160.8745	1.091014
86.89233	8203.641	22.83906	-161.8946	1.077314
86.94633	8194.592	22.8611	-162.8842	1.068013
87.00031	8185.533	22.79638	-163.8432	1.062232
87.05431	8176.44	22.65348	-164.7714	1.059023
87.10829	8167.296	22.44697	-165.6685	1.057551
87.16228	8158.102	22.19627	-166.5344	1.05706
87.21627	8148.864	21.91434	-167.3688	1.056931
87.27026	8139.581	21.60939	-168.1717	1.056679
87.32425	8130.256	21.27959	-168.9429	1.055984
87.37824	8120.882	20.91689	-169.6824	1.054723
87.43223	8111.467	20.51065	-170.3903	1.052969
87.48622	8102.015	20.05398	-171.0665	1.051025
87.54021	8092.543	19.55195	-171.7113	1.049348
87.5942	8083.073	19.02184	-172.325	1.04855
87.64819	8073.62	18.48554	-172.9081	1.049298
87.70218	8064.183	17.96238	-173.4611	1.052281
87.75616	8054.751	17.47004	-173.985	1.05815
87.81016	8045.313	17.02628	-174.4809	1.067508
87.86414	8035.859	16.64638	-174.9497	1.080845
87.91814	8026.39	16.33772	-175.3928	1.098529
87.97212	8016.909	16.10064	-175.8114	1.120779
88.02612	8007.424	15.93332	-176.207	1.147638
88.0801	7997.933	15.82676	-176.5807	1.178971
88.13409	7988.433	15.77264	-176.9338	1.214512
88.18808	7978.912	15.7699	-177.2675	1.253868
88.24207	7969.364	15.82192	-177.5828	1.296537
88.29606	7959.776	15.92944	-177.8809	1.341941
88.35005	7950.146	16.09526	-178.1626	1.389428
88.40404	7940.477	16.31692	-178.4291	1.438319
88.45803	7930.766	16.58753	-178.6813	1.487964
88.51202	7921.006	16.90023	-178.9201	1.537781
88.56601	7911.199	17.24467	-179.1466	1.587252
88.62	7901.349	17.61041	-179.3617	1.635963
88.67399	7891.46	17.99413	-179.5664	1.683555
88.72797	7881.531	18.38694	-179.7617	1.729748
88.78197	7871.574	18.76689	-179.9483	1.774337
88.83595	7861.598	19.11163	-180.127	1.817178
88.88995	7851.617	19.40683	-180.2984	1.858175
88.94393	7841.619	19.64664	-180.463	1.897304
88.99792	7831.592	19.82157	-180.6212	1.934617
89.05191	7821.514	19.91642	-180.7733	1.970166
89.1059	7811.38	19.92501	-180.9194	2.004072
89.15989	7801.196	19.85242	-181.0595	2.036393
89.21388	7790.989	19.71455	-181.1935	2.06718
89.26787	7780.782	19.53597	-181.3215	2.096502
89.32186	7770.603	19.3353	-181.4433	2.124361
89.37585	7760.464	19.12914	-181.5586	2.150714
89.42984	7750.382	18.92892	-181.6673	2.175433
89.48383	7740.363	18.73614	-181.769	2.198301
89.53782	7730.424	18.55212	-181.8634	2.218994
89.5918	7720.573	18.37	-181.9502	2.237154
89.6458	7710.819	18.17199	-182.029	2.252348
89.69978	7701.157	17.94754	-182.0995	2.264216
89.75378	7691.573	17.69887	-182.1616	2.272332
89.80776	7682.032	17.43077	-182.2151	2.276337
89.86176	7672.502	17.148	-182.26	2.275834
89.91574	7662.955	16.85628	-182.2963	2.270486
89.96973	7653.379	16.5635	-182.3241	2.259981
90.02372	7643.763	16.27884	-182.3436	2.244075
90.07771	7634.107	16.00265	-182.355	2.222619
90.1317	7624.407	15.73219	-182.3586	2.195575
90.18569	7614.665	15.46885	-182.3548	2.16297
90.23968	7604.873	15.20873	-182.344	2.124913
90.29367	7595.035	14.94905	-182.3269	2.08155
90.34766	7585.16	14.68178	-182.304	2.033089
90.40165	7575.265	14.3951	-182.2762	1.979718
90.45564	7565.353	14.08663	-182.2442	1.921665
90.50963	7555.432	13.75857	-182.209	1.85921
90.56361	7545.513	13.41207	-182.1712	1.792635
90.61761	7535.604	13.05205	-182.1317	1.722304
90.67159	7525.704	12.68235	-182.0912	1.648624
90.72559	7515.818	12.29787	-182.0504	1.572043
90.77957	7505.942	11.89318	-182.0099	1.4931
90.83356	7496.076	11.47055	-181.9703	1.412349
90.88755	7486.21	11.04738	-181.932	1.330382
90.94154	7476.34	10.64681	-181.8954	1.247814
90.99553	7466.465	10.28687	-181.8611	1.165311
91.04952	7456.585	9.977939	-181.8293	1.083564
91.10351	7446.691	9.72756	-181.8002	1.003308
91.1575	7436.786	9.539134	-181.7743	0.9253409
91.21149	7426.871	9.419252	-181.7517	0.8505644
91.26548	7416.956	9.371196	-181.7327	0.7800123
91.31947	7407.056	9.390802	-181.7174	0.7148392
91.37346	7397.183	9.472155	-181.7061	0.6562795
91.42744	7387.343	9.609998	-181.6988	0.6056559
91.48144	7377.542	9.799816	-181.6956	0.5641908
91.53542	7367.78	10.03191	-181.6965	0.5329467
91.58942	7358.051	10.28968	-181.7013	0.5125014
91.6434	7348.35	10.55742	-181.7097	0.5028965
91.6974	7338.667	10.83317	-181.7216	0.5034181
91.75138	7328.987	11.1243	-181.7365	0.5128036
91.80537	7319.289	11.43642	-181.7541	0.5294203
91.85936	7309.554	11.76636	-181.7742	0.5515559
91.91335	7299.766	12.11059	-181.7962	0.5777166
91.96734	7289.924	12.46834	-181.8199	0.6066459
92.02133	7280.034	12.84037	-181.8449	0.6373558
92.07532	7270.124	13.22811	-181.8711	0.6691169
92.12931	7260.221	13.63149	-181.8982	0.7013558
92.1833	7250.353	14.04602	-181.9262	0.7336404
92.23729	7240.528	14.46043	-181.955	0.7655834
92.29128	7230.756	14.86099	-181.9845	0.7968453
92.34527	7221.033	15.23532	-182.0149	0.8270901
92.39925	7211.352	15.57406	-182.0462	0.8559623
92.45325	7201.696	15.87861	-182.1034	0.814374
92.50723	7192.064	16.15561	-182.1611	0.7849206
92.56123	7182.439	16.41415	-182.2187	0.768694
92.61521	7172.81	16.6591	-182.2759	0.7655783
92.6692	7163.165	16.8859	-182.3326	0.7745207
92.72319	7153.503	17.0821	-182.3887	0.793961
92.77718	7143.814	17.23025	-182.4444	0.8222548
92.83117	7134.083	17.31599	-182.4998	0.8578404
92.88516	7124.292	17.33986	-182.5549	0.8994233
92.93915	7114.437	17.31121	-182.6101	0.9459661
92.99314	7104.529	17.24544	-182.6652	0.9967035
93.04713	7094.587	17.15169	-182.7205	1.051022
93.10112	7084.627	17.03133	-182.776	1.108516
93.15511	7074.67	16.87838	-182.8318	1.1689
93.2091	7064.716	16.69251	-182.8879	1.231956
93.26308	7054.774	16.47261	-182.9444	1.297545
93.31708	7044.844	16.22338	-183.0012	1.365574
93.37106	7034.935	15.95726	-183.0585	1.435987
93.42506	7025.043	15.68605	-183.1163	1.508728
93.47904	7015.167	15.42162	-183.1745	1.583769
93.53304	7005.293	15.17021	-183.2333	1.661089
93.58702	6995.418	14.93346	-183.2926	1.740662
93.64101	6985.542	14.71011	-183.3524	1.822457
93.695	6975.665	14.50667	-183.4127	1.906447
93.74899	6965.788	14.32807	-183.4736	1.992599
93.80298	6955.92	14.17025	-183.5351	2.080878
93.85697	6946.06	14.02054	-183.5971	2.171251
93.91096	6936.196	13.87152	-183.6597	2.263678
93.96495	6926.305	13.72444	-183.7229	2.358118
94.01894	6916.37	13.5947	-183.7867	2.454512
94.07293	6906.306	13.61278	-183.851	2.5528
94.12691	6896.258	13.69349	-183.9159	2.652928
94.18091	6886.259	13.82492	-183.9813	2.75484
94.23489	6876.301	13.9912	-184.0472	2.858454
94.28889	6866.369	14.18303	-184.1136	2.963698
94.34287	6856.454	14.39417	-184.1804	3.070514
94.39687	6846.547	14.61925	-184.2477	3.178828
94.45085	6836.643	14.85553	-184.3155	3.288561
94.50484	6826.738	15.09927	-184.3837	3.399649
94.55883	6816.829	15.34828	-184.4522	3.512015
94.61282	6806.913	15.60058	-184.5211	3.625599
94.66681	6796.987	15.85429	-184.5904	3.74034
94.7208	6787.052	16.10851	-184.66	3.856154
94.77479	6777.105	16.3635	-184.7299	3.97299
94.82878	6767.146	16.62046	-184.8001	4.09079
94.88277	6757.175	16.88047	-184.8706	4.209479
94.93676	6747.195	17.14549	-184.9413	4.329034
94.99075	6737.208	17.41632	-185.0123	4.449369
