T[Â°C]	350nm [counts / mm]	S.D.	First derivative	S.D. of first derivative
20.00037	4350.765	55.21666	-62.05272	3.24528
20.05447	4347.458	55.31234	-62.04049	3.152721
20.10858	4344.157	55.40739	-62.02788	3.060696
20.16269	4340.86	55.50135	-62.01486	2.96923
20.21679	4337.569	55.59471	-62.00143	2.87835
20.2709	4334.283	55.68776	-61.98759	2.788096
20.325	4330.999	55.78015	-61.97334	2.698489
20.37911	4327.718	55.87077	-61.95866	2.609568
20.43321	4324.44	55.95931	-61.94356	2.521367
20.48732	4321.164	56.04475	-61.92804	2.43392
20.54143	4317.889	56.12715	-61.9121	2.347264
20.59553	4314.615	56.20607	-61.89574	2.26144
20.64964	4311.342	56.28207	-61.87898	2.176484
20.70374	4308.072	56.35564	-61.86182	2.092443
20.75785	4304.804	56.42772	-61.84426	2.009358
20.81195	4301.54	56.49859	-61.82632	1.92727
20.86606	4298.288	56.56882	-61.80801	1.846232
20.92017	4295.062	56.63898	-61.78934	1.76629
20.97427	4291.847	56.71737	-61.77035	1.687504
21.02838	4288.615	56.81652	-61.75103	1.609928
21.08248	4285.355	56.93701	-61.73141	1.533628
21.13659	4282.062	57.0701	-61.71152	1.458675
21.19069	4278.728	57.20171	-61.69139	1.385152
21.2448	4275.354	57.31527	-61.67103	1.313151
21.29891	4271.947	57.39458	-61.65047	1.242779
21.35301	4268.517	57.43142	-61.62975	1.174165
21.40712	4265.07	57.42412	-61.60888	1.107459
21.46123	4261.616	57.38015	-61.58791	1.042849
21.51533	4258.163	57.315	-61.56686	0.9805549
21.56944	4254.716	57.24417	-61.54576	0.9208509
21.62354	4251.277	57.17557	-61.52465	0.864068
21.67765	4247.847	57.11383	-61.50356	0.8106134
21.73175	4244.424	57.06135	-61.4825	0.760982
21.78586	4241.004	57.01498	-61.46153	0.7157573
21.83997	4237.583	56.96848	-61.44068	0.6756253
21.89407	4234.158	56.91186	-61.41997	0.641359
21.94818	4230.723	56.83706	-61.39944	0.6137781
22.00228	4227.278	56.73381	-61.37912	0.5936882
22.05639	4223.83	56.59529	-61.35904	0.5817913
22.11049	4220.386	56.41981	-61.33919	0.5785636
22.1646	4216.96	56.21194	-61.31958	0.5841888
22.21871	4213.559	55.97748	-61.30019	0.5985204
22.27281	4210.192	55.72571	-61.28092	0.621103
22.32692	4206.862	55.46535	-61.26165	0.6512371
22.38102	4203.566	55.20085	-61.24213	0.6880308
22.43513	4200.306	54.93791	-61.22195	0.7303973
22.48923	4197.079	54.68703	-61.20053	0.7770294
22.54334	4193.881	54.4577	-61.17707	0.82632
22.59745	4190.706	54.25762	-61.15069	0.8764753
22.65155	4187.544	54.09337	-61.11229	0.8950416
22.70566	4184.385	53.96293	-61.07237	0.9115782
22.75976	4181.213	53.86037	-61.03105	0.9258334
22.81387	4178.014	53.77487	-60.98846	0.9376011
22.86798	4174.782	53.69284	-60.9448	0.9467368
22.92208	4171.514	53.61062	-60.90025	0.9531552
22.97619	4168.219	53.53271	-60.85507	0.9568368
23.03029	4164.907	53.46511	-60.80951	0.9578272
23.0844	4161.588	53.41109	-60.76387	0.9562575
23.1385	4158.271	53.37539	-60.71845	0.9523044
23.19261	4154.96	53.36929	-60.6736	0.9462034
23.24672	4151.666	53.40052	-60.62967	0.9382391
23.30082	4148.386	53.47097	-60.58698	0.9287261
23.35493	4145.12	53.57522	-60.54588	0.9180097
23.40903	4141.864	53.7001	-60.50668	0.9064387
23.46314	4138.616	53.83317	-60.46967	0.8943595
23.51724	4135.372	53.96161	-60.43509	0.8820922
23.57135	4132.122	54.07048	-60.40313	0.8699314
23.62546	4128.859	54.15219	-60.37395	0.8581367
23.67956	4125.58	54.20823	-60.34763	0.8469284
23.73367	4122.283	54.24289	-60.3242	0.8364976
23.78777	4118.969	54.26292	-60.30363	0.8269994
23.84188	4115.646	54.27275	-60.28587	0.8185642
23.89598	4112.318	54.27619	-60.27082	0.8112939
23.95009	4108.995	54.27279	-60.25833	0.8052521
24.0042	4105.686	54.26054	-60.24825	0.8004667
24.0583	4102.4	54.23551	-60.24039	0.7969353
24.11241	4099.143	54.19822	-60.23457	0.7946383
24.16652	4095.92	54.1522	-60.23059	0.793548
24.22062	4092.738	54.10056	-60.22824	0.7936336
24.27473	4089.592	54.04701	-60.22732	0.7948881
24.32883	4086.473	53.99167	-60.22761	0.7972931
24.38294	4083.365	53.93332	-60.22885	0.800801
24.43704	4080.252	53.87164	-60.23075	0.8053133
24.49115	4077.123	53.80602	-60.23299	0.8106836
24.54526	4073.97	53.73728	-60.23523	0.8167266
24.59936	4070.795	53.67402	-60.23712	0.8232344
24.65347	4067.598	53.62685	-60.23837	0.829987
24.70757	4064.381	53.60291	-60.23868	0.8367767
24.76168	4061.146	53.60033	-60.23782	0.8433999
24.81578	4057.899	53.60933	-60.23559	0.8496609
24.86989	4054.642	53.62097	-60.23186	0.855383
24.924	4051.38	53.63369	-60.22656	0.8604234
24.9781	4048.121	53.65255	-60.2197	0.8646984
25.03221	4044.868	53.68131	-60.21134	0.8682137
25.08631	4041.624	53.71857	-60.20166	0.87108
25.14042	4038.385	53.75767	-60.19082	0.8735121
25.19452	4035.145	53.78917	-60.17905	0.875825
25.24863	4031.897	53.80371	-60.16656	0.8784018
25.30274	4028.633	53.79389	-60.1535	0.8816594
25.35684	4025.345	53.75403	-60.13999	0.8860161
25.41095	4022.028	53.68072	-60.12614	0.8918546
25.46505	4018.681	53.57334	-60.11202	0.8994977
25.51916	4015.308	53.43116	-60.09768	0.9091693
25.57327	4011.915	53.25156	-60.08316	0.9209572
25.62737	4008.511	53.0313	-60.06848	0.9347925
25.68148	4005.111	52.77321	-60.05364	0.9504551
25.73558	4001.725	52.48679	-60.0386	0.9676076
25.78969	3998.36	52.18238	-60.02334	0.9858042
25.84379	3995.019	51.87379	-60.00779	1.004538
25.8979	3991.705	51.57342	-59.99188	1.023239
25.95201	3988.415	51.29293	-59.97556	1.041329
26.00611	3985.145	51.04311	-59.95877	1.058253
26.06022	3981.887	50.83281	-59.94145	1.073523
26.11432	3978.636	50.66774	-59.92353	1.086726
26.16843	3975.388	50.54868	-59.90495	1.097526
26.22253	3972.138	50.47234	-59.88565	1.105651
26.27664	3968.884	50.43009	-59.86555	1.110899
26.33075	3965.626	50.41479	-59.84455	1.113092
26.38485	3962.368	50.42159	-59.82253	1.112085
26.43896	3959.113	50.4453	-59.79933	1.107762
26.49306	3955.863	50.4826	-59.77482	1.100025
26.54717	3952.624	50.5335	-59.74887	1.08883
26.60127	3949.4	50.60239	-59.72139	1.074182
26.65538	3946.195	50.69563	-59.69227	1.056132
26.70949	3943.006	50.81951	-59.66147	1.034782
26.76359	3939.83	50.97346	-59.62897	1.010289
26.8177	3936.658	51.1479	-59.59477	0.9828551
26.87181	3933.488	51.33221	-59.5589	0.9527487
26.92591	3930.319	51.51675	-59.52141	0.9202859
26.98002	3927.154	51.69447	-59.48239	0.8858535
27.03412	3923.993	51.862	-59.44192	0.8498912
27.08823	3920.837	52.01384	-59.40011	0.8128928
27.14233	3917.681	52.1431	-59.35707	0.7753859
27.19644	3914.518	52.24287	-59.3129	0.7378989
27.25055	3911.346	52.30846	-59.26767	0.7009318
27.30465	3908.161	52.33991	-59.22142	0.6649292
27.35876	3904.962	52.3401	-59.17419	0.6302778
27.41286	3901.751	52.31166	-59.12606	0.5972814
27.46697	3898.531	52.25793	-59.07708	0.5661637
27.52107	3895.305	52.18399	-59.02739	0.5370533
27.57518	3892.073	52.0919	-58.97713	0.5100014
27.62929	3888.839	51.98081	-58.92646	0.485013
27.68339	3885.604	51.85312	-58.87558	0.4620893
27.7375	3882.378	51.71063	-58.82464	0.4412844
27.7916	3879.17	51.56121	-58.77384	0.4227644
27.84571	3875.991	51.41446	-58.72335	0.4068367
27.89981	3872.847	51.27731	-58.67336	0.3939907
27.95392	3869.735	51.15663	-58.62404	0.3848566
28.00803	3866.642	51.0583	-58.57557	0.3801716
28.06213	3863.557	50.98714	-58.52809	0.3806317
28.11624	3860.467	50.94563	-58.48176	0.3867326
28.17034	3857.363	50.93696	-58.43668	0.3986067
28.22445	3854.241	50.96185	-58.39293	0.4159965
28.27855	3851.098	51.0147	-58.3506	0.438293
28.33266	3847.933	51.08337	-58.30972	0.4646483
28.38677	3844.747	51.15131	-58.27035	0.4941016
28.44087	3841.54	51.20442	-58.23254	0.5256714
28.49498	3838.317	51.2354	-58.19635	0.5584305
28.54908	3835.088	51.24082	-58.16184	0.591503
28.60319	3831.864	51.22011	-58.12909	0.6240928
28.6573	3828.654	51.18082	-58.09817	0.6554784
28.7114	3825.463	51.13835	-58.06915	0.685039
28.76551	3822.29	51.10666	-58.04207	0.7122216
28.81961	3819.13	51.09348	-58.01694	0.7365673
28.87372	3815.976	51.10102	-57.99372	0.7576843
28.92782	3812.824	51.13096	-57.97233	0.7752736
28.98193	3809.668	51.18352	-57.95265	0.7891077
29.03604	3806.507	51.25214	-57.93451	0.7990553
29.09014	3803.342	51.32582	-57.91773	0.805077
29.14425	3800.174	51.39354	-57.90209	0.8072399
29.19835	3797.007	51.4421	-57.88736	0.805703
29.25246	3793.845	51.45698	-57.87333	0.8007172
29.30656	3790.691	51.42852	-57.85978	0.7926231
29.36067	3787.55	51.35546	-57.84654	0.7818355
29.41478	3784.426	51.23926	-57.83347	0.7688613
29.46888	3781.328	51.08665	-57.82047	0.7542906
29.52299	3778.266	50.91007	-57.80746	0.7387774
29.57709	3775.243	50.72476	-57.79444	0.7229894
29.6312	3772.255	50.53935	-57.78138	0.707561
29.68531	3769.288	50.35752	-57.76828	0.69305
29.73941	3766.33	50.18377	-57.75515	0.6799061
29.79352	3763.37	50.01702	-57.74198	0.6684669
29.84762	3760.396	49.85467	-57.72878	0.6589563
29.90173	3757.406	49.69188	-57.71553	0.6514735
29.95584	3754.397	49.526	-57.70224	0.6460258
30.00994	3751.369	49.35771	-57.68888	0.6425356
30.06405	3748.315	49.18467	-57.67545	0.6408744
30.11815	3745.233	49.00906	-57.66193	0.6408517
30.17226	3742.118	48.84051	-57.64831	0.6422632
30.22636	3738.978	48.69169	-57.63462	0.6448818
30.28047	3735.818	48.57365	-57.62093	0.6484918
30.33458	3732.648	48.49172	-57.60732	0.6529055
30.38868	3729.476	48.45191	-57.5939	0.6579616
30.44279	3726.307	48.45658	-57.58081	0.6635233
30.49689	3723.144	48.50481	-57.56819	0.6694575
30.551	3719.989	48.58524	-57.55617	0.6756307
30.6051	3716.84	48.68002	-57.54486	0.6819028
30.65921	3713.697	48.77794	-57.53432	0.6881407
30.71332	3710.555	48.87344	-57.52457	0.6942196
30.76742	3707.412	48.96342	-57.51562	0.7000368
30.82153	3704.261	49.04513	-57.50737	0.7054849
30.87563	3701.102	49.1177	-57.49973	0.7104589
30.92974	3697.932	49.18293	-57.49252	0.7148455
30.98384	3694.752	49.24405	-57.48555	0.7185308
31.03795	3691.557	49.30802	-57.47857	0.7214073
31.09206	3688.35	49.38297	-57.47131	0.723389
31.14616	3685.136	49.47474	-57.46349	0.7244221
31.20027	3681.926	49.57994	-57.4548	0.7244908
31.25437	3678.729	49.68726	-57.44495	0.7236188
31.30848	3675.558	49.78535	-57.43364	0.7218919
31.36259	3672.42	49.86372	-57.4206	0.7194693
31.41669	3669.313	49.91389	-57.40558	0.716562
31.4708	3666.234	49.92993	-57.38839	0.713461
31.5249	3663.179	49.91067	-57.36884	0.7105255
31.57901	3660.14	49.85513	-57.34683	0.7081842
31.63311	3657.108	49.76234	-57.32225	0.7068887
31.68722	3654.074	49.63884	-57.29504	0.7071084
31.74133	3651.032	49.49643	-57.26519	0.7092922
31.79543	3647.972	49.35036	-57.23269	0.7138435
31.84954	3644.891	49.21302	-57.1976	0.7210696
31.90364	3641.787	49.09125	-57.15998	0.7311997
31.95775	3638.665	48.98997	-57.11993	0.744335
32.01186	3635.532	48.90601	-57.07755	0.7604742
32.06596	3632.397	48.83268	-57.03301	0.7794971
32.12007	3629.267	48.76421	-56.9865	0.8011897
32.17417	3626.144	48.70097	-56.93825	0.8252609
32.22828	3623.031	48.64846	-56.8885	0.8513593
32.28238	3619.928	48.60649	-56.83755	0.8791174
32.33649	3616.835	48.57453	-56.78573	0.9081832
32.39059	3613.75	48.5516	-56.7334	0.9381952
32.4447	3610.671	48.53641	-56.6809	0.9688211
32.49881	3607.597	48.52296	-56.62861	0.9997358
32.55291	3604.524	48.50193	-56.57684	1.030644
32.60702	3601.449	48.46457	-56.5259	1.061277
32.66113	3598.366	48.40535	-56.47607	1.091402
32.71523	3595.271	48.32335	-56.4276	1.120816
32.76934	3592.162	48.22275	-56.38073	1.149338
32.82344	3589.042	48.10952	-56.33566	1.176775
32.87755	3585.915	47.98409	-56.29256	1.202931
32.93165	3582.794	47.84493	-56.25159	1.227575
32.98576	3579.69	47.69464	-56.2129	1.250445
33.03986	3576.61	47.54013	-56.17657	1.271246
33.09397	3573.558	47.39445	-56.14266	1.289656
33.14808	3570.537	47.26778	-56.11119	1.30537
33.20218	3567.544	47.16126	-56.08215	1.318099
33.25629	3564.573	47.07138	-56.05545	1.327636
33.31039	3561.62	46.99314	-56.03097	1.333826
33.3645	3558.683	46.92228	-56.00854	1.336599
33.41861	3555.759	46.85486	-55.98796	1.335964
33.47271	3552.837	46.78658	-55.969	1.332044
33.52682	3549.915	46.71705	-55.95141	1.325067
33.58092	3546.988	46.64943	-55.93494	1.315373
33.63503	3544.057	46.58362	-55.91931	1.303409
33.68913	3541.122	46.51658	-55.90428	1.289704
33.74324	3538.183	46.44927	-55.88963	1.274804
33.79735	3535.241	46.38735	-55.8752	1.259261
33.85145	3532.298	46.33653	-55.86084	1.2436
33.90556	3529.353	46.29998	-55.84649	1.22831
33.95966	3526.407	46.2788	-55.83207	1.21384
34.01377	3523.46	46.27058	-55.81759	1.20058
34.06787	3520.509	46.26386	-55.80309	1.188859
34.12198	3517.554	46.24568	-55.78858	1.178927
34.17609	3514.597	46.20731	-55.77413	1.170952
34.23019	3511.635	46.14427	-55.75976	1.165025
34.2843	3508.665	46.06088	-55.74551	1.161152
34.33841	3505.682	45.96355	-55.7314	1.15928
34.39251	3502.681	45.85814	-55.71746	1.159278
34.44662	3499.66	45.74989	-55.70372	1.16096
34.50072	3496.621	45.64085	-55.69019	1.164109
34.55483	3493.57	45.53139	-55.67689	1.168487
34.60893	3490.51	45.42151	-55.66382	1.173879
34.66304	3487.448	45.31083	-55.65094	1.180092
34.71714	3484.391	45.1985	-55.63824	1.186975
34.77125	3481.339	45.08579	-55.62567	1.194404
34.82536	3478.294	44.97399	-55.61318	1.202276
34.87946	3475.251	44.8645	-55.60074	1.21048
34.93357	3472.204	44.76192	-55.5883	1.218881
34.98767	3469.149	44.66896	-55.57583	1.227316
35.04178	3466.083	44.59007	-55.5633	1.235567
35.09589	3463.007	44.53207	-55.5507	1.243384
35.14999	3459.926	44.4996	-55.53799	1.25047
35.2041	3456.843	44.49476	-55.52514	1.256503
35.2582	3453.76	44.51516	-55.51204	1.261136
35.31231	3450.678	44.55772	-55.49858	1.264008
35.36641	3447.602	44.61953	-55.48464	1.264778
35.42052	3444.531	44.6939	-55.47004	1.263145
35.47462	3441.465	44.77433	-55.45459	1.258863
35.52873	3438.403	44.85734	-55.43805	1.251779
35.58284	3435.346	44.94155	-55.42019	1.241832
35.63694	3432.293	45.02145	-55.40073	1.229067
35.69105	3429.241	45.08791	-55.37947	1.213614
35.74516	3426.193	45.13416	-55.35617	1.195676
35.79926	3423.15	45.15714	-55.3307	1.175505
35.85337	3420.116	45.15448	-55.30291	1.153428
35.90747	3417.093	45.1258	-55.27276	1.12983
35.96158	3414.081	45.06831	-55.24024	1.105153
36.01568	3411.08	44.97889	-55.20536	1.079882
36.06979	3408.089	44.85826	-55.16821	1.054517
36.12389	3405.109	44.70434	-55.12889	1.029568
36.178	3402.141	44.51107	-55.08755	1.005513
36.23211	3399.187	44.27945	-55.04435	0.9827874
36.28621	3396.243	44.01803	-54.99949	0.9617687
36.34032	3393.306	43.74036	-54.95321	0.9427571
36.39442	3390.377	43.4629	-54.90578	0.9259436
36.44853	3387.455	43.1997	-54.85747	0.9113991
36.50264	3384.538	42.95771	-54.80856	0.8990858
36.55674	3381.623	42.7407	-54.75933	0.8888686
36.61085	3378.707	42.55043	-54.71002	0.8805405
36.66496	3375.788	42.38695	-54.6609	0.8738358
36.71906	3372.867	42.2464	-54.61217	0.8684669
36.77317	3369.947	42.12376	-54.56406	0.8641322
36.82727	3367.033	42.01117	-54.51675	0.8605199
36.88138	3364.12	41.90314	-54.47042	0.8573264
36.93548	3361.204	41.80293	-54.42523	0.8542244
36.98959	3358.277	41.71647	-54.38137	0.8508815
37.04369	3355.337	41.65006	-54.33901	0.8469654
37.0978	3352.384	41.60726	-54.29834	0.8421618
37.15191	3349.421	41.58972	-54.25954	0.8361809
37.20601	3346.454	41.60011	-54.22275	0.8287596
37.26012	3343.487	41.64324	-54.18811	0.8196786
37.31422	3340.527	41.72044	-54.15569	0.8087563
37.36833	3337.582	41.82793	-54.12554	0.7958764
37.42244	3334.654	41.95948	-54.09767	0.7809803
37.47654	3331.747	42.1068	-54.07206	0.7640922
37.53065	3328.86	42.26316	-54.04862	0.7453164
37.58475	3325.987	42.41925	-54.02724	0.7248451
37.63886	3323.119	42.5644	-54.00777	0.702935
37.69296	3320.25	42.68799	-53.99004	0.6799165
37.74707	3317.376	42.78268	-53.97386	0.6561821
37.80117	3314.5	42.84626	-53.95899	0.6321917
37.85528	3311.621	42.88549	-53.94521	0.6084605
37.90939	3308.741	42.90376	-53.93228	0.5855584
37.96349	3305.861	42.90123	-53.91996	0.564082
38.0176	3302.983	42.8809	-53.908	0.5446256
38.0717	3300.114	42.84703	-53.89617	0.5277511
38.12581	3297.257	42.80375	-53.88427	0.5139136
38.17992	3294.41	42.75407	-53.87213	0.5034302
38.23402	3291.572	42.69898	-53.85961	0.4964597
38.28813	3288.734	42.63923	-53.84661	0.4929688
38.34223	3285.893	42.5774	-53.83309	0.4927757
38.39634	3283.04	42.51661	-53.819	0.4955578
38.45044	3280.169	42.4598	-53.80432	0.5009072
38.50455	3277.278	42.40903	-53.78901	0.5083425
38.55865	3274.365	42.36407	-53.77304	0.517354
38.61276	3271.43	42.3237	-53.75641	0.5274364
38.66687	3268.474	42.28764	-53.73908	0.5381447
38.72097	3265.504	42.2565	-53.72105	0.549108
38.77508	3262.528	42.2267	-53.70228	0.5600489
38.82919	3259.548	42.189	-53.68276	0.5707911
38.88329	3256.57	42.14027	-53.66247	0.5812239
38.9374	3253.6	42.08312	-53.64138	0.5912943
38.9915	3250.641	42.02258	-53.61949	0.6009946
39.04561	3247.696	41.96491	-53.5968	0.6103586
39.09971	3244.762	41.91488	-53.57333	0.6194553
39.15382	3241.837	41.87356	-53.5491	0.6283556
39.20793	3238.915	41.84127	-53.52412	0.6371067
39.26203	3235.987	41.81622	-53.49841	0.6457084
39.31614	3233.053	41.7951	-53.47197	0.6541075
39.37024	3230.112	41.77869	-53.4448	0.6621737
39.42435	3227.161	41.76757	-53.4169	0.6697057
39.47845	3224.204	41.76499	-53.38827	0.6764497
39.53256	3221.241	41.77076	-53.35886	0.6821033
39.58667	3218.27	41.77629	-53.3287	0.6863671
39.64077	3215.296	41.7698	-53.29776	0.688934
39.69488	3212.323	41.74185	-53.26607	0.6895319
39.74899	3209.361	41.68908	-53.23363	0.6879324
39.80309	3206.419	41.6161	-53.20045	0.6839731
39.8572	3203.506	41.53143	-53.16655	0.6775495
39.9113	3200.618	41.44177	-53.13197	0.6686211
39.96541	3197.746	41.35302	-53.09673	0.6572151
40.01951	3194.888	41.27013	-53.06086	0.643402
40.07362	3192.043	41.19367	-53.0244	0.627308
40.12772	3189.208	41.12268	-52.98739	0.6091114
40.18183	3186.381	41.05431	-52.94988	0.5890356
40.23594	3183.56	40.98405	-52.91194	0.5673463
40.29004	3180.747	40.90643	-52.87366	0.5443493
40.34415	3177.938	40.82077	-52.83515	0.520381
40.39825	3175.129	40.72877	-52.7965	0.495804
40.45236	3172.314	40.63476	-52.75782	0.4709786
40.50647	3169.492	40.54349	-52.71923	0.4462652
40.56057	3166.664	40.4562	-52.68084	0.4220087
40.61468	3163.83	40.38027	-52.64276	0.3985601
40.66878	3160.998	40.32428	-52.60512	0.3762859
40.72289	3158.172	40.29391	-52.56803	0.3555848
40.77699	3155.353	40.28751	-52.53157	0.336888
40.8311	3152.536	40.30213	-52.4958	0.3206754
40.8852	3149.723	40.33536	-52.46075	0.3074449
40.93931	3146.916	40.38085	-52.42643	0.2976868
40.99342	3144.115	40.43077	-52.39282	0.2918369
41.04752	3141.319	40.47882	-52.35987	0.2902198
41.10163	3138.525	40.52354	-52.32753	0.2930113
41.15574	3135.729	40.56536	-52.2957	0.3001997
41.20984	3132.926	40.60076	-52.26432	0.3116138
41.26395	3130.115	40.62405	-52.23327	0.3269399
41.31805	3127.299	40.62746	-52.20245	0.3457691
41.37216	3124.48	40.60373	-52.17176	0.3676421
41.42626	3121.666	40.55258	-52.14108	0.3920842
41.48037	3118.863	40.48472	-52.11029	0.418649
41.53447	3116.074	40.41527	-52.07934	0.4469053
41.58858	3113.299	40.35395	-52.04814	0.4764471
41.64268	3110.533	40.30437	-52.01664	0.5068899
41.69679	3107.771	40.26874	-51.98481	0.5378721
41.7509	3105.01	40.24821	-51.95264	0.5690491
41.805	3102.252	40.24515	-51.92012	0.6000733
41.85911	3099.5	40.26301	-51.88727	0.6306065
41.91322	3096.75	40.30478	-51.85411	0.6603206
41.96732	3093.997	40.3731	-51.82067	0.6889043
42.02143	3091.237	40.46647	-51.78696	0.7160738
42.07553	3088.467	40.57928	-51.75301	0.7415991
42.12964	3085.683	40.7056	-51.71883	0.7652964
42.18375	3082.883	40.83728	-51.68444	0.7870234
42.23785	3080.063	40.96225	-51.64986	0.8066816
42.29196	3077.226	41.07316	-51.61513	0.8242101
42.34606	3074.374	41.16753	-51.58031	0.8395973
42.40017	3071.506	41.24816	-51.54544	0.8528614
42.45427	3068.627	41.31979	-51.51057	0.8640652
42.50838	3065.74	41.38434	-51.47576	0.8732935
42.56248	3062.85	41.44444	-51.44104	0.880672
42.61659	3059.959	41.4994	-51.40646	0.8863556
42.6707	3057.072	41.54557	-51.37205	0.8905518
42.7248	3054.188	41.57663	-51.33782	0.8934988
42.77891	3051.308	41.58673	-51.30376	0.8954682
42.83302	3048.43	41.56906	-51.26984	0.8967403
42.88712	3045.559	41.51487	-51.23602	0.8976054
42.94123	3042.696	41.41533	-51.20222	0.8983396
42.99533	3039.849	41.26141	-51.16835	0.8992045
43.04944	3037.02	41.04892	-51.13432	0.9004118
43.10354	3034.21	40.781	-51.10001	0.9021248
43.15765	3031.419	40.46533	-51.06531	0.9044306
43.21175	3028.646	40.11269	-51.03012	0.9073598
43.26586	3025.892	39.73635	-50.99435	0.9108739
43.31997	3023.155	39.35035	-50.95793	0.9148761
43.37407	3020.436	38.96911	-50.92081	0.9192171
43.42818	3017.73	38.60542	-50.883	0.9237249
43.48228	3015.034	38.27184	-50.84454	0.9282163
43.53639	3012.349	37.97686	-50.80547	0.9325203
43.5905	3009.676	37.72456	-50.76587	0.9364681
43.6446	3007.011	37.51647	-50.72582	0.9399312
43.69871	3004.353	37.35227	-50.6854	0.942788
43.75281	3001.698	37.22389	-50.64468	0.9449322
43.80692	2999.045	37.12432	-50.60378	0.946254
43.86102	2996.39	37.04984	-50.56276	0.9466513
43.91513	2993.73	37.00092	-50.52174	0.9460381
43.96923	2991.063	36.97711	-50.48084	0.9443367
44.02334	2988.385	36.97977	-50.44019	0.9415012
44.07745	2985.698	37.01435	-50.39993	0.9374995
44.13155	2983.005	37.08776	-50.3602	0.9323196
44.18566	2980.309	37.19995	-50.32116	0.9259485
44.23977	2977.609	37.34325	-50.28297	0.9183622
44.29387	2974.907	37.51112	-50.24583	0.9095421
44.34798	2972.2	37.69846	-50.20991	0.8994805
44.40208	2969.492	37.89687	-50.17537	0.8881827
44.45619	2966.783	38.09747	-50.14235	0.8756921
44.51029	2964.073	38.29426	-50.11096	0.8620788
44.5644	2961.356	38.48062	-50.0813	0.8474358
44.6185	2958.634	38.64738	-50.05339	0.8318757
44.67261	2955.908	38.78779	-50.02725	0.8155138
44.72672	2953.181	38.89935	-50.00286	0.7984874
44.78082	2950.456	38.98421	-49.98013	0.7809505
44.83493	2947.732	39.04553	-49.95896	0.7630879
44.88903	2945.011	39.08679	-49.93919	0.7451209
44.94314	2942.296	39.11049	-49.92065	0.727317
44.99725	2939.589	39.11947	-49.90309	0.709967
45.05135	2936.893	39.1141	-49.88629	0.6933951
45.10546	2934.208	39.0919	-49.86998	0.6779186
45.15956	2931.535	39.0521	-49.85389	0.6638699
45.21367	2928.875	38.99245	-49.83778	0.6515484
45.26778	2926.225	38.91134	-49.82139	0.6412213
45.32188	2923.584	38.80753	-49.80449	0.6331199
45.37599	2920.947	38.68229	-49.78688	0.6274256
45.43009	2918.308	38.5443	-49.7684	0.6242821
45.4842	2915.664	38.40158	-49.74888	0.6237816
45.5383	2913.013	38.26058	-49.72819	0.625966
45.59241	2910.355	38.126	-49.70619	0.6308036
45.64651	2907.687	38.00239	-49.68276	0.6381922
45.70062	2905.01	37.89341	-49.65776	0.6479422
45.75473	2902.323	37.80266	-49.63108	0.6597825
45.80883	2899.624	37.73101	-49.60261	0.6733524
45.86294	2896.912	37.67855	-49.57228	0.6882229
45.91705	2894.187	37.64096	-49.54003	0.7039319
45.97115	2891.447	37.60933	-49.50586	0.7199844
46.02526	2888.696	37.57578	-49.46978	0.735894
46.07936	2885.937	37.54055	-49.43181	0.7511974
46.13347	2883.18	37.50426	-49.39202	0.765456
46.18757	2880.428	37.46544	-49.35048	0.7782872
46.24168	2877.683	37.42276	-49.30731	0.789385
46.29578	2874.944	37.37566	-49.26262	0.7985438
46.34989	2872.212	37.32283	-49.21655	0.8056644
46.404	2869.49	37.26225	-49.16923	0.8107457
46.4581	2866.776	37.19303	-49.12077	0.813895
46.51221	2864.067	37.11705	-49.07125	0.8152742
46.56631	2861.357	37.03325	-49.02078	0.8151031
46.62042	2858.645	36.93874	-48.96944	0.8136492
46.67453	2855.93	36.82851	-48.91729	0.8111944
46.72863	2853.216	36.69914	-48.86444	0.8080342
46.78274	2850.503	36.54927	-48.81093	0.8044432
46.83684	2847.794	36.38115	-48.75683	0.8006798
46.89095	2845.096	36.20055	-48.70219	0.796989
46.94505	2842.415	36.01687	-48.64709	0.7935779
46.99916	2839.755	35.84249	-48.5916	0.7906152
47.05326	2837.119	35.68862	-48.53579	0.7882096
47.10737	2834.506	35.56613	-48.47972	0.7864063
47.16148	2831.917	35.47912	-48.42348	0.7851781
47.21558	2829.349	35.42593	-48.36714	0.7844275
47.26969	2826.798	35.40278	-48.31079	0.7839855
47.3238	2824.256	35.39986	-48.25454	0.7836598
47.3779	2821.718	35.40758	-48.1985	0.7832274
47.43201	2819.178	35.41937	-48.1428	0.7824728
47.48611	2816.631	35.43303	-48.08757	0.7811893
47.54022	2814.072	35.44846	-48.03297	0.7791862
47.59433	2811.502	35.46593	-47.97915	0.776307
47.64843	2808.925	35.4859	-47.92627	0.7724344
47.70254	2806.344	35.51162	-47.87452	0.7674934
47.75664	2803.762	35.5467	-47.82406	0.7614564
47.81075	2801.186	35.59838	-47.77509	0.7543571
47.86485	2798.623	35.67277	-47.72778	0.7462713
47.91896	2796.074	35.77208	-47.68232	0.73734
47.97306	2793.537	35.89196	-47.63885	0.7277469
48.02717	2791.009	36.0215	-47.59753	0.7177292
48.08128	2788.488	36.1469	-47.55848	0.7075422
48.13538	2785.974	36.25747	-47.52182	0.6974573
48.18949	2783.463	36.34807	-47.48764	0.6877356
48.2436	2780.958	36.4157	-47.45599	0.6786487
48.2977	2778.453	36.4624	-47.42689	0.6704513
48.35181	2775.946	36.49047	-47.4003	0.6633646
48.40591	2773.435	36.50101	-47.37613	0.6575794
48.46002	2770.918	36.49683	-47.35423	0.6532381
48.51412	2768.392	36.47911	-47.33443	0.6504596
48.56823	2765.859	36.4469	-47.31654	0.6493443
48.62233	2763.321	36.4022	-47.30038	0.6499802
48.67644	2760.782	36.34969	-47.28576	0.6524583
48.73055	2758.246	36.29348	-47.27252	0.6568415
48.78465	2755.714	36.2338	-47.26049	0.6631763
48.83876	2753.183	36.16825	-47.24952	0.6714726
48.89286	2750.657	36.09459	-47.23948	0.6816917
48.94697	2748.142	36.00948	-47.23026	0.6937414
49.00108	2745.645	35.90953	-47.22177	0.7074748
49.05518	2743.164	35.79782	-47.21392	0.7226912
49.10929	2740.694	35.6758	-47.20663	0.7391697
49.16339	2738.227	35.54496	-47.19986	0.7566481
49.2175	2735.754	35.41192	-47.19355	0.7748474
49.2716	2733.266	35.28228	-47.18764	0.7934707
49.32571	2730.76	35.15966	-47.18209	0.8122116
49.37981	2728.233	35.04475	-47.17686	0.8307686
49.43392	2725.681	34.93856	-47.17191	0.8488402
49.48803	2723.101	34.84079	-47.16722	0.8661171
49.54213	2720.495	34.74882	-47.16279	0.8822846
49.59624	2717.869	34.66017	-47.15866	0.8970141
49.65034	2715.23	34.57212	-47.15486	0.9099786
49.70445	2712.586	34.47974	-47.15145	0.9208573
49.75856	2709.945	34.3814	-47.14849	0.9293348
49.81266	2707.313	34.28148	-47.14603	0.9351227
49.86677	2704.692	34.18826	-47.1441	0.9379686
49.92087	2702.082	34.10847	-47.14273	0.9376739
49.97498	2699.482	34.04528	-47.14194	0.9340985
50.02908	2696.889	34.00171	-47.1417	0.9271612
50.08319	2694.293	33.98019	-47.14197	0.9168444
50.13729	2691.689	33.98147	-47.14267	0.9031812
50.1914	2689.076	33.99852	-47.14367	0.8862813
50.24551	2686.453	34.0227	-47.14481	0.8663194
50.29961	2683.823	34.04557	-47.14588	0.843537
50.35372	2681.188	34.06002	-47.14664	0.8182181
50.40783	2678.552	34.06136	-47.14682	0.7907006
50.46193	2675.921	34.04386	-47.14613	0.7613702
50.51604	2673.3	33.99986	-47.14427	0.7306609
50.57014	2670.693	33.92624	-47.14096	0.6990396
50.62425	2668.106	33.8264	-47.1359	0.6669945
50.67836	2665.543	33.70821	-47.12886	0.63503
50.73246	2663.005	33.58001	-47.11959	0.6036518
50.78657	2660.489	33.44678	-47.10787	0.5733379
50.84067	2657.99	33.31306	-47.09351	0.5445098
50.89478	2655.504	33.18701	-47.07633	0.517475
50.94888	2653.032	33.07511	-47.05619	0.4924139
51.00299	2650.57	32.98285	-47.033	0.4693775
51.05709	2648.115	32.90954	-47.00671	0.4483054
51.1112	2645.665	32.85123	-46.97732	0.4290476
51.16531	2643.214	32.80478	-46.94487	0.4113934
51.21941	2640.758	32.76662	-46.90944	0.3950993
51.27352	2638.296	32.73377	-46.87115	0.3799251
51.32763	2635.827	32.70385	-46.83017	0.3656273
51.38173	2633.351	32.67923	-46.78669	0.3519796
51.43584	2630.866	32.66563	-46.74097	0.3387628
51.48994	2628.37	32.67009	-46.69332	0.3257779
51.54405	2625.859	32.69767	-46.6441	0.3128514
51.59815	2623.331	32.74878	-46.5937	0.2998531
51.65226	2620.786	32.81978	-46.54251	0.2867135
51.70636	2618.231	32.90741	-46.49092	0.2734265
51.76047	2615.671	33.00931	-46.43931	0.2600819
51.81458	2613.11	33.12304	-46.38804	0.2468855
51.86868	2610.547	33.24522	-46.33745	0.2341795
51.92279	2607.981	33.36847	-46.28782	0.2224584
51.97689	2605.415	33.48495	-46.2394	0.2123813
52.031	2602.846	33.59091	-46.19238	0.2047585
52.08511	2600.272	33.68922	-46.14687	0.200474
52.13921	2597.69	33.7854	-46.10298	0.2003468
52.19332	2595.102	33.88123	-46.06073	0.2049569
52.24742	2592.506	33.97532	-46.02011	0.2145043
52.30153	2589.906	34.06398	-45.98107	0.2288071
52.35563	2587.304	34.14487	-45.94354	0.2473829
52.40974	2584.711	34.21416	-45.90741	0.2696013
52.46384	2582.134	34.2642	-45.87253	0.2948045
52.51795	2579.583	34.29029	-45.83872	0.3223907
52.57206	2577.064	34.29255	-45.8058	0.3518345
52.62616	2574.583	34.27236	-45.77354	0.3826965
52.68027	2572.139	34.23323	-45.74168	0.4146327
52.73438	2569.728	34.17683	-45.70996	0.4473586
52.78848	2567.342	34.10588	-45.67807	0.4806385
52.84259	2564.973	34.0274	-45.6457	0.5142414
52.89669	2562.612	33.95301	-45.61253	0.5479438
52.9508	2560.254	33.8941	-45.57824	0.5815102
53.00491	2557.895	33.85495	-45.54253	0.6147019
53.05901	2555.529	33.83381	-45.50511	0.6472691
53.11312	2553.153	33.82713	-45.46575	0.6789584
53.16722	2550.766	33.83085	-45.42424	0.7095472
53.22133	2548.369	33.83831	-45.38046	0.7388361
53.27543	2545.967	33.84023	-45.3343	0.7666512
53.32954	2543.563	33.82637	-45.28579	0.792842
53.38364	2541.163	33.79007	-45.235	0.8172925
53.43775	2538.771	33.73338	-45.18211	0.8399202
53.49186	2536.387	33.66344	-45.12737	0.8606912
53.54596	2534.006	33.58466	-45.07109	0.8795972
53.60007	2531.622	33.49694	-45.01361	0.8966673
53.65417	2529.228	33.39997	-44.95527	0.9119694
53.70828	2526.818	33.29468	-44.89645	0.9256008
53.76239	2524.39	33.18044	-44.8375	0.9376817
53.81649	2521.944	33.057	-44.77874	0.948329
53.8706	2519.486	32.9259	-44.7205	0.9576462
53.9247	2517.017	32.78455	-44.66306	0.9657089
53.97881	2514.541	32.62981	-44.60667	0.9725671
54.03291	2512.057	32.46227	-44.55153	0.978237
54.08702	2509.569	32.28292	-44.49784	0.9827071
54.14112	2507.079	32.0945	-44.44574	0.9859338
54.19523	2504.59	31.90078	-44.39532	0.9878443
54.24934	2502.103	31.70602	-44.34668	0.9883595
54.30344	2499.623	31.51993	-44.29986	0.987388
54.35755	2497.151	31.34959	-44.25491	0.9848562
54.41166	2494.689	31.19715	-44.21184	0.9806889
54.46576	2492.237	31.06248	-44.17063	0.9748191
54.51987	2489.795	30.94738	-44.13123	0.9671915
54.57397	2487.361	30.85257	-44.09354	0.9577633
54.62808	2484.938	30.77575	-44.05746	0.9465028
54.68218	2482.523	30.7133	-44.02282	0.9334021
54.73629	2480.121	30.65799	-43.98943	0.9184433
54.79039	2477.732	30.60184	-43.95708	0.9015987
54.8445	2475.354	30.54294	-43.92554	0.8828439
54.89861	2472.984	30.48745	-43.89455	0.8621578
54.95271	2470.625	30.44531	-43.86387	0.8395436
55.00682	2468.278	30.42054	-43.83326	0.815026
55.06092	2465.942	30.41615	-43.80247	0.7886719
55.11503	2463.618	30.43674	-43.77129	0.7605971
55.16914	2461.304	30.48623	-43.73955	0.7309741
55.22324	2459.001	30.56441	-43.70709	0.7000256
55.27735	2456.71	30.66411	-43.67381	0.6680222
55.33145	2454.431	30.77402	-43.63964	0.6352912
55.38556	2452.163	30.88379	-43.60458	0.6021907
55.43966	2449.905	30.98467	-43.56863	0.5691381
55.49377	2447.655	31.06963	-43.53186	0.5365846
55.54787	2445.406	31.1323	-43.49436	0.5050105
55.60198	2443.154	31.17049	-43.45623	0.4749067
55.65609	2440.896	31.18379	-43.4176	0.4467397
55.71019	2438.623	31.1742	-43.3786	0.4209208
55.7643	2436.329	31.14607	-43.33937	0.3977689
55.81841	2434.01	31.10882	-43.30006	0.3775099
55.87251	2431.668	31.06948	-43.26082	0.3602661
55.92662	2429.304	31.03093	-43.22176	0.3460864
55.98072	2426.923	30.99831	-43.18299	0.3349484
56.03483	2424.531	30.97478	-43.14459	0.3267905
56.08894	2422.138	30.96245	-43.10661	0.3215151
56.14304	2419.75	30.95839	-43.06905	0.3190045
56.19715	2417.373	30.95577	-43.03191	0.3191213
56.25125	2415.01	30.95125	-42.99519	0.3217548
56.30536	2412.662	30.94487	-42.95888	0.3268228
56.35946	2410.327	30.93854	-42.92294	0.3342595
56.41357	2408.002	30.93488	-42.88733	0.3440035
56.46767	2405.681	30.9336	-42.85199	0.3559915
56.52178	2403.358	30.93364	-42.81683	0.3701645
56.57589	2401.031	30.93318	-42.78176	0.3864507
56.62999	2398.698	30.93568	-42.74666	0.4047671
56.6841	2396.363	30.94684	-42.71142	0.4249853
56.7382	2394.031	30.96956	-42.6759	0.4469317
56.79231	2391.702	31.00184	-42.63999	0.470377
56.84642	2389.378	31.03956	-42.60357	0.4950439
56.90052	2387.056	31.08122	-42.56652	0.5206187
56.95463	2384.738	31.12581	-42.52877	0.5467525
57.00873	2382.427	31.17372	-42.49022	0.5730755
57.06284	2380.124	31.22564	-42.45083	0.5992055
57.11694	2377.828	31.28061	-42.41057	0.6247624
57.17105	2375.538	31.33512	-42.36941	0.6493801
57.22515	2373.254	31.38307	-42.32737	0.6727074
57.27926	2370.973	31.42093	-42.28445	0.6944265
57.33337	2368.694	31.44624	-42.24068	0.7142576
57.38747	2366.412	31.45715	-42.19606	0.7319868
57.44158	2364.126	31.45215	-42.15063	0.7474892
57.49569	2361.832	31.42982	-42.10442	0.7607099
57.54979	2359.528	31.38913	-42.05747	0.7716691
57.6039	2357.212	31.32704	-42.00982	0.7804485
57.658	2354.885	31.23969	-41.96155	0.7871804
57.71211	2352.548	31.12131	-41.91275	0.7920325
57.76621	2350.208	30.96966	-41.86352	0.7952175
57.82032	2347.872	30.78745	-41.81398	0.7969776
57.87442	2345.546	30.58205	-41.76427	0.7975833
57.92853	2343.232	30.36362	-41.71448	0.7973333
57.98264	2340.931	30.14085	-41.66472	0.7965399
58.03674	2338.644	29.92268	-41.61509	0.7955055
58.09085	2336.369	29.71607	-41.56565	0.794502
58.14495	2334.108	29.52316	-41.51646	0.7937285
58.19906	2331.859	29.34374	-41.46758	0.7933158
58.25317	2329.62	29.17741	-41.41903	0.7933069
58.30727	2327.391	29.02464	-41.37081	0.7936658
58.36138	2325.173	28.88658	-41.32288	0.794268
58.41549	2322.968	28.76381	-41.27521	0.7949393
58.46959	2320.778	28.65546	-41.2277	0.7954566
58.5237	2318.6	28.55838	-41.18026	0.7955638
58.5778	2316.432	28.46875	-41.13282	0.7949864
58.63191	2314.269	28.38582	-41.08527	0.7934176
58.68601	2312.111	28.31273	-41.03752	0.7905415
58.74012	2309.957	28.25359	-40.98952	0.7860528
58.79422	2307.806	28.21045	-40.94122	0.77969
58.84833	2305.658	28.1834	-40.89256	0.7712564
58.90244	2303.515	28.17291	-40.8435	0.7606372
58.95654	2301.377	28.18241	-40.79401	0.7477809
59.01065	2299.243	28.21289	-40.74403	0.7327175
59.06475	2297.11	28.26237	-40.69355	0.7155386
59.11886	2294.973	28.32764	-40.64255	0.6963955
59.17297	2292.827	28.40495	-40.59101	0.6754968
59.22707	2290.669	28.49177	-40.53895	0.6530904
59.28118	2288.498	28.58614	-40.48639	0.6294792
59.33528	2286.316	28.68514	-40.43334	0.6050099
59.38939	2284.126	28.78168	-40.3798	0.5800625
59.44349	2281.934	28.86649	-40.32576	0.5550451
59.4976	2279.744	28.93179	-40.27121	0.5303674
59.5517	2277.555	28.9736	-40.2161	0.5064393
59.60581	2275.368	28.99259	-40.16043	0.4836503
59.65992	2273.177	28.99077	-40.10419	0.4623739
59.71402	2270.981	28.96967	-40.04738	0.4429548
59.76813	2268.775	28.93203	-39.99	0.4257225
59.82224	2266.562	28.8828	-39.93205	0.4109799
59.87634	2264.344	28.82745	-39.87354	0.3990205
59.93045	2262.124	28.76991	-39.81445	0.3901107
59.98455	2259.904	28.71371	-39.75478	0.3844833
60.03866	2257.691	28.66192	-39.69448	0.3823246
60.09276	2255.489	28.6175	-39.63354	0.3837512
60.14687	2253.3	28.58191	-39.57189	0.3888198
60.20097	2251.125	28.55956	-39.50949	0.3974981
60.25508	2248.962	28.55149	-39.44627	0.4096823
60.30919	2246.807	28.55587	-39.38212	0.4251837
60.36329	2244.659	28.56861	-39.31696	0.4437574
60.4174	2242.514	28.58609	-39.25069	0.4650888
60.4715	2240.369	28.60315	-39.18319	0.4888144
60.52561	2238.223	28.61488	-39.11438	0.5145167
60.57972	2236.076	28.61714	-39.04416	0.5417326
60.63382	2233.931	28.61186	-38.97245	0.5699664
60.68793	2231.79	28.60276	-38.89917	0.5987038
60.74203	2229.649	28.59438	-38.82424	0.6274356
60.79614	2227.512	28.58841	-38.74759	0.6556794
60.85024	2225.378	28.58842	-38.66916	0.6829844
60.90435	2223.252	28.60019	-38.58886	0.7089401
60.95845	2221.137	28.62647	-38.50664	0.7331843
61.01256	2219.033	28.66321	-38.42246	0.7553955
61.06667	2216.94	28.7026	-38.33628	0.7752867
61.12077	2214.858	28.73613	-38.24808	0.7926211
61.17488	2212.789	28.7576	-38.15787	0.8072114
61.22898	2210.728	28.76266	-38.06564	0.8189448
61.28309	2208.672	28.75079	-37.97139	0.8277711
61.3372	2206.617	28.72169	-37.87507	0.8337066
61.3913	2204.559	28.67387	-37.77665	0.8368126
61.44541	2202.501	28.60533	-37.67605	0.8371958
61.49952	2200.448	28.51537	-37.57318	0.8350036
61.55362	2198.402	28.40374	-37.46793	0.8304144
61.60773	2196.368	28.27108	-37.36019	0.8236285
61.66183	2194.349	28.12059	-37.24981	0.8148533
61.71594	2192.344	27.95763	-37.1367	0.8043292
61.77004	2190.352	27.7884	-37.02069	0.7923171
61.82415	2188.367	27.6153	-36.90167	0.7790965
61.87825	2186.389	27.44065	-36.77946	0.7649338
61.93236	2184.416	27.26803	-36.65391	0.7500565
61.98647	2182.45	27.1008	-36.52483	0.7346373
62.04057	2180.493	26.94096	-36.39205	0.7187989
62.09468	2178.547	26.78914	-36.25539	0.7026306
62.14878	2176.608	26.6465	-36.11469	0.6861821
62.20289	2174.671	26.5124	-35.96974	0.6694863
62.257	2172.734	26.38471	-35.82039	0.65255
62.3111	2170.798	26.26004	-35.66645	0.6353698
62.36521	2168.865	26.13778	-35.50776	0.6179375
62.41931	2166.942	26.01848	-35.34417	0.6002283
62.47342	2165.03	25.9047	-35.17552	0.5822157
62.52752	2163.131	25.79862	-35.00167	0.5638595
62.58163	2161.242	25.70376	-34.82248	0.5451208
62.63573	2159.36	25.62069	-34.63778	0.5259853
62.68984	2157.479	25.55098	-34.4474	0.5064527
62.74395	2155.596	25.49649	-34.25114	0.4865613
62.79805	2153.708	25.46309	-34.04878	0.4663734
62.85216	2151.818	25.45597	-33.84008	0.4459849
62.90627	2149.926	25.47774	-33.62477	0.4254867
62.96037	2148.031	25.53069	-33.40261	0.4050057
63.01448	2146.133	25.61178	-33.1733	0.3846892
63.06858	2144.232	25.71549	-32.93653	0.3647516
63.12269	2142.333	25.83714	-32.69198	0.3454676
63.17679	2140.44	25.97104	-32.43929	0.3272017
63.2309	2138.561	26.11022	-32.17805	0.3104077
63.285	2136.698	26.24829	-31.90786	0.2956252
63.33911	2134.851	26.3796	-31.62827	0.2834525
63.39322	2133.021	26.50116	-31.33876	0.2744755
63.44732	2131.208	26.61268	-31.03882	0.2691894
63.50143	2129.409	26.71265	-30.72783	0.2678802
63.55553	2127.624	26.79824	-30.40516	0.2705557
63.60964	2125.851	26.87204	-30.0701	0.2769254
63.66375	2124.09	26.93986	-29.72189	0.2864789
63.71785	2122.342	27.00562	-29.35976	0.298566
63.77196	2120.61	27.06924	-28.98288	0.312489
63.82606	2118.897	27.12789	-28.5904	0.3275843
63.88017	2117.207	27.17742	-28.18143	0.3432532
63.93428	2115.544	27.21317	-27.75509	0.3590182
63.98838	2113.918	27.23116	-27.31048	0.3744977
64.04249	2112.333	27.23121	-26.8467	0.389408
64.0966	2110.795	27.21556	-26.36286	0.4035553
64.1507	2109.301	27.18783	-25.85807	0.4168826
64.2048	2107.844	27.15097	-25.33146	0.429378
64.25891	2106.414	27.10597	-24.78219	0.4411097
64.31302	2105.004	27.05264	-24.20941	0.4521753
64.36712	2103.61	26.99157	-23.61234	0.4627132
64.42123	2102.229	26.92549	-22.99024	0.4729259
64.47533	2100.864	26.86049	-22.34242	0.482969
64.52944	2099.515	26.80324	-21.6682	0.4930124
64.58354	2098.183	26.75765	-20.96697	0.5031937
64.63765	2096.868	26.72379	-20.23812	0.5136544
64.69176	2095.572	26.69949	-19.48108	0.5244573
64.74586	2094.297	26.68318	-18.69529	0.5356752
64.79996	2093.05	26.67449	-17.88021	0.5473631
64.85407	2091.838	26.6719	-17.03531	0.5595491
64.90818	2090.664	26.67546	-16.16007	0.5723074
64.96229	2089.53	26.68645	-15.25403	0.5856839
65.01639	2088.439	26.70499	-14.31665	0.5997883
65.0705	2087.388	26.7311	-13.34743	0.6147282
65.1246	2086.375	26.76374	-12.3458	0.630679
65.17871	2085.399	26.79967	-11.31123	0.6478286
65.23281	2084.459	26.83525	-10.2431	0.6663553
65.28692	2083.556	26.86579	-9.140788	0.6864874
65.34103	2082.692	26.88718	-8.003632	0.7084181
65.39513	2081.872	26.89757	-6.830934	0.7323908
65.44923	2081.105	26.89628	-5.621885	0.7585136
65.50334	2080.396	26.882	-4.375658	0.786926
65.55745	2079.755	26.85206	-3.091308	0.8176996
65.61156	2079.187	26.8061	-1.767901	0.8508803
65.66566	2078.696	26.74716	-0.4043251	0.886472
65.71976	2078.286	26.68258	1.000445	0.9244026
65.77387	2077.956	26.61888	2.447553	0.9646237
65.82798	2077.704	26.56342	3.938117	1.007043
65.88208	2077.529	26.52129	5.473408	1.051633
65.93619	2077.434	26.49376	7.054611	1.098268
65.9903	2077.427	26.48131	8.682979	1.14695
66.0444	2077.515	26.4824	10.35976	1.197602
66.0985	2077.708	26.49661	12.08624	1.250273
66.15261	2078.01	26.52281	13.86372	1.305026
66.20672	2078.423	26.55991	15.69341	1.361985
66.26083	2078.944	26.60776	17.57658	1.421253
66.31493	2079.574	26.66313	19.51448	1.483047
66.36903	2080.311	26.72093	21.50829	1.547592
66.42314	2081.157	26.78058	23.55912	1.615164
66.47725	2082.114	26.8431	25.66808	1.685982
66.53135	2083.184	26.91277	27.83629	1.760348
66.58546	2084.368	26.99747	30.0647	1.838556
66.63956	2085.666	27.10632	32.35438	1.9209
66.69367	2087.077	27.24397	34.70625	2.007631
66.74778	2088.605	27.41128	37.12135	2.099064
66.80188	2090.25	27.60415	39.60063	2.195463
66.85599	2092.009	27.81676	42.145	2.297019
66.9101	2093.883	28.04259	44.75541	2.403877
66.9642	2095.871	28.27515	47.43279	2.516106
67.0183	2097.98	28.50818	50.17805	2.633676
67.07241	2100.215	28.73689	52.99208	2.756446
67.12652	2102.584	28.95664	55.87576	2.884194
67.18063	2105.09	29.16628	58.83008	3.016617
67.23473	2107.737	29.36354	61.85591	3.153335
67.28883	2110.525	29.54677	64.95419	3.293876
67.34294	2113.458	29.71599	68.12575	3.437696
67.39705	2116.537	29.87408	71.37154	3.584216
67.45115	2119.766	30.02727	74.69244	3.732791
67.50526	2123.148	30.18338	78.08936	3.882765
67.55936	2126.691	30.34519	81.56314	4.033446
67.61347	2130.405	30.50829	85.11464	4.184169
67.66757	2134.301	30.66692	88.74474	4.33431
67.72168	2138.389	30.81674	92.45424	4.483286
67.77579	2142.68	30.95586	96.24385	4.630555
67.8299	2147.183	31.08689	100.1143	4.775659
67.884	2151.905	31.21099	104.0663	4.918192
67.9381	2156.855	31.32815	108.1006	5.057805
67.99221	2162.043	31.43761	112.2174	5.194201
68.04632	2167.476	31.53986	116.4173	5.327151
68.10042	2173.161	31.63673	120.7007	5.456492
68.15453	2179.1	31.73027	125.0676	5.582109
68.20863	2185.292	31.82531	129.5181	5.703964
68.26274	2191.734	31.92995	134.0521	5.822062
68.31684	2198.422	32.05371	138.6693	5.93645
68.37095	2205.357	32.2034	143.3694	6.047227
68.42506	2212.54	32.38339	148.1516	6.154546
68.47916	2219.973	32.59351	153.015	6.258611
68.53326	2227.656	32.83224	157.9589	6.359674
68.58737	2235.591	33.09914	162.9819	6.458016
68.64148	2243.782	33.39767	168.0828	6.553977
68.69559	2252.242	33.72745	173.2601	6.647901
68.74969	2260.983	34.08258	178.5124	6.740206
68.80379	2270.015	34.45522	183.8381	6.831261
68.8579	2279.346	34.83884	189.2355	6.921479
68.91201	2288.982	35.23132	194.7028	7.011246
68.96611	2298.927	35.63516	200.2382	7.100881
69.02022	2309.185	36.05146	205.8399	7.190693
69.07433	2319.754	36.48132	211.5059	7.280915
69.12843	2330.639	36.92813	217.2341	7.37172
69.18253	2341.848	37.39703	223.0228	7.463215
69.23664	2353.393	37.89434	228.8695	7.555446
69.29075	2365.286	38.42207	234.772	7.648371
69.34486	2377.539	38.97448	240.728	7.741866
69.39896	2390.163	39.53931	246.7346	7.835734
69.45306	2403.17	40.10491	252.7893	7.929713
69.50717	2416.567	40.66453	258.8888	8.023463
69.56128	2430.362	41.20861	265.0298	8.116589
69.61539	2444.562	41.72918	271.2088	8.208648
69.66949	2459.171	42.21717	277.4218	8.29915
69.72359	2474.19	42.66607	283.6644	8.387562
69.7777	2489.617	43.07341	289.9318	8.473363
69.83181	2505.443	43.44457	296.2189	8.555969
69.88591	2521.661	43.78672	302.5202	8.634778
69.94002	2538.266	44.10447	308.8294	8.709166
69.99413	2555.256	44.40303	315.14	8.778454
70.04823	2572.635	44.69046	321.4447	8.842004
70.10233	2590.407	44.97784	327.7358	8.899179
70.15644	2608.574	45.27333	334.0049	8.949435
70.21055	2627.135	45.58082	340.243	8.992267
70.26466	2646.09	45.90042	346.4403	9.027198
70.31876	2665.44	46.23011	352.5867	9.053844
70.37286	2685.187	46.56678	358.6711	9.071919
70.42697	2705.327	46.90709	364.682	9.081157
70.48108	2725.855	47.24593	370.6073	9.081416
70.53518	2746.757	47.58023	376.4342	9.072564
70.58929	2768.023	47.91207	382.1497	9.054568
70.64339	2789.643	48.25071	387.7404	9.027464
70.6975	2811.608	48.61036	393.1925	8.991366
70.7516	2833.91	49.0045	398.4921	8.946424
70.80571	2856.545	49.44231	403.6252	8.892849
70.85982	2879.51	49.92986	408.5779	8.831007
70.91393	2902.81	50.47438	413.3365	8.76132
70.96803	2926.447	51.08092	417.8873	8.684066
71.02213	2950.427	51.74509	422.2168	8.599622
71.07624	2974.75	52.4547	426.3124	8.508612
71.13035	2999.425	53.19145	430.1619	8.411502
71.18445	3024.462	53.94239	433.7533	8.308767
71.23856	3049.867	54.70309	437.0756	8.200931
71.29266	3075.644	55.471	440.1187	8.088785
71.34677	3101.789	56.2422	442.8732	7.973049
71.40087	3128.298	57.0118	445.3304	7.854233
71.45498	3155.161	57.77286	447.4826	7.73301
71.50909	3182.373	58.51503	449.3234	7.610313
71.56319	3209.928	59.23151	450.8471	7.486938
71.61729	3237.822	59.92194	452.0487	7.363328
71.6714	3266.044	60.58957	452.9245	7.240118
71.72551	3294.58	61.23429	453.4718	7.118257
71.77962	3323.409	61.85781	453.6888	6.99839
71.83372	3352.505	62.46475	453.5744	6.880692
71.88783	3381.841	63.05901	453.1284	6.765586
71.94193	3411.385	63.64005	452.3522	6.653827
71.99604	3441.105	64.20615	451.2475	6.545904
72.05014	3470.961	64.75166	449.8166	6.441747
72.10425	3500.908	65.26992	448.063	6.341712
72.15836	3530.893	65.7571	445.991	6.246571
72.21246	3560.853	66.21034	443.6057	6.156697
72.26657	3590.73	66.62411	440.9121	6.072046
72.32067	3620.466	66.99329	437.9164	5.992969
72.37478	3650.006	67.31166	434.6252	5.920239
72.42889	3679.289	67.57234	431.0459	5.854247
72.48299	3708.256	67.76961	427.1853	5.794862
72.53709	3736.847	67.90462	423.0515	5.7424
72.5912	3764.998	67.98308	418.6529	5.697507
72.64531	3792.644	68.01717	413.998	5.660374
72.69942	3819.729	68.01798	409.0952	5.630655
72.75352	3846.203	67.99644	403.954	5.6085
72.80762	3872.017	67.95753	398.5836	5.593601
72.86173	3897.129	67.90765	392.9941	5.586147
72.91584	3921.502	67.85284	387.1952	5.585319
72.96994	3945.112	67.79653	381.1972	5.590845
73.02405	3967.934	67.73534	375.0107	5.602101
73.07816	3989.958	67.66077	368.6469	5.618753
73.13226	4011.178	67.56303	362.117	5.640215
73.18636	4031.599	67.43373	355.4325	5.665647
73.24047	4051.234	67.26858	348.6054	5.694443
73.29458	4070.096	67.06557	341.6482	5.726073
73.34869	4088.199	66.82642	334.5735	5.759786
73.40279	4105.553	66.55723	327.3944	5.794751
73.45689	4122.162	66.26186	320.1244	5.830228
73.511	4138.038	65.94005	312.7772	5.865443
73.56511	4153.195	65.59586	305.3668	5.899553
73.61921	4167.656	65.24142	297.9074	5.931716
73.67332	4181.442	64.89317	290.4133	5.961106
73.72742	4194.579	64.5649	282.8989	5.986906
73.78153	4207.093	64.26221	275.3785	6.008266
73.83563	4219.02	63.98262	267.8665	6.024551
73.88974	4230.398	63.71818	260.3771	6.035096
73.94385	4241.264	63.46154	252.9244	6.039166
73.99796	4251.656	63.20428	245.5219	6.036198
74.05206	4261.606	62.93594	238.1833	6.025737
74.10616	4271.14	62.64779	230.9218	6.007331
74.16027	4280.278	62.33637	223.7498	5.980502
74.21438	4289.035	61.99871	216.6794	5.944932
74.26848	4297.424	61.63646	209.7223	5.90047
74.32259	4305.458	61.25686	202.8895	5.846983
74.37669	4313.15	60.86685	196.1912	5.784305
74.4308	4320.519	60.473	189.6369	5.712429
74.4849	4327.586	60.08718	183.2354	5.631585
74.53901	4334.38	59.72663	176.9947	5.541946
74.59312	4340.922	59.40599	170.9216	5.443647
74.64722	4347.232	59.1353	165.0222	5.336956
74.70132	4353.339	58.91961	159.3019	5.222317
74.75543	4359.27	58.76313	153.7646	5.100131
74.80954	4365.042	58.66424	148.4136	4.970757
74.86365	4370.669	58.61315	143.2509	4.834723
74.91776	4376.155	58.5997	138.278	4.692668
74.97186	4381.503	58.6101	133.495	4.545211
75.02596	4386.718	58.62892	128.9013	4.392914
75.08007	4391.802	58.63958	124.4953	4.236516
75.13418	4396.757	58.62685	120.2748	4.076826
75.18828	4401.586	58.58391	116.2369	3.91463
75.24239	4406.292	58.51312	112.3777	3.750688
75.29649	4410.887	58.42626	108.693	3.585855
75.3506	4415.383	58.34169	105.1782	3.421041
75.4047	4419.793	58.27836	101.8281	3.256985
75.45881	4424.124	58.2472	98.63737	3.094482
75.51292	4428.382	58.2513	95.60001	2.934145
75.56702	4432.57	58.28694	92.7102	2.77668
75.62112	4436.688	58.34893	89.96169	2.622592
75.67523	4440.732	58.4336	87.34822	2.472389
75.72934	4444.695	58.53687	84.86327	2.326465
75.78345	4448.572	58.65275	82.50037	2.185188
75.83755	4452.355	58.76949	80.25309	2.048901
75.89165	4456.04	58.87339	78.11496	1.917854
75.94576	4459.63	58.95451	76.07951	1.792221
75.99987	4463.132	59.00468	74.1404	1.672135
76.05397	4466.55	59.0219	72.29153	1.557696
76.10808	4469.892	59.01168	70.52691	1.448892
76.16219	4473.165	58.98664	68.84069	1.345569
76.21629	4476.372	58.95729	67.22733	1.247492
76.27039	4479.513	58.93195	65.68156	1.154341
76.3245	4482.588	58.91262	64.19833	1.065672
76.37861	4485.598	58.90023	62.7729	0.9809217
76.43272	4488.542	58.89764	61.40075	0.8994728
76.48682	4491.42	58.90952	60.07778	0.8206862
76.54092	4494.233	58.93567	58.80011	0.7439755
76.59503	4496.988	58.96803	57.56419	0.6689504
76.64914	4499.691	58.9953	56.36682	0.5956779
76.70324	4502.347	59.01647	55.20516	0.5251569
76.75735	4504.961	59.03557	54.07665	0.4600885
76.81145	4507.538	59.05333	52.97901	0.4061866
76.86556	4510.081	59.06792	51.91022	0.3734434
76.91966	4512.594	59.07556	50.86851	0.3743445
76.97377	4515.085	59.0744	49.85227	0.4163494
77.02788	4517.557	59.0653	48.86007	0.4966899
77.08199	4520.013	59.04776	47.89064	0.6074247
77.13609	4522.453	59.01587	46.94287	0.7415585
77.19019	4524.87	58.9603	46.01581	0.8944598
77.2443	4527.259	58.87338	45.10862	1.063199
77.29841	4529.618	58.75439	44.22066	1.24579
77.35251	4531.943	58.61356	43.35141	1.440708
77.40662	4534.235	58.46917	42.5005	1.646639
77.46072	4536.494	58.33837	41.66764	1.862321
77.51483	4538.721	58.23258	40.85262	2.086478
77.56893	4540.914	58.15707	40.05531	2.317803
77.62304	4543.068	58.11522	39.27566	2.554932
77.67715	4545.177	58.1111	38.51364	2.796484
77.73125	4547.245	58.14705	37.76926	3.041034
77.78536	4549.272	58.21761	37.04259	3.287145
77.83946	4551.263	58.31188	36.33367	3.533379
77.89357	4553.222	58.41889	35.64259	3.778319
77.94768	4555.153	58.52734	34.96947	4.020574
78.00179	4557.049	58.625	34.31449	4.258777
78.05589	4558.905	58.70404	33.67786	4.491627
78.10999	4560.714	58.76178	33.05986	4.717919
78.1641	4562.471	58.8004	32.4608	4.936548
78.21821	4564.171	58.82128	31.88103	5.146508
78.27231	4565.807	58.82732	31.32092	5.346968
78.32642	4567.371	58.82063	30.78085	5.537217
78.38052	4568.861	58.79799	30.26115	5.71672
78.43463	4570.273	58.75621	29.76219	5.88498
78.48873	4571.606	58.69439	29.2843	6.041634
78.54284	4572.867	58.60911	28.82787	6.186395
78.59695	4574.074	58.49196	28.39325	6.31913
78.65105	4575.25	58.33353	27.98084	6.439784
78.70515	4576.417	58.12854	27.5911	6.548363
78.75926	4577.583	57.87114	27.22452	6.64501
78.81337	4578.752	57.55059	26.88157	6.73002
78.86748	4579.916	57.15507	26.56275	6.803735
78.92158	4581.066	56.67825	26.26858	6.86651
78.97569	4582.191	56.12582	25.99954	6.918837
79.02979	4583.287	55.51418	25.75608	6.961325
79.0839	4584.346	54.8632	25.53863	6.994591
79.138	4585.363	54.1927	25.34762	7.019227
79.19211	4586.339	53.51892	25.18341	7.035885
79.24622	4587.282	52.84831	25.04627	7.045267
79.30032	4588.199	52.18435	24.93645	7.047983
79.35442	4589.101	51.53233	24.85417	7.044546
79.40853	4589.998	50.90445	24.79952	7.035475
79.46264	4590.896	50.31963	24.77247	7.021302
79.51675	4591.809	49.79844	24.77291	7.002463
79.57085	4592.744	49.3579	24.80067	6.979274
79.62495	4593.706	49.01176	24.85546	6.95203
79.67906	4594.692	48.76999	24.93685	6.920988
79.73317	4595.697	48.63699	25.0444	6.886274
79.78727	4596.716	48.61046	25.17766	6.847909
79.84138	4597.747	48.68413	25.33603	6.805942
79.89548	4598.792	48.84494	25.51888	6.760472
79.94959	4599.846	49.07486	25.72552	6.711569
80.00369	4600.902	49.35151	25.95526	6.659249
80.0578	4601.956	49.65968	26.20735	6.603574
80.11191	4603.008	49.98843	26.48098	6.544619
80.16602	4604.064	50.32939	26.77533	6.482398
80.22012	4605.137	50.67734	27.08958	6.416889
80.27422	4606.233	51.03304	27.42283	6.348114
80.32833	4607.369	51.39737	27.77411	6.276105
80.38244	4608.551	51.77077	28.14241	6.200835
80.43655	4609.79	52.15466	28.52666	6.122218
80.49065	4611.088	52.54415	28.92572	6.040154
80.54475	4612.452	52.92869	29.33834	5.954535
80.59886	4613.879	53.29958	29.76328	5.865241
80.65297	4615.375	53.65413	30.19923	5.772151
80.70707	4616.938	53.99205	30.64484	5.675178
80.76118	4618.574	54.30931	31.09875	5.574254
80.81528	4620.286	54.59665	31.55954	5.46932
80.86939	4622.076	54.84353	32.02578	5.360332
80.92349	4623.94	55.04317	32.49603	5.247275
80.9776	4625.875	55.19464	32.96883	5.130182
81.03171	4627.869	55.3013	33.4427	5.009112
81.08582	4629.914	55.37215	33.91611	4.884172
81.13992	4631.995	55.42078	34.38749	4.755455
81.19402	4634.107	55.46403	34.8552	4.623032
81.24813	4636.247	55.52065	35.31762	4.486908
81.30224	4638.422	55.60196	35.77304	4.347089
81.35634	4640.636	55.70728	36.21975	4.203567
81.41045	4642.888	55.82772	36.65602	4.056368
81.46455	4645.174	55.95339	37.08011	3.905553
81.51866	4647.491	56.07575	37.49028	3.751254
81.57276	4649.84	56.18724	37.8847	3.593675
81.62687	4652.21	56.28516	38.2616	3.4331
81.68098	4654.592	56.36747	38.61919	3.269886
81.73508	4656.976	56.43405	38.95574	3.104524
81.78918	4659.356	56.48901	39.26945	2.937653
81.84329	4661.733	56.54186	39.5586	2.770046
81.8974	4664.105	56.60539	39.82151	2.602624
81.95151	4666.467	56.6875	40.05655	2.436488
82.00561	4668.822	56.78775	40.26212	2.272898
82.05972	4671.178	56.90702	40.43681	2.113276
82.11382	4673.547	57.04718	40.57925	1.959204
82.16793	4675.937	57.20624	40.68823	1.812496
82.22203	4678.36	57.37945	40.76257	1.675276
82.27614	4680.829	57.55728	40.8012	1.549993
82.33025	4683.347	57.73156	40.80315	1.439408
82.38435	4685.908	57.89618	40.76748	1.346549
82.43845	4688.505	58.04483	40.69331	1.274449
82.49256	4691.125	58.17702	40.57984	1.225659
82.54667	4693.763	58.29169	40.42646	1.201647
82.60078	4696.41	58.38984	40.23263	1.202375
82.65488	4699.061	58.47294	39.9979	1.226197
82.70898	4701.703	58.5462	39.72197	1.270122
82.76309	4704.337	58.613	39.4047	1.330409
82.8172	4706.954	58.68015	39.046	1.403287
82.8713	4709.554	58.75387	38.64582	1.485396
82.92541	4712.131	58.83458	38.20424	1.573885
82.97952	4714.682	58.91385	37.72139	1.666468
83.03362	4717.199	58.9792	37.1974	1.76145
83.08772	4719.684	59.01558	36.6324	1.857661
83.14183	4722.131	59.01266	36.02655	1.954264
83.19594	4724.546	58.96288	35.38011	2.050692
83.25005	4726.923	58.86375	34.69329	2.14664
83.30415	4729.264	58.71827	33.96635	2.242005
83.35825	4731.559	58.53223	33.19961	2.33675
83.41236	4733.806	58.30761	32.39346	2.430886
83.46647	4735.999	58.04333	31.54831	2.524495
83.52058	4738.142	57.73985	30.6646	2.617704
83.57468	4740.228	57.40544	29.74281	2.710577
83.62878	4742.256	57.05014	28.78352	2.80311
83.68289	4744.216	56.68605	27.78732	2.895257
83.737	4746.108	56.32022	26.75481	2.986948
83.7911	4747.932	55.95833	25.68669	3.077979
83.84521	4749.691	55.60313	24.58363	3.168113
83.89931	4751.381	55.25504	23.44643	3.256995
83.95342	4753.007	54.90888	22.27586	3.344317
84.00752	4754.565	54.56689	21.07285	3.429685
84.06163	4756.05	54.2386	19.83836	3.512725
84.11574	4757.441	53.92867	18.57346	3.593043
84.16985	4758.723	53.63713	17.27928	3.670297
84.22395	4759.891	53.36257	15.957	3.744205
84.27805	4760.953	53.10455	14.60788	3.8145
84.33216	4761.91	52.86488	13.23321	3.880937
84.38627	4762.766	52.63973	11.83435	3.943303
84.44037	4763.516	52.43007	10.41268	4.00141
84.49448	4764.169	52.23439	8.969687	4.055074
84.54858	4764.729	52.05159	7.506917	4.104121
84.60269	4765.2	51.87742	6.025992	4.14843
84.65679	4765.581	51.70388	4.528586	4.187944
84.7109	4765.874	51.51721	3.016458	4.222649
84.76501	4766.073	51.30521	1.491405	4.252574
84.81911	4766.177	51.06033	-0.04475695	4.277794
84.87321	4766.179	50.78421	-1.590211	4.298414
84.92732	4766.075	50.48461	-3.143113	4.314581
84.98143	4765.855	50.1693	-4.70161	4.326486
85.03554	4765.521	49.84243	-6.263855	4.334342
85.08964	4765.072	49.51313	-7.828014	4.338388
85.14375	4764.516	49.19033	-9.392277	4.33888
85.19785	4763.86	48.87513	-10.95487	4.336083
85.25196	4763.117	48.56919	-12.51408	4.330267
85.30606	4762.283	48.27697	-14.06827	4.321705
85.36017	4761.356	47.99807	-15.61586	4.310689
85.41428	4760.331	47.73232	-17.15535	4.297522
85.46838	4759.206	47.4757	-18.68527	4.282502
85.52248	4757.977	47.22374	-20.20417	4.26592
85.57659	4756.646	46.97298	-21.71067	4.248048
85.6307	4755.212	46.72282	-23.20344	4.229148
85.68481	4753.673	46.47577	-24.68121	4.209454
85.73891	4752.029	46.23668	-26.14279	4.189151
85.79301	4750.278	46.01713	-27.5871	4.168366
85.84712	4748.415	45.82299	-29.01317	4.147164
85.90123	4746.438	45.65398	-30.42017	4.12554
85.95534	4744.356	45.50592	-31.80733	4.103429
86.00944	4742.18	45.38147	-33.17403	4.080727
86.06355	4739.919	45.28067	-34.51976	4.057325
86.11765	4737.583	45.19549	-35.8441	4.033121
86.17176	4735.185	45.11694	-37.14671	4.008026
86.22586	4732.734	45.03417	-38.42731	3.981989
86.27997	4730.242	44.93624	-39.68575	3.955001
86.33408	4727.705	44.81805	-40.9219	3.92708
86.38818	4725.116	44.67473	-42.13567	3.898273
86.44228	4722.459	44.50137	-43.32705	3.868667
86.49639	4719.729	44.29636	-44.49605	3.83839
86.5505	4716.919	44.06851	-45.64269	3.807579
86.60461	4714.039	43.8273	-46.76699	3.776426
86.65871	4711.093	43.58267	-47.86897	3.745162
86.71281	4708.093	43.34052	-48.94866	3.714039
86.76692	4705.042	43.10697	-50.0061	3.683335
86.82103	4701.949	42.88065	-51.04132	3.653342
86.87513	4698.813	42.66319	-52.05437	3.624401
86.92924	4695.637	42.45535	-53.04526	3.596871
86.98335	4692.415	42.25648	-54.01399	3.571125
87.03745	4689.142	42.06414	-54.9606	3.547533
87.09155	4685.813	41.88123	-55.88513	3.52644
87.14566	4682.434	41.70087	-56.78765	3.508155
87.19977	4679.014	41.51653	-57.66829	3.492951
87.25388	4675.569	41.32011	-58.5272	3.481046
87.30798	4672.106	41.10498	-59.36453	3.472617
87.36208	4668.634	40.87014	-60.18044	3.467814
87.41619	4665.153	40.62217	-60.97512	3.466774
87.4703	4661.668	40.36341	-61.7487	3.469613
87.5244	4658.173	40.10073	-62.50135	3.4764
87.57851	4654.667	39.84097	-63.23325	3.48719
87.63261	4651.14	39.59122	-63.94466	3.502013
87.68672	4647.595	39.3541	-64.63585	3.520871
87.74082	4644.028	39.13493	-65.30717	3.543705
87.79493	4640.443	38.93601	-65.95903	3.570394
87.84904	4636.835	38.75447	-66.5919	3.600758
87.90314	4633.209	38.57909	-67.20626	3.634551
87.95724	4629.563	38.40471	-67.80267	3.671442
88.01135	4625.903	38.23046	-68.38176	3.711062
88.06546	4622.227	38.05395	-68.94421	3.752989
88.11957	4618.534	37.87863	-69.49075	3.796743
88.17367	4614.817	37.70988	-70.02212	3.841816
88.22778	4611.076	37.55238	-70.53914	3.887704
88.28188	4607.306	37.41633	-71.04263	3.933887
88.33599	4603.504	37.31107	-71.53344	3.979831
88.39009	4599.651	37.24221	-72.01239	4.025033
88.4442	4595.735	37.20483	-72.48026	4.069036
88.49831	4591.742	37.18856	-72.93779	4.11143
88.55241	4587.67	37.17614	-73.38568	4.151859
88.60652	4583.514	37.15634	-73.82454	4.19004
88.66062	4579.279	37.11833	-74.25489	4.225742
88.71473	4574.969	37.05087	-74.67722	4.258806
88.76884	4570.601	36.93931	-75.09193	4.289083
88.82294	4566.189	36.77155	-75.49932	4.316478
88.87704	4561.761	36.54767	-75.89962	4.340928
88.93115	4557.328	36.27573	-76.29298	4.362405
88.98526	4552.903	35.96532	-76.67948	4.38088
89.03937	4548.489	35.63391	-77.05916	4.396352
89.09347	4544.091	35.29926	-77.43202	4.408844
89.14758	4539.707	34.97581	-77.79804	4.418403
89.20168	4535.337	34.67385	-78.15711	4.425096
89.25579	4530.972	34.39551	-78.5091	4.428982
89.30989	4526.608	34.13591	-78.85384	4.430157
89.364	4522.238	33.88873	-79.19106	4.42871
89.41811	4517.863	33.63718	-79.52054	4.424768
89.47221	4513.484	33.36598	-79.84196	4.418465
89.52631	4509.101	33.06621	-80.15505	4.409996
89.58042	4504.714	32.73343	-80.45952	4.399578
89.63453	4500.329	32.36517	-80.75511	4.387486
89.68864	4495.952	31.96923	-81.04163	4.373995
89.74274	4491.586	31.55786	-81.31889	4.359397
89.79684	4487.228	31.14882	-81.58677	4.343962
89.85095	4482.873	30.75841	-81.84517	4.327961
89.90506	4478.512	30.39885	-82.09402	4.311644
89.95916	4474.139	30.0777	-82.33325	4.29521
90.01327	4469.748	29.79448	-82.5629	4.278833
90.06738	4465.33	29.54405	-82.78304	4.262605
90.12148	4460.875	29.31244	-82.99386	4.24655
90.17558	4456.377	29.07779	-83.19555	4.230602
90.22969	4451.834	28.81609	-83.38841	4.214605
90.2838	4447.248	28.50902	-83.57283	4.198339
90.33791	4442.624	28.15146	-83.74927	4.181538
90.39201	4437.962	27.75275	-83.91823	4.163925
90.44611	4433.27	27.32796	-84.08032	4.145216
90.50022	4428.548	26.89019	-84.23621	4.125135
90.55433	4423.806	26.45244	-84.3866	4.103461
90.60843	4419.052	26.03937	-84.53226	4.079988
90.66254	4414.299	25.67055	-84.67394	4.054552
90.71664	4409.55	25.36122	-84.81243	4.027002
90.77075	4404.812	25.12048	-84.94845	3.997216
90.82485	4400.08	24.95003	-85.08267	3.965104
90.87896	4395.359	24.84169	-85.2157	3.930609
90.93307	4390.644	24.77728	-85.34803	3.893723
90.98717	4385.938	24.73424	-85.48009	3.854455
91.04128	4381.233	24.69457	-85.61224	3.812833
91.09538	4376.535	24.64263	-85.74478	3.768914
91.14949	4371.839	24.5679	-85.87798	3.722741
91.2036	4367.152	24.46925	-86.01197	3.674399
91.2577	4362.469	24.36038	-86.14689	3.623965
91.31181	4357.793	24.25818	-86.28281	3.571507
91.36591	4353.118	24.17734	-86.41978	3.517088
91.42002	4348.449	24.12602	-86.55786	3.460789
91.47413	4343.783	24.10811	-86.69714	3.402717
91.52823	4339.123	24.11897	-86.83771	3.343055
91.58234	4334.458	24.15012	-86.9796	3.282012
91.63644	4329.793	24.19074	-87.12282	3.219846
91.69055	4325.127	24.22877	-87.26736	3.156842
91.74465	4320.465	24.24396	-87.4132	3.093313
91.79876	4315.801	24.22194	-87.56027	3.029569
91.85287	4311.133	24.15302	-87.7085	2.965937
91.90697	4306.458	24.0328	-87.8578	2.902747
91.96107	4301.776	23.85907	-88.00808	2.840318
92.01518	4297.086	23.63961	-88.15923	2.778958
92.06929	4292.396	23.3835	-88.31114	2.718964
92.1234	4287.702	23.10467	-88.46372	2.660644
92.1775	4283.006	22.8191	-88.61684	2.604291
92.23161	4278.302	22.5421	-88.77043	2.550177
92.28571	4273.593	22.28402	-88.92436	2.498553
92.33982	4268.878	22.05286	-89.07859	2.449638
92.39392	4264.168	21.85325	-89.23311	2.403578
92.44803	4259.46	21.68629	-89.41531	2.364398
92.50214	4254.751	21.54469	-89.59432	2.328034
92.55624	4250.029	21.42168	-89.77016	2.294313
92.61034	4245.288	21.30923	-89.94323	2.263076
92.66445	4240.521	21.19902	-90.11408	2.234175
92.71856	4235.734	21.0859	-90.28325	2.207507
92.77267	4230.919	20.97057	-90.4512	2.183005
92.82677	4226.075	20.85147	-90.61835	2.160648
92.88087	4221.196	20.72669	-90.785	2.140436
92.93498	4216.285	20.59262	-90.95142	2.122383
92.98909	4211.342	20.4509	-91.11783	2.106526
93.04319	4206.375	20.30844	-91.28436	2.0929
93.0973	4201.384	20.16946	-91.45116	2.081539
93.15141	4196.377	20.03296	-91.6183	2.072479
93.20551	4191.353	19.89738	-91.78589	2.065753
93.25961	4186.319	19.76379	-91.95397	2.061378
93.31372	4181.272	19.63283	-92.12259	2.059391
93.36783	4176.223	19.50384	-92.29179	2.059795
93.42194	4171.177	19.37792	-92.46157	2.062602
93.47604	4166.143	19.25478	-92.63197	2.067808
93.53014	4161.106	19.13649	-92.80299	2.075398
93.58425	4156.057	19.02086	-92.97464	2.085355
93.63836	4150.986	18.90663	-93.14691	2.09765
93.69246	4145.893	18.79104	-93.31982	2.112232
93.74657	4140.778	18.67023	-93.49332	2.12906
93.80067	4135.653	18.54716	-93.66743	2.148068
93.85478	4130.51	18.43158	-93.84212	2.169194
93.90888	4125.343	18.33407	-94.01738	2.192366
93.96299	4120.139	18.26481	-94.19318	2.217498
94.0171	4114.895	18.22585	-94.36948	2.244525
94.07121	4109.618	18.20897	-94.54625	2.273356
94.12531	4104.252	18.27712	-94.72345	2.303912
94.17941	4098.957	18.30685	-94.90103	2.336099
94.23352	4093.716	18.31327	-95.07895	2.369831
94.28763	4088.511	18.30745	-95.25716	2.40502
94.34174	4083.326	18.29594	-95.43562	2.441581
94.39584	4078.153	18.28263	-95.61429	2.479423
94.44994	4072.982	18.27022	-95.79311	2.518466
94.50405	4067.81	18.26005	-95.97205	2.558627
94.55816	4062.635	18.25344	-96.15106	2.599822
94.61226	4057.453	18.25097	-96.33011	2.64198
94.66637	4052.265	18.25302	-96.50916	2.685032
94.72047	4047.069	18.25965	-96.68818	2.728898
94.77458	4041.865	18.2703	-96.86713	2.773524
94.82868	4036.652	18.28359	-97.046	2.818845
94.88279	4031.432	18.29796	-97.22475	2.864812
94.9369	4026.209	18.31198	-97.40337	2.911368
94.991	4020.985	18.32416	-97.58183	2.958472
