T[Â°C]	330nm [counts / mm]	S.D.	First derivative	S.D. of first derivative
20.00057	4990.299		-64.50596	
20.05468	4986.536		-64.50199	
20.10879	4982.773		-64.4985	
20.1629	4979.012		-64.49548	
20.217	4975.252		-64.49293	
20.27111	4971.494		-64.49088	
20.32522	4967.738		-64.48932	
20.37933	4963.984		-64.48825	
20.43344	4960.233		-64.48768	
20.48755	4956.482		-64.4876	
20.54165	4952.732		-64.48801	
20.59576	4948.98		-64.4889	
20.64987	4945.226		-64.49026	
20.70398	4941.466		-64.49208	
20.75809	4937.702		-64.49435	
20.81219	4933.931		-64.49704	
20.8663	4930.152		-64.50014	
20.92041	4926.369		-64.50362	
20.97452	4922.748		-64.50747	
21.02862	4919.2		-64.51164	
21.08273	4915.728		-64.51612	
21.13684	4912.325		-64.52086	
21.19095	4908.989		-64.52583	
21.24506	4905.707		-64.53098	
21.29916	4902.455		-64.5363	
21.35327	4899.205		-64.54173	
21.40738	4895.935		-64.54726	
21.46149	4892.636		-64.55285	
21.5156	4889.31		-64.55846	
21.5697	4885.962		-64.56408	
21.62381	4882.589		-64.56969	
21.67792	4879.191		-64.57526	
21.73203	4875.777		-64.58079	
21.78614	4872.354		-64.58625	
21.84024	4868.926		-64.59162	
21.89435	4865.498		-64.5969	
21.94846	4862.068		-64.60207	
22.00257	4858.627		-64.60711	
22.05668	4855.164		-64.61203	
22.11078	4851.671		-64.61682	
22.16489	4848.148		-64.62153	
22.219	4844.595		-64.6262	
22.27311	4841.019		-64.63096	
22.32722	4837.436		-64.63602	
22.38132	4833.86		-64.64172	
22.43543	4830.302		-64.6486	
22.48954	4826.759		-64.65744	
22.54365	4823.228		-64.6693	
22.59776	4819.695		-64.6853	
22.65187	4816.152		-64.71976	
22.70597	4812.599		-64.75762	
22.76008	4809.042		-64.79887	
22.81419	4805.49		-64.84341	
22.8683	4801.954		-64.89112	
22.92241	4798.439		-64.94175	
22.97651	4794.946		-64.99503	
23.03062	4791.473		-65.0506	
23.08473	4788.01		-65.10808	
23.13884	4784.55		-65.16698	
23.19295	4781.088		-65.22683	
23.24705	4777.618		-65.28706	
23.30116	4774.129		-65.34713	
23.35527	4770.614		-65.4065	
23.40938	4767.071		-65.46465	
23.46348	4763.509		-65.5211	
23.51759	4759.94		-65.57542	
23.5717	4756.367		-65.62724	
23.62581	4752.784		-65.67627	
23.67992	4749.197		-65.72231	
23.73402	4745.619		-65.76523	
23.78813	4742.061		-65.80502	
23.84224	4738.517		-65.84171	
23.89635	4734.979		-65.87534	
23.95046	4731.446		-65.906	
24.00456	4727.916		-65.93379	
24.05867	4724.394		-65.95883	
24.11278	4720.882		-65.98124	
24.16689	4717.381		-66.00111	
24.221	4713.883		-66.01854	
24.2751	4710.374		-66.03358	
24.32921	4706.841		-66.04633	
24.38332	4703.276		-66.05685	
24.43743	4699.682		-66.06527	
24.49154	4696.069		-66.07167	
24.54564	4692.449		-66.07616	
24.59975	4688.821		-66.07883	
24.65386	4685.178		-66.0798	
24.70797	4681.51		-66.07915	
24.76208	4677.808		-66.07693	
24.81618	4674.067		-66.07313	
24.87029	4670.296		-66.0677	
24.9244	4666.513		-66.06054	
24.97851	4662.736		-66.05155	
25.03262	4658.982		-66.04053	
25.08673	4655.26		-66.02727	
25.14083	4651.576		-66.01147	
25.19494	4647.928		-65.99279	
25.24905	4644.314		-65.97086	
25.30316	4640.723		-65.94531	
25.35727	4637.148		-65.91579	
25.41137	4633.584		-65.88197	
25.46548	4630.023		-65.8436	
25.51959	4626.459		-65.80052	
25.5737	4622.887		-65.75268	
25.62781	4619.305		-65.70012	
25.68191	4615.718		-65.643	
25.73602	4612.143		-65.58153	
25.79013	4608.604		-65.51602	
25.84424	4605.109		-65.44685	
25.89835	4601.661		-65.37443	
25.95245	4598.249		-65.29932	
26.00656	4594.853		-65.22209	
26.06067	4591.458		-65.14339	
26.11478	4588.046		-65.06383	
26.16888	4584.606		-64.98405	
26.22299	4581.134		-64.90465	
26.2771	4577.628		-64.82622	
26.33121	4574.085		-64.74929	
26.38532	4570.504		-64.67433	
26.43942	4566.893		-64.60171	
26.49353	4563.263		-64.53172	
26.54764	4559.625		-64.46464	
26.60175	4555.992		-64.40067	
26.65586	4552.374		-64.33994	
26.70996	4548.777		-64.28255	
26.76407	4545.204		-64.22852	
26.81818	4541.655		-64.17783	
26.87229	4538.134		-64.13037	
26.9264	4534.639		-64.08601	
26.9805	4531.161		-64.04456	
27.03461	4527.699		-64.00578	
27.08872	4524.253		-63.96936	
27.14283	4520.825		-63.935	
27.19694	4517.423		-63.90232	
27.25105	4514.058		-63.87101	
27.30515	4510.738		-63.84075	
27.35926	4507.47		-63.81125	
27.41337	4504.243		-63.78222	
27.46748	4501.04		-63.75343	
27.52159	4497.845		-63.72464	
27.57569	4494.65		-63.69566	
27.6298	4491.442		-63.66631	
27.68391	4488.214		-63.6364	
27.73802	4484.963		-63.60576	
27.79213	4481.687		-63.57423	
27.84623	4478.382		-63.54169	
27.90034	4475.054		-63.50808	
27.95445	4471.707		-63.47343	
28.00856	4468.343		-63.43785	
28.06267	4464.964		-63.4015	
28.11677	4461.563		-63.36466	
28.17088	4458.132		-63.32764	
28.22499	4454.675		-63.29083	
28.2791	4451.195		-63.25459	
28.33321	4447.69		-63.2193	
28.38731	4444.161		-63.1853	
28.44142	4440.604		-63.15284	
28.49553	4437.018		-63.1221	
28.54964	4433.407		-63.09316	
28.60374	4429.778		-63.06602	
28.65785	4426.135		-63.04058	
28.71196	4422.483		-63.01668	
28.76607	4418.831		-62.994	
28.82018	4415.192		-62.97218	
28.87428	4411.579		-62.95076	
28.92839	4408		-62.92921	
28.9825	4404.462		-62.90699	
29.03661	4400.963		-62.88346	
29.09072	4397.497		-62.85804	
29.14482	4394.055		-62.83012	
29.19893	4390.631		-62.7991	
29.25304	4387.222		-62.76448	
29.30715	4383.829		-62.72583	
29.36126	4380.456		-62.68282	
29.41537	4377.116		-62.63519	
29.46947	4373.817		-62.58281	
29.52358	4370.559		-62.52565	
29.57769	4367.329		-62.46376	
29.6318	4364.116		-62.39731	
29.68591	4360.906		-62.32651	
29.74001	4357.677		-62.25165	
29.79412	4354.413		-62.17308	
29.84823	4351.109		-62.09118	
29.90234	4347.775		-62.00637	
29.95645	4344.428		-61.91909	
30.01055	4341.081		-61.82982	
30.06466	4337.734		-61.73908	
30.11877	4334.376		-61.64746	
30.17288	4330.998		-61.55556	
30.22699	4327.599		-61.46404	
30.28109	4324.187		-61.3736	
30.3352	4320.773		-61.28498	
30.38931	4317.372		-61.19886	
30.44342	4313.98		-61.11589	
30.49753	4310.589		-61.03671	
30.55163	4307.192		-60.96188	
30.60574	4303.784		-60.89189	
30.65985	4300.366		-60.82719	
30.71396	4296.94		-60.76815	
30.76807	4293.517		-60.7151	
30.82217	4290.11		-60.66828	
30.87628	4286.734		-60.6279	
30.93039	4283.411		-60.59402	
30.9845	4280.153		-60.56657	
31.03861	4276.969		-60.54532	
31.09271	4273.863		-60.52995	
31.14682	4270.825		-60.52	
31.20093	4267.843		-60.51495	
31.25504	4264.898		-60.51423	
31.30914	4261.959		-60.51723	
31.36325	4258.998		-60.52336	
31.41736	4255.984		-60.53201	
31.47147	4252.906		-60.54264	
31.52558	4249.772		-60.55471	
31.57969	4246.598		-60.56778	
31.63379	4243.402		-60.58142	
31.6879	4240.205		-60.59529	
31.74201	4237.017		-60.60912	
31.79612	4233.836		-60.62267	
31.85023	4230.657		-60.63576	
31.90433	4227.475		-60.64822	
31.95844	4224.292		-60.65988	
32.01255	4221.109		-60.67059	
32.06666	4217.915		-60.68018	
32.12077	4214.697		-60.68847	
32.17487	4211.451		-60.69527	
32.22898	4208.169		-60.70038	
32.28309	4204.845		-60.70361	
32.3372	4201.477		-60.70476	
32.3913	4198.077		-60.70366	
32.44542	4194.657		-60.70021	
32.49952	4191.229		-60.69437	
32.55363	4187.804		-60.68622	
32.60774	4184.392		-60.6759	
32.66185	4180.998		-60.66363	
32.71595	4177.625		-60.6497	
32.77006	4174.275		-60.63448	
32.82417	4170.935		-60.61835	
32.87828	4167.598		-60.60172	
32.93238	4164.262		-60.58492	
32.98649	4160.923		-60.56825	
33.0406	4157.571		-60.55196	
33.09471	4154.195		-60.53619	
33.14882	4150.786		-60.52102	
33.20293	4147.339		-60.50648	
33.25703	4143.863		-60.49248	
33.31114	4140.368		-60.4789	
33.36525	4136.865		-60.46558	
33.41936	4133.36		-60.45229	
33.47346	4129.867		-60.43876	
33.52757	4126.401		-60.42471	
33.58168	4122.964		-60.40982	
33.63579	4119.557		-60.39373	
33.6899	4116.186		-60.3761	
33.74401	4112.849		-60.35658	
33.79811	4109.543		-60.33488	
33.85222	4106.264		-60.31071	
33.90633	4103.005		-60.28385	
33.96044	4099.759		-60.2541	
34.01455	4096.525		-60.22128	
34.06865	4093.299		-60.18524	
34.12276	4090.078		-60.14586	
34.17687	4086.874		-60.10302	
34.23098	4083.697		-60.05661	
34.28509	4080.553		-60.00655	
34.3392	4077.45		-59.95274	
34.3933	4074.392		-59.89507	
34.44741	4071.383		-59.83349	
34.50152	4068.424		-59.76797	
34.55563	4065.508		-59.69857	
34.60973	4062.625		-59.62539	
34.66384	4059.756		-59.54863	
34.71795	4056.884		-59.46855	
34.77206	4053.981		-59.38555	
34.82617	4051.024		-59.30006	
34.88028	4048.003		-59.21263	
34.93438	4044.918		-59.12378	
34.98849	4041.779		-59.03408	
35.0426	4038.591		-58.94413	
35.09671	4035.358		-58.85448	
35.15081	4032.086		-58.76572	
35.20492	4028.786		-58.6784	
35.25903	4025.465		-58.59306	
35.31314	4022.128		-58.51016	
35.36724	4018.776		-58.4301	
35.42135	4015.409		-58.35319	
35.47546	4012.033		-58.27964	
35.52957	4008.648		-58.20959	
35.58368	4005.252		-58.14303	
35.63779	4001.848		-58.0799	
35.69189	3998.443		-58.02002	
35.746	3995.038		-57.9632	
35.80011	3991.644		-57.90918	
35.85422	3988.271		-57.85769	
35.90833	3984.93		-57.80842	
35.96243	3981.632		-57.76107	
36.01654	3978.386		-57.71537	
36.07065	3975.202		-57.6711	
36.12476	3972.085		-57.62807	
36.17887	3969.035		-57.58611	
36.23298	3966.045		-57.54507	
36.28708	3963.1		-57.50477	
36.34119	3960.179		-57.46499	
36.3953	3957.261		-57.42549	
36.44941	3954.333		-57.38601	
36.50351	3951.389		-57.34631	
36.55762	3948.426		-57.30617	
36.61173	3945.441		-57.26542	
36.66584	3942.439		-57.22396	
36.71995	3939.419		-57.18176	
36.77406	3936.387		-57.13884	
36.82816	3933.353		-57.09528	
36.88227	3930.323		-57.05116	
36.93638	3927.309		-57.00666	
36.99049	3924.32		-56.96196	
37.04459	3921.352		-56.91735	
37.0987	3918.391		-56.87318	
37.15281	3915.417		-56.82985	
37.20692	3912.408		-56.78778	
37.26103	3909.356		-56.74743	
37.31514	3906.259		-56.70919	
37.36924	3903.128		-56.67345	
37.42335	3899.977		-56.64054	
37.47746	3896.827		-56.61075	
37.53157	3893.694		-56.58432	
37.58567	3890.596		-56.5614	
37.63978	3887.54		-56.54206	
37.69389	3884.53		-56.52632	
37.748	3881.566		-56.51412	
37.8021	3878.643		-56.50537	
37.85622	3875.758		-56.49991	
37.91032	3872.905		-56.49752	
37.96443	3870.065		-56.49799	
38.01854	3867.218		-56.50103	
38.07265	3864.345		-56.50637	
38.12675	3861.431		-56.51372	
38.18086	3858.466		-56.52273	
38.23497	3855.443		-56.53304	
38.28908	3852.365		-56.54425	
38.34319	3849.237		-56.55595	
38.39729	3846.073		-56.5677	
38.4514	3842.894		-56.57907	
38.50551	3839.711		-56.58963	
38.55962	3836.534		-56.59902	
38.61373	3833.372		-56.60688	
38.66784	3830.224		-56.61287	
38.72194	3827.087		-56.61664	
38.77605	3823.955		-56.61781	
38.83016	3820.825		-56.61596	
38.88427	3817.691		-56.61066	
38.93837	3814.546		-56.60154	
38.99248	3811.386		-56.58827	
39.04659	3808.214		-56.57059	
39.1007	3805.035		-56.54836	
39.15481	3801.851		-56.52147	
39.20892	3798.67		-56.48989	
39.26302	3795.494		-56.45366	
39.31713	3792.326		-56.41284	
39.37124	3789.174		-56.3676	
39.42535	3786.043		-56.31818	
39.47945	3782.942		-56.26488	
39.53356	3779.88		-56.20809	
39.58767	3776.861		-56.1482	
39.64178	3773.878		-56.08563	
39.69589	3770.916		-56.02084	
39.75	3767.957		-55.95427	
39.8041	3764.984		-55.88636	
39.85821	3761.985		-55.81754	
39.91232	3758.955		-55.74817	
39.96643	3755.894		-55.67857	
40.02053	3752.804		-55.6091	
40.07464	3749.698		-55.54006	
40.12875	3746.59		-55.47175	
40.18286	3743.488		-55.40446	
40.23697	3740.389		-55.33846	
40.29108	3737.289		-55.27399	
40.34518	3734.189		-55.21131	
40.39929	3731.101		-55.15061	
40.4534	3728.038		-55.09208	
40.50751	3725.004		-55.03589	
40.56161	3721.995		-54.98217	
40.61572	3719.01		-54.93096	
40.66983	3716.042		-54.88219	
40.72394	3713.086		-54.83571	
40.77805	3710.14		-54.79125	
40.83215	3707.21		-54.74847	
40.88626	3704.303		-54.70702	
40.94037	3701.43		-54.66653	
40.99448	3698.597		-54.62669	
41.04859	3695.799		-54.5872	
41.1027	3693.028		-54.54781	
41.1568	3690.277		-54.5083	
41.21091	3687.541		-54.46852	
41.26502	3684.821		-54.42837	
41.31913	3682.124		-54.38786	
41.37323	3679.452		-54.34708	
41.42734	3676.8		-54.3062	
41.48145	3674.149		-54.26546	
41.53556	3671.483		-54.22515	
41.58967	3668.786		-54.18554	
41.64378	3666.049		-54.14695	
41.69788	3663.265		-54.1097	
41.75199	3660.438		-54.0741	
41.8061	3657.573		-54.04046	
41.86021	3654.678		-54.00904	
41.91431	3651.758		-53.98008	
41.96842	3648.808		-53.95382	
42.02253	3645.819		-53.93047	
42.07664	3642.79		-53.9102	
42.13075	3639.724		-53.89316	
42.18486	3636.626		-53.87943	
42.23896	3633.495		-53.86906	
42.29307	3630.334		-53.86201	
42.34718	3627.149		-53.85819	
42.40129	3623.955		-53.85742	
42.45539	3620.778		-53.85946	
42.5095	3617.632		-53.86396	
42.56361	3614.515		-53.87048	
42.61772	3611.424		-53.87847	
42.67183	3608.352		-53.88728	
42.72594	3605.294		-53.89626	
42.78004	3602.245		-53.90466	
42.83415	3599.206		-53.91179	
42.88826	3596.188		-53.91694	
42.94237	3593.212		-53.91945	
42.99648	3590.289		-53.91872	
43.05058	3587.427		-53.91423	
43.10469	3584.623		-53.90554	
43.1588	3581.866		-53.89225	
43.21291	3579.144		-53.87413	
43.26701	3576.444		-53.85098	
43.32113	3573.753		-53.82276	
43.37523	3571.068		-53.78953	
43.42934	3568.381		-53.7514	
43.48345	3565.683		-53.70857	
43.53756	3562.962		-53.66124	
43.59166	3560.207		-53.60968	
43.64577	3557.405		-53.55424	
43.69988	3554.547		-53.49532	
43.75399	3551.627		-53.43336	
43.80809	3548.644		-53.36889	
43.8622	3545.604		-53.30248	
43.91631	3542.526		-53.23471	
43.97042	3539.431		-53.16622	
44.02453	3536.345		-53.09759	
44.07864	3533.29		-53.02936	
44.13274	3530.271		-52.96207	
44.18685	3527.281		-52.89621	
44.24096	3524.306		-52.83226	
44.29507	3521.333		-52.77063	
44.34917	3518.352		-52.71168	
44.40328	3515.367		-52.65569	
44.45739	3512.385		-52.60284	
44.5115	3509.415		-52.55324	
44.56561	3506.468		-52.50685	
44.61972	3503.556		-52.46351	
44.67382	3500.691		-52.42298	
44.72793	3497.875		-52.38493	
44.78204	3495.113		-52.34901	
44.83615	3492.405		-52.31481	
44.89025	3489.748		-52.28196	
44.94436	3487.136		-52.25011	
44.99847	3484.555		-52.21895	
45.05258	3481.989		-52.18818	
45.10669	3479.425		-52.15749	
45.1608	3476.86		-52.12659	
45.2149	3474.286		-52.09515	
45.26901	3471.691		-52.06282	
45.32312	3469.058		-52.02931	
45.37723	3466.376		-51.99433	
45.43134	3463.638		-51.95763	
45.48544	3460.851		-51.91899	
45.53955	3458.018		-51.87827	
45.59366	3455.145		-51.83535	
45.64777	3452.241		-51.79019	
45.70187	3449.323		-51.74277	
45.75599	3446.408		-51.69316	
45.81009	3443.506		-51.64147	
45.8642	3440.619		-51.58781	
45.91831	3437.743		-51.53234	
45.97242	3434.875		-51.47519	
46.02652	3432.024		-51.4165	
46.08063	3429.196		-51.35644	
46.13474	3426.385		-51.29522	
46.18885	3423.581		-51.2331	
46.24295	3420.774		-51.17033	
46.29706	3417.964		-51.10721	
46.35117	3415.156		-51.04404	
46.40528	3412.357		-50.98112	
46.45939	3409.57		-50.91876	
46.5135	3406.796		-50.85723	
46.5676	3404.035		-50.79676	
46.62171	3401.288		-50.73758	
46.67582	3398.546		-50.67983	
46.72993	3395.8		-50.62363	
46.78403	3393.04		-50.56903	
46.83814	3390.264		-50.51612	
46.89225	3387.476		-50.46498	
46.94636	3384.68		-50.41567	
47.00047	3381.876		-50.36829	
47.05458	3379.067		-50.32286	
47.10868	3376.258		-50.27938	
47.16279	3373.457		-50.23782	
47.2169	3370.67		-50.19813	
47.27101	3367.892		-50.16026	
47.32512	3365.118		-50.12414	
47.37922	3362.343		-50.08971	
47.43333	3359.569		-50.05692	
47.48744	3356.793		-50.02569	
47.54155	3354.018		-49.99593	
47.59566	3351.247		-49.96756	
47.64977	3348.483		-49.94044	
47.70387	3345.738		-49.91444	
47.75798	3343.028		-49.88936	
47.81209	3340.368		-49.86499	
47.8662	3337.762		-49.84107	
47.9203	3335.208		-49.81733	
47.97441	3332.703		-49.79349	
48.02852	3330.248		-49.76932	
48.08263	3327.833		-49.7446	
48.13674	3325.44		-49.71918	
48.19085	3323.053		-49.69297	
48.24495	3320.659		-49.66592	
48.29906	3318.245		-49.6381	
48.35317	3315.8		-49.6096	
48.40728	3313.315		-49.58067	
48.46138	3310.79		-49.55159	
48.51549	3308.231		-49.52275	
48.5696	3305.646		-49.49459	
48.62371	3303.045		-49.46759	
48.67781	3300.432		-49.4422	
48.73193	3297.812		-49.41883	
48.78603	3295.184		-49.39784	
48.84014	3292.545		-49.37957	
48.89425	3289.887		-49.36433	
48.94836	3287.196		-49.35238	
49.00246	3284.457		-49.3439	
49.05657	3281.663		-49.33902	
49.11068	3278.816		-49.3378	
49.16479	3275.927		-49.34027	
49.21889	3273.011		-49.34639	
49.273	3270.082		-49.35606	
49.32711	3267.155		-49.3691	
49.38122	3264.242		-49.3853	
49.43533	3261.353		-49.40435	
49.48944	3258.493		-49.42595	
49.54354	3255.667		-49.44971	
49.59765	3252.871		-49.47524	
49.65176	3250.1		-49.50207	
49.70587	3247.344		-49.52967	
49.75998	3244.602		-49.55739	
49.81408	3241.867		-49.58451	
49.86819	3239.142		-49.61024	
49.9223	3236.432		-49.63373	
49.97641	3233.747		-49.65412	
50.03052	3231.098		-49.67056	
50.08463	3228.489		-49.68223	
50.13873	3225.916		-49.6884	
50.19284	3223.377		-49.68849	
50.24695	3220.866		-49.68203	
50.30106	3218.375		-49.66874	
50.35516	3215.897		-49.64846	
50.40927	3213.421		-49.62116	
50.46338	3210.94		-49.58699	
50.51749	3208.443		-49.5462	
50.5716	3205.919		-49.4992	
50.62571	3203.355		-49.44651	
50.67981	3200.733		-49.3887	
50.73392	3198.046		-49.32641	
50.78803	3195.302		-49.26032	
50.84214	3192.518		-49.19118	
50.89624	3189.71		-49.11975	
50.95035	3186.892		-49.04678	
51.00446	3184.07		-48.97302	
51.05857	3181.248		-48.89919	
51.11267	3178.424		-48.82596	
51.16679	3175.604		-48.75395	
51.22089	3172.798		-48.68369	
51.275	3170.012		-48.61564	
51.32911	3167.248		-48.55018	
51.38322	3164.494		-48.48763	
51.43732	3161.741		-48.42823	
51.49143	3158.988		-48.37218	
51.54554	3156.241		-48.3196	
51.59965	3153.503		-48.27053	
51.65376	3150.779		-48.22496	
51.70786	3148.076		-48.18279	
51.76197	3145.404		-48.14381	
51.81608	3142.771		-48.10775	
51.87019	3140.184		-48.07423	
51.9243	3137.644		-48.04281	
51.9784	3135.148		-48.013	
52.03251	3132.69		-47.98426	
52.08662	3130.259		-47.95608	
52.14073	3127.844		-47.92796	
52.19484	3125.436		-47.89943	
52.24894	3123.031		-47.87007	
52.30305	3120.629		-47.8395	
52.35716	3118.222		-47.80737	
52.41127	3115.802		-47.77346	
52.46538	3113.361		-47.7376	
52.51949	3110.901		-47.69975	
52.57359	3108.433		-47.66	
52.6277	3105.963		-47.61853	
52.68181	3103.484		-47.57565	
52.73592	3100.989		-47.53169	
52.79002	3098.479		-47.48707	
52.84413	3095.96		-47.4422	
52.89824	3093.439		-47.39752	
52.95235	3090.92		-47.35346	
53.00646	3088.404		-47.31043	
53.06057	3085.886		-47.26885	
53.11467	3083.358		-47.22908	
53.16878	3080.811		-47.19143	
53.22289	3078.245		-47.15615	
53.277	3075.664		-47.12342	
53.3311	3073.077		-47.09333	
53.38521	3070.49		-47.06596	
53.43932	3067.9		-47.04127	
53.49343	3065.31		-47.01918	
53.54753	3062.719		-46.99952	
53.60165	3060.118		-46.98207	
53.65575	3057.499		-46.96656	
53.70986	3054.856		-46.95267	
53.76397	3052.188		-46.94004	
53.81808	3049.499		-46.92831	
53.87218	3046.801		-46.91705	
53.92629	3044.11		-46.90582	
53.9804	3041.442		-46.89418	
54.03451	3038.806		-46.88167	
54.08862	3036.203		-46.86787	
54.14272	3033.628		-46.85238	
54.19683	3031.075		-46.83481	
54.25094	3028.546		-46.8148	
54.30505	3026.044		-46.79204	
54.35916	3023.566		-46.76625	
54.41327	3021.108		-46.73723	
54.46737	3018.655		-46.70486	
54.52148	3016.201		-46.66911	
54.57559	3013.744		-46.63002	
54.6297	3011.279		-46.58773	
54.6838	3008.8		-46.54243	
54.73791	3006.3		-46.49437	
54.79202	3003.782		-46.44382	
54.84613	3001.254		-46.39114	
54.90024	2998.728		-46.33663	
54.95435	2996.208		-46.28062	
55.00845	2993.695		-46.22344	
55.06256	2991.184		-46.16538	
55.11667	2988.672		-46.10672	
55.17078	2986.149		-46.0477	
55.22488	2983.606		-45.98846	
55.27899	2981.041		-45.92915	
55.3331	2978.461		-45.86988	
55.38721	2975.877		-45.81076	
55.44132	2973.298		-45.75194	
55.49543	2970.732		-45.69354	
55.54953	2968.18		-45.63567	
55.60364	2965.643		-45.5784	
55.65775	2963.126		-45.52176	
55.71186	2960.633		-45.4658	
55.76596	2958.17		-45.41055	
55.82007	2955.736		-45.35604	
55.87418	2953.323		-45.30233	
55.92829	2950.929		-45.24945	
55.9824	2948.55		-45.19743	
56.03651	2946.185		-45.14629	
56.09061	2943.838		-45.09608	
56.14472	2941.508		-45.04681	
56.19883	2939.193		-44.99852	
56.25294	2936.887		-44.95126	
56.30704	2934.585		-44.90506	
56.36115	2932.288		-44.85996	
56.41526	2929.992		-44.81601	
56.46937	2927.694		-44.77328	
56.52348	2925.395		-44.73186	
56.57758	2923.091		-44.69181	
56.63169	2920.774		-44.65324	
56.6858	2918.428		-44.61622	
56.73991	2916.042		-44.58082	
56.79402	2913.612		-44.54709	
56.84813	2911.146		-44.51505	
56.90223	2908.656		-44.48465	
56.95634	2906.158		-44.45581	
57.01045	2903.659		-44.42839	
57.06456	2901.167		-44.4022	
57.11866	2898.683		-44.377	
57.17277	2896.206		-44.35254	
57.22688	2893.733		-44.32854	
57.28099	2891.264		-44.30472	
57.3351	2888.801		-44.28081	
57.38921	2886.351		-44.25655	
57.44331	2883.924		-44.23169	
57.49742	2881.521		-44.20599	
57.55153	2879.14		-44.17915	
57.60564	2876.775		-44.1509	
57.65974	2874.422		-44.12095	
57.71385	2872.084		-44.08905	
57.76796	2869.762		-44.05498	
57.82207	2867.454		-44.01858	
57.87618	2865.158		-43.97976	
57.93029	2862.867		-43.93847	
57.98439	2860.569		-43.89472	
58.0385	2858.259		-43.84855	
58.09261	2855.938		-43.80005	
58.14672	2853.612		-43.74934	
58.20082	2851.286		-43.69655	
58.25493	2848.956		-43.64188	
58.30904	2846.617		-43.58551	
58.36315	2844.261		-43.52769	
58.41726	2841.88		-43.46865	
58.47137	2839.467		-43.40868	
58.52547	2837.029		-43.34808	
58.57958	2834.569		-43.28718	
58.63369	2832.085		-43.22635	
58.6878	2829.575		-43.16594	
58.74191	2827.042		-43.10627	
58.79601	2824.492		-43.04763	
58.85012	2821.941		-42.99026	
58.90423	2819.404		-42.93435	
58.95834	2816.892		-42.88003	
59.01245	2814.412		-42.82739	
59.06656	2811.969		-42.77647	
59.12066	2809.562		-42.72728	
59.17477	2807.188		-42.67976	
59.22888	2804.847		-42.63383	
59.28299	2802.541		-42.58936	
59.33709	2800.272		-42.54618	
59.3912	2798.042		-42.50412	
59.44531	2795.849		-42.46299	
59.49942	2793.691		-42.42258	
59.55352	2791.564		-42.38263	
59.60763	2789.458		-42.34286	
59.66174	2787.362		-42.30299	
59.71585	2785.263		-42.26272	
59.76996	2783.157		-42.22176	
59.82407	2781.042		-42.17984	
59.87817	2778.924		-42.13671	
59.93228	2776.806		-42.0922	
59.98639	2774.684		-42.04619	
60.0405	2772.555		-41.99861	
60.0946	2770.416		-41.94942	
60.14871	2768.265		-41.89866	
60.20282	2766.1		-41.84637	
60.25693	2763.917		-41.79265	
60.31104	2761.723		-41.7376	
60.36515	2759.521		-41.68132	
60.41925	2757.31		-41.62395	
60.47336	2755.086		-41.56559	
60.52747	2752.844		-41.50634	
60.58158	2750.578		-41.44632	
60.63568	2748.282		-41.38557	
60.68979	2745.955		-41.32415	
60.7439	2743.597		-41.26207	
60.79801	2741.219		-41.19925	
60.85212	2738.835		-41.13559	
60.90623	2736.459		-41.07089	
60.96033	2734.101		-41.00494	
61.01444	2731.769		-40.93742	
61.06855	2729.463		-40.86802	
61.12266	2727.179		-40.79634	
61.17677	2724.908		-40.72197	
61.23087	2722.65		-40.64442	
61.28498	2720.403		-40.56325	
61.33909	2718.162		-40.47801	
61.3932	2715.92		-40.38831	
61.44731	2713.67		-40.2938	
61.50142	2711.415		-40.19416	
61.55552	2709.16		-40.08909	
61.60963	2706.909		-39.97828	
61.66374	2704.667		-39.86144	
61.71785	2702.437		-39.73831	
61.77195	2700.22		-39.60867	
61.82606	2698.011		-39.47234	
61.88017	2695.808		-39.32926	
61.93428	2693.605		-39.17941	
61.98838	2691.397		-39.02287	
62.0425	2689.187		-38.85972	
62.0966	2686.987		-38.69016	
62.15071	2684.8		-38.51434	
62.20482	2682.626		-38.33242	
62.25893	2680.466		-38.14456	
62.31303	2678.322		-37.9509	
62.36714	2676.197		-37.75161	
62.42125	2674.091		-37.54683	
62.47536	2672		-37.33669	
62.52946	2669.92		-37.12127	
62.58357	2667.849		-36.9006	
62.63768	2665.786		-36.67468	
62.69179	2663.727		-36.44339	
62.7459	2661.674		-36.20659	
62.80001	2659.633		-35.96399	
62.85411	2657.606		-35.71518	
62.90822	2655.597		-35.45969	
62.96233	2653.616		-35.1969	
63.01644	2651.672		-34.92612	
63.07055	2649.772		-34.64653	
63.12465	2647.918		-34.35727	
63.17876	2646.106		-34.05742	
63.23287	2644.329		-33.74603	
63.28698	2642.579		-33.42214	
63.34109	2640.85		-33.08489	
63.3952	2639.144		-32.73339	
63.4493	2637.461		-32.36679	
63.50341	2635.801		-31.98426	
63.55752	2634.155		-31.585	
63.61163	2632.517		-31.16825	
63.66573	2630.878		-30.73327	
63.71984	2629.238		-30.27941	
63.77395	2627.601		-29.80607	
63.82806	2625.978		-29.31276	
63.88217	2624.371		-28.79903	
63.93628	2622.779		-28.2646	
63.99038	2621.195		-27.70908	
64.04449	2619.613		-27.13216	
64.09859	2618.029		-26.53338	
64.15271	2616.442		-25.91226	
64.20682	2614.852		-25.26848	
64.26093	2613.262		-24.60143	
64.31503	2611.677		-23.91053	
64.36914	2610.096		-23.19517	
64.42325	2608.516		-22.45468	
64.47736	2606.934		-21.68831	
64.53146	2605.348		-20.89525	
64.58557	2603.762		-20.07462	
64.63968	2602.181		-19.22548	
64.69379	2600.613		-18.34674	
64.74789	2599.076		-17.43728	
64.802	2597.586		-16.49588	
64.85611	2596.153		-15.52119	
64.91022	2594.785		-14.51179	
64.96432	2593.49		-13.46613	
65.01843	2592.272		-12.38254	
65.07254	2591.139		-11.25926	
65.12665	2590.097		-10.09448	
65.18076	2589.153		-8.886362	
65.23486	2588.31		-7.633036	
65.28897	2587.564		-6.332779	
65.34308	2586.916		-4.983781	
65.39719	2586.363		-3.584148	
65.4513	2585.906		-2.132576	
65.50541	2585.546		-0.6273407	
65.55952	2585.281		0.9329954	
65.61362	2585.11		2.549747	
65.66773	2585.029		4.224102	
65.72184	2585.035		5.957125	
65.77595	2585.123		7.749769	
65.83006	2585.293		9.602902	
65.88416	2585.548		11.5173	
65.93827	2585.887		13.49375	
65.99238	2586.308		15.53295	
66.04649	2586.807		17.63557	
66.10059	2587.384		19.80231	
66.1547	2588.034		22.03387	
66.20881	2588.759		24.33097	
66.26292	2589.563		26.69439	
66.31702	2590.454		29.12493	
66.37113	2591.434		31.62347	
66.42524	2592.508		34.19104	
66.47935	2593.679		36.82854	
66.53345	2594.958		39.53712	
66.58757	2596.358		42.31827	
66.64168	2597.892		45.17249	
66.69579	2599.57		48.10131	
66.74989	2601.406		51.10598	
66.804	2603.408		54.18804	
66.85811	2605.584		57.34888	
66.91222	2607.945		60.59007	
66.96632	2610.5		63.91328	
67.02043	2613.258		67.3203	
67.07454	2616.222		70.81293	
67.12865	2619.396		74.39306	
67.18275	2622.781		78.06255	
67.23686	2626.384		81.8233	
67.29097	2630.212		85.67716	
67.34508	2634.267		89.62592	
67.39919	2638.552		93.67134	
67.45329	2643.072		97.81505	
67.5074	2647.83		102.0585	
67.56151	2652.827		106.403	
67.61562	2658.067		110.8499	
67.66972	2663.549		115.3997	
67.72383	2669.265		120.0534	
67.77794	2675.208		124.8116	
67.83205	2681.373		129.6754	
67.88616	2687.75		134.6437	
67.94027	2694.337		139.7172	
67.99438	2701.133		144.8957	
68.04848	2708.138		150.1792	
68.10259	2715.358		155.5672	
68.1567	2722.809		161.0593	
68.21081	2730.51		166.655	
68.26492	2738.484		172.3535	
68.31902	2746.759		178.1543	
68.37313	2755.356		184.0567	
68.42724	2764.295		190.0598	
68.48135	2773.583		196.1626	
68.53545	2783.224		202.3643	
68.58956	2793.223		208.6637	
68.64367	2803.585		215.0598	
68.69778	2814.32		221.5515	
68.75188	2825.434		228.1378	
68.80599	2836.94		234.8174	
68.8601	2848.849		241.5897	
68.91421	2861.175		248.4532	
68.96832	2873.927		255.4073	
69.02243	2887.114		262.4518	
69.07654	2900.733		269.5838	
69.13065	2914.794		276.8032	
69.18475	2929.303		284.1086	
69.23886	2944.267		291.4988	
69.29297	2959.689		298.972	
69.34708	2975.573		306.5263	
69.40118	2991.916		314.1591	
69.45529	3008.714		321.8678	
69.5094	3025.966		329.6488	
69.56351	3043.669		337.498	
69.61761	3061.821		345.4109	
69.67172	3080.419		353.3818	
69.72583	3099.459		361.4047	
69.77994	3118.94		369.4725	
69.83405	3138.871		377.5775	
69.88815	3159.265		385.711	
69.94226	3180.133		393.8633	
69.99637	3201.485		402.0238	
70.05048	3223.325		410.1811	
70.10458	3245.655		418.3226	
70.15869	3268.47		426.4349	
70.21281	3291.77		434.505	
70.26691	3315.551		442.5155	
70.32102	3339.82		450.4518	
70.37513	3364.586		458.2972	
70.42924	3389.854		466.0347	
70.48335	3415.627		473.6463	
70.53745	3441.905		481.1139	
70.59156	3468.685		488.419	
70.64567	3495.964		495.5427	
70.69978	3523.742		502.4661	
70.75388	3552.021		509.1703	
70.80799	3580.801		515.6365	
70.8621	3610.077		521.8462	
70.91621	3639.842		527.7811	
70.97031	3670.086		533.4236	
71.02442	3700.804		538.7566	
71.07853	3731.999		543.7639	
71.13264	3763.683		548.4299	
71.18674	3795.869		552.7404	
71.24085	3828.567		556.6813	
71.29496	3861.794		560.2411	
71.34907	3895.564		563.4082	
71.40318	3929.886		566.1727	
71.45729	3964.764		568.5259	
71.5114	4000.183		570.4598	
71.56551	4036.139		571.9687	
71.61961	4072.614		573.048	
71.67372	4109.574		573.6935	
71.72783	4146.964		573.9033	
71.78194	4184.719		573.6766	
71.83604	4222.773		573.0135	
71.89015	4261.061		571.9158	
71.94426	4299.518		570.3856	
71.99837	4338.073		568.4268	
72.05247	4376.656		566.0439	
72.10658	4415.199		563.2422	
72.16069	4453.635		560.0284	
72.2148	4491.916		556.4093	
72.26891	4529.994		552.393	
72.32301	4567.814		547.988	
72.37712	4605.307		543.2037	
72.43123	4642.384		538.0497	
72.48534	4678.942		532.5363	
72.53944	4714.867		526.675	
72.59355	4750.045		520.4771	
72.64767	4784.381		513.9532	
72.70177	4817.787		507.1176	
72.75588	4850.215		499.9819	
72.80999	4881.632		492.5594	
72.8641	4912.012		484.863	
72.91821	4941.343		476.9066	
72.97231	4969.622		468.7044	
73.02642	4996.865		460.2712	
73.08053	5023.081		451.6219	
73.13464	5048.277		442.772	
73.18874	5072.456		433.7377	
73.24285	5095.619		424.5354	
73.29696	5117.774		415.1819	
73.35107	5138.926		405.6946	
73.40517	5159.071		396.0912	
73.45928	5178.209		386.3899	
73.51339	5196.352		376.6094	
73.5675	5213.526		366.7688	
73.6216	5229.77		356.8875	
73.67571	5245.127		346.9851	
73.72982	5259.647		337.0813	
73.78393	5273.385		327.1959	
73.83804	5286.408		317.3472	
73.89215	5298.783		307.5575	
73.94626	5310.587		297.8447	
74.00037	5321.886		288.2274	
74.05447	5332.723		278.7239	
74.10858	5343.119		269.3521	
74.16269	5353.085		260.1287	
74.2168	5362.633		251.0695	
74.2709	5371.779		242.1895	
74.32501	5380.548		233.5025	
74.37912	5388.971		225.021	
74.43323	5397.083		216.7561	
74.48734	5404.924		208.7179	
74.54144	5412.529		200.9148	
74.59555	5419.932		193.3536	
74.64966	5427.142		186.0399	
74.70377	5434.164		178.9773	
74.75787	5441.007		172.1681	
74.81198	5447.684		165.6129	
74.86609	5454.195		159.3109	
74.9202	5460.532		153.2594	
74.9743	5466.691		147.4551	
75.02841	5472.666		141.8929	
75.08253	5478.446		136.5665	
75.13663	5484.016		131.4702	
75.19074	5489.357		126.5955	
75.24485	5494.463		121.9335	
75.29896	5499.344		117.4753	
75.35307	5504.016		113.211	
75.40717	5508.496		109.1303	
75.46128	5512.796		105.2228	
75.51539	5516.942		101.478	
75.5695	5520.955		97.88554	
75.6236	5524.863		94.43515	
75.67771	5528.697		91.11696	
75.73182	5532.47		87.92146	
75.78593	5536.177		84.83965	
75.84003	5539.797		81.86304	
75.89414	5543.308		78.98372	
75.94825	5546.701		76.1944	
76.00236	5549.984		73.48845	
76.05647	5553.181		70.85989	
76.11057	5556.32		68.30344	
76.16468	5559.437		65.81425	
76.21879	5562.563		63.38828	
76.2729	5565.727		61.02168	
76.32701	5568.928		58.7122	
76.38112	5572.16		56.45713	
76.43523	5575.407		54.25468	
76.48933	5578.655		52.1036	
76.54344	5581.901		50.00298	
76.59755	5585.134		47.95227	
76.65166	5588.322		45.95115	
76.70576	5591.418		43.99946	
76.75987	5594.391		42.09716	
76.81398	5597.212		40.24427	
76.86809	5599.856		38.44087	
76.9222	5602.313		36.68708	
76.9763	5604.596		34.98303	
77.03041	5606.726		33.32883	
77.08452	5608.721		31.72449	
77.13863	5610.587		30.16991	
77.19273	5612.306		28.66488	
77.24684	5613.859		27.2091	
77.30095	5615.234		25.80216	
77.35506	5616.424		24.44337	
77.40916	5617.412		23.13201	
77.46328	5618.185		21.86705	
77.51739	5618.729		20.64792	
77.5715	5619.032		19.47353	
77.6256	5619.094		18.343	
77.67971	5618.931		17.25548	
77.73382	5618.571		16.21038	
77.78793	5618.051		15.2071	
77.84203	5617.413		14.24522	
77.89614	5616.686		13.32449	
77.95025	5615.889		12.44481	
78.00436	5615.037		11.6063	
78.05846	5614.151		10.80927	
78.11257	5613.256		10.05422	
78.16668	5612.378		9.341834	
78.22079	5611.536		8.672999	
78.27489	5610.749		8.048801	
78.329	5610.026		7.470523	
78.38311	5609.372		6.939603	
78.43722	5608.772		6.457592	
78.49133	5608.213		6.026148	
78.54543	5607.683		5.646689	
78.59954	5607.188		5.320769	
78.65365	5606.731		5.049751	
78.70776	5606.32		4.834822	
78.76187	5605.962		4.677069	
78.81598	5605.656		4.577265	
78.87009	5605.406		4.535905	
78.92419	5605.219		4.553397	
78.9783	5605.113		4.629651	
79.03241	5605.112		4.764276	
79.08652	5605.229		4.956498	
79.14063	5605.457		5.20515	
79.19473	5605.774		5.508695	
79.24884	5606.152		5.865222	
79.30295	5606.567		6.27244	
79.35706	5607.003		6.727674	
79.41116	5607.448		7.227903	
79.46527	5607.903		7.769785	
79.51938	5608.383		8.349669	
79.57349	5608.902		8.963622	
79.62759	5609.464		9.607499	
79.6817	5610.069		10.27701	
79.73581	5610.719		10.96779	
79.78992	5611.426		11.67534	
79.84402	5612.192		12.3951	
79.89814	5613.013		13.12259	
79.95225	5613.87		13.85305	
80.00636	5614.743		14.58218	
80.06046	5615.618		15.30577	
80.11457	5616.491		16.01987	
80.16868	5617.35		16.72084	
80.22279	5618.19		17.4054	
80.27689	5619.007		18.07063	
80.331	5619.809		18.71398	
80.38511	5620.608		19.33328	
80.43922	5621.423		19.92669	
80.49332	5622.274		20.49269	
80.54743	5623.188		21.03008	
80.60154	5624.192		21.53792	
80.65565	5625.308		22.01551	
80.70975	5626.549		22.46238	
80.76386	5627.914		22.87832	
80.81797	5629.396		23.2633	
80.87208	5630.983		23.61753	
80.92619	5632.656		23.94131	
80.98029	5634.406		24.23518	
81.0344	5636.228		24.49971	
81.08852	5638.125		24.73557	
81.14262	5640.103		24.94341	
81.19673	5642.168		25.12404	
81.25084	5644.32		25.2782	
81.30495	5646.552		25.40666	
81.35905	5648.848		25.50994	
81.41316	5651.178		25.58856	
81.46727	5653.517		25.64277	
81.52138	5655.847		25.67263	
81.57549	5658.149		25.67803	
81.62959	5660.402		25.65872	
81.6837	5662.588		25.61434	
81.73781	5664.697		25.54438	
81.79192	5666.719		25.44814	
81.84602	5668.652		25.32474	
81.90013	5670.492		25.17307	
81.95424	5672.237		24.99191	
82.00835	5673.889		24.77995	
82.06245	5675.454		24.53585	
82.11656	5676.938		24.25826	
82.17067	5678.355		23.946	
82.22478	5679.722		23.59788	
82.27888	5681.043		23.21287	
82.333	5682.314		22.78996	
82.38711	5683.522		22.32848	
82.44122	5684.659		21.82776	
82.49532	5685.723		21.28744	
82.54943	5686.725		20.70725	
82.60354	5687.677		20.0872	
82.65765	5688.592		19.42745	
82.71175	5689.476		18.72834	
82.76586	5690.339		17.99045	
82.81997	5691.187		17.21453	
82.87408	5692.029		16.40157	
82.92818	5692.871		15.55267	
82.98229	5693.71		14.66916	
83.0364	5694.539		13.75249	
83.09051	5695.353		12.80425	
83.14462	5696.141		11.82614	
83.19872	5696.899		10.81994	
83.25283	5697.625		9.787465	
83.30694	5698.326		8.73053	
83.36105	5699.014		7.650885	
83.41515	5699.698		6.550277	
83.46926	5700.376		5.430316	
83.52338	5701.046		4.292415	
83.57748	5701.7		3.138409	
83.63159	5702.336		1.969585	
83.6857	5702.949		0.7873014	
83.73981	5703.535		-0.4072917	
83.79391	5704.077		-1.613189	
83.84802	5704.552		-2.829638	
83.90213	5704.935		-4.056118	
83.95624	5705.21		-5.292309	
84.01035	5705.357		-6.538073	
84.06445	5705.366		-7.793398	
84.11856	5705.237		-9.058346	
84.17267	5704.992		-10.33302	
84.22678	5704.648		-11.61756	
84.28088	5704.219		-12.91215	
84.33499	5703.695		-14.217	
84.3891	5703.057		-15.53226	
84.44321	5702.278		-16.85802	
84.49731	5701.351		-18.1943	
84.55142	5700.276		-19.54106	
84.60553	5699.067		-20.89814	
84.65964	5697.742		-22.26533	
84.71375	5696.317		-23.64247	
84.76786	5694.802		-25.02873	
84.82197	5693.196		-26.42376	
84.87608	5691.495		-27.82687	
84.93018	5689.7		-29.23732	
84.98429	5687.823		-30.65429	
85.0384	5685.875		-32.0769	
85.09251	5683.864		-33.5043	
85.14661	5681.788		-34.93555	
85.20072	5679.639		-36.36975	
85.25483	5677.413		-37.80592	
85.30894	5675.11		-39.24306	
85.36304	5672.738		-40.68019	
85.41715	5670.298		-42.1163	
85.47126	5667.789		-43.55038	
85.52537	5665.203		-44.98137	
85.57948	5662.531		-46.40824	
85.63358	5659.768		-47.82992	
85.68769	5656.922		-49.24543	
85.7418	5654.007		-50.65382	
85.79591	5651.03		-52.05426	
85.85001	5648.002		-53.44604	
85.90412	5644.927		-54.82854	
85.95824	5641.794		-56.20139	
86.01234	5638.592		-57.56369	
86.06645	5635.313		-58.91516	
86.12056	5631.962		-60.25541	
86.17467	5628.548		-61.58405	
86.22878	5625.082		-62.9008	
86.28288	5621.572		-64.20541	
86.33699	5618.01		-65.49761	
86.3911	5614.376		-66.77715	
86.44521	5610.651		-68.04373	
86.49931	5606.822		-69.29707	
86.55342	5602.885		-70.5368	
86.60753	5598.85		-71.76257	
86.66164	5594.743		-72.97394	
86.71574	5590.596		-74.17043	
86.76985	5586.427		-75.35148	
86.82396	5582.246		-76.51642	
86.87807	5578.049		-77.66451	
86.93217	5573.835		-78.79495	
86.98628	5569.59		-79.90692	
87.04039	5565.302		-80.99966	
87.0945	5560.951		-82.07244	
87.14861	5556.521		-83.12472	
87.20272	5552.002		-84.15555	
87.25683	5547.39		-85.16444	
87.31094	5542.681		-86.15085	
87.36504	5537.878		-87.11416	
87.41915	5532.981		-88.05385	
87.47326	5527.995		-88.96938	
87.52737	5522.931		-89.86022	
87.58147	5517.805		-90.7259	
87.63558	5512.629		-91.56598	
87.68969	5507.417		-92.38013	
87.7438	5502.17		-93.1681	
87.7979	5496.893		-93.9298	
87.85201	5491.565		-94.66525	
87.90612	5486.164		-95.37458	
87.96023	5480.662		-96.05804	
88.01434	5475.049		-96.71597	
88.06844	5469.322		-97.34878	
88.12255	5463.492		-97.95704	
88.17666	5457.575		-98.5414	
88.23077	5451.596		-99.10267	
88.28487	5445.577		-99.64165	
88.33898	5439.539		-100.1592	
88.3931	5433.491		-100.6564	
88.4472	5427.45		-101.134	
88.50131	5421.419		-101.5929	
88.55542	5415.402		-102.0342	
88.60953	5409.391		-102.4586	
88.66364	5403.381		-102.867	
88.71774	5397.356		-103.2601	
88.77185	5391.311		-103.6386	
88.82596	5385.246		-104.0028	
88.88007	5379.178		-104.3531	
88.93417	5373.111		-104.6898	
88.98828	5367.055		-105.013	
89.04239	5361.019		-105.3229	
89.0965	5355.009		-105.6196	
89.1506	5349.031		-105.9035	
89.20471	5343.1		-106.1748	
89.25882	5337.233		-106.4339	
89.31293	5331.449		-106.6812	
89.36703	5325.753		-106.9171	
89.42114	5320.132		-107.142	
89.47525	5314.553		-107.3563	
89.52936	5308.984		-107.5607	
89.58347	5303.397		-107.7555	
89.63758	5297.779		-107.9412	
89.69169	5292.133		-108.1184	
89.7458	5286.48		-108.2877	
89.7999	5280.84		-108.4497	
89.85401	5275.223		-108.6051	
89.90812	5269.635		-108.7546	
89.96223	5264.08		-108.899	
90.01633	5258.564		-109.039	
90.07044	5253.089		-109.1755	
90.12455	5247.651		-109.3092	
90.17866	5242.233		-109.4409	
90.23277	5236.805		-109.5717	
90.28687	5231.332		-109.7023	
90.34098	5225.783		-109.8337	
90.39509	5220.125		-109.9666	
90.4492	5214.343		-110.1018	
90.5033	5208.44		-110.24	
90.55741	5202.431		-110.3819	
90.61152	5196.339		-110.5279	
90.66563	5190.183		-110.6787	
90.71973	5183.981		-110.8347	
90.77385	5177.759		-110.9963	
90.82796	5171.54		-111.1638	
90.88206	5165.335		-111.3375	
90.93617	5159.148		-111.5173	
90.99028	5152.977		-111.7031	
91.04439	5146.81		-111.8948	
91.0985	5140.63		-112.0919	
91.1526	5134.422		-112.2939	
91.20671	5128.18		-112.5003	
91.26082	5121.899		-112.7104	
91.31493	5115.58		-112.9235	
91.36903	5109.229		-113.1389	
91.42314	5102.863		-113.3559	
91.47725	5096.502		-113.5737	
91.53136	5090.173		-113.7917	
91.58546	5083.884		-114.009	
91.63957	5077.642		-114.225	
91.69368	5071.439		-114.4388	
91.74779	5065.269		-114.6498	
91.8019	5059.11		-114.8573	
91.856	5052.946		-115.0605	
91.91011	5046.755		-115.2589	
91.96422	5040.525		-115.4517	
92.01833	5034.245		-115.6385	
92.07244	5027.924		-115.8184	
92.12655	5021.565		-115.9912	
92.18066	5015.185		-116.1563	
92.23476	5008.79		-116.3135	
92.28887	5002.392		-116.4626	
92.34298	4995.998		-116.6035	
92.39709	4989.61		-116.7361	
92.45119	4983.225		-116.8222	
92.5053	4976.841		-116.9038	
92.55941	4970.455		-116.9819	
92.61352	4964.065		-117.0573	
92.66763	4957.672		-117.1308	
92.72173	4951.282		-117.2028	
92.77584	4944.893		-117.2738	
92.82995	4938.515		-117.3439	
92.88406	4932.155		-117.4133	
92.93816	4925.825		-117.4821	
92.99227	4919.524		-117.5503	
93.04638	4913.251		-117.6181	
93.10049	4906.999		-117.6854	
93.15459	4900.764		-117.7523	
93.20871	4894.53		-117.8188	
93.26282	4888.282		-117.8849	
93.31693	4881.992		-117.9508	
93.37103	4875.641		-118.0163	
93.42514	4869.209		-118.0816	
93.47925	4862.701		-118.1465	
93.53336	4856.133		-118.2112	
93.58746	4849.547		-118.2756	
93.64157	4842.971		-118.3397	
93.69568	4836.416		-118.4035	
93.74979	4829.886		-118.467	
93.80389	4823.391		-118.5303	
93.858	4816.921		-118.5932	
93.91211	4810.464		-118.6559	
93.96622	4803.998		-118.7183	
94.02032	4797.508		-118.7804	
94.07443	4790.99		-118.8422	
94.12854	4784.504		-118.9037	
94.18265	4778.056		-118.9648	
94.23676	4771.632		-119.0255	
94.29086	4765.229		-119.0859	
94.34497	4758.842		-119.1459	
94.39909	4752.47		-119.2055	
94.45319	4746.115		-119.2647	
94.5073	4739.774		-119.3234	
94.56141	4733.446		-119.3817	
94.61552	4727.126		-119.4396	
94.66962	4720.814		-119.4971	
94.72373	4714.51		-119.5541	
94.77784	4708.211		-119.6107	
94.83195	4701.917		-119.6668	
94.88605	4695.628		-119.7225	
94.94016	4689.347		-119.7778	
94.99427	4683.075		-119.8327	
