T[Â°C]	350nm [counts / mm]	S.D.	First derivative	S.D. of first derivative
20.00057	4346.539		-59.80521	
20.05468	4343.48		-59.83207	
20.10879	4340.417		-59.85809	
20.1629	4337.348		-59.88325	
20.217	4334.273		-59.90752	
20.27111	4331.192		-59.93089	
20.32522	4328.107		-59.95332	
20.37933	4325.016		-59.97479	
20.43344	4321.919		-59.9953	
20.48755	4318.817		-60.01483	
20.54165	4315.709		-60.03335	
20.59576	4312.595		-60.05087	
20.64987	4309.476		-60.06738	
20.70398	4306.351		-60.08286	
20.75809	4303.22		-60.09732	
20.81219	4300.084		-60.11077	
20.8663	4296.94		-60.12321	
20.92041	4293.781		-60.13465	
20.97452	4290.515		-60.1451	
21.02862	4287.248		-60.15458	
21.08273	4283.979		-60.16312	
21.13684	4280.706		-60.17075	
21.19095	4277.422		-60.17749	
21.24506	4274.124		-60.18339	
21.29916	4270.81		-60.18846	
21.35327	4267.482		-60.19276	
21.40738	4264.142		-60.19632	
21.46149	4260.788		-60.19918	
21.5156	4257.417		-60.20141	
21.5697	4254.024		-60.20304	
21.62381	4250.613		-60.20413	
21.67792	4247.192		-60.20474	
21.73203	4243.772		-60.20493	
21.78614	4240.369		-60.20476	
21.84024	4236.994		-60.20431	
21.89435	4233.654		-60.20364	
21.94846	4230.342		-60.20283	
22.00257	4227.041		-60.20195	
22.05668	4223.734		-60.20107	
22.11078	4220.412		-60.20028	
22.16489	4217.078		-60.1996	
22.219	4213.738		-60.19909	
22.27311	4210.403		-60.19868	
22.32722	4207.08		-60.19826	
22.38132	4203.764		-60.19749	
22.43543	4200.451		-60.19576	
22.48954	4197.136		-60.19205	
22.54365	4193.818		-60.18491	
22.59776	4190.496		-60.17262	
22.65187	4187.168		-60.13203	
22.70597	4183.833		-60.09172	
22.76008	4180.486		-60.05203	
22.81419	4177.122		-60.01323	
22.8683	4173.743		-59.97552	
22.92241	4170.357		-59.93906	
22.97651	4166.983		-59.90396	
23.03062	4163.638		-59.87025	
23.08473	4160.332		-59.83796	
23.13884	4157.061		-59.80703	
23.19295	4153.816		-59.77739	
23.24705	4150.595		-59.74892	
23.30116	4147.401		-59.72151	
23.35527	4144.237		-59.69505	
23.40938	4141.107		-59.66944	
23.46348	4138.01		-59.64459	
23.51759	4134.94		-59.62045	
23.5717	4131.886		-59.59695	
23.62581	4128.838		-59.57409	
23.67992	4125.793		-59.55179	
23.73402	4122.747		-59.53003	
23.78813	4119.701		-59.50877	
23.84224	4116.658		-59.48801	
23.89635	4113.614		-59.46775	
23.95046	4110.575		-59.44803	
24.00456	4107.542		-59.42884	
24.05867	4104.514		-59.41022	
24.11278	4101.486		-59.39219	
24.16689	4098.458		-59.37484	
24.221	4095.429		-59.3583	
24.2751	4092.396		-59.34275	
24.32921	4089.345		-59.32843	
24.38332	4086.265		-59.31563	
24.43743	4083.15		-59.30466	
24.49154	4079.997		-59.29587	
24.54564	4076.804		-59.28966	
24.59975	4073.573		-59.28643	
24.65386	4070.311		-59.28659	
24.70797	4067.02		-59.2905	
24.76208	4063.694		-59.29849	
24.81618	4060.332		-59.31077	
24.87029	4056.938		-59.32745	
24.9244	4053.518		-59.34852	
24.97851	4050.089		-59.37382	
25.03262	4046.669		-59.40306	
25.08673	4043.269		-59.43584	
25.14083	4039.887		-59.4716	
25.19494	4036.52		-59.50964	
25.24905	4033.164		-59.54916	
25.30316	4029.816		-59.58923	
25.35727	4026.476		-59.62889	
25.41137	4023.144		-59.66717	
25.46548	4019.823		-59.70316	
25.51959	4016.512		-59.736	
25.5737	4013.208		-59.76493	
25.62781	4009.915		-59.78926	
25.68191	4006.636		-59.80838	
25.73602	4003.383		-59.82176	
25.79013	4000.168		-59.829	
25.84424	3997.002		-59.82984	
25.89835	3993.883		-59.8241	
25.95245	3990.806		-59.81171	
26.00656	3987.753		-59.79268	
26.06067	3984.704		-59.76707	
26.11478	3981.639		-59.73504	
26.16888	3978.549		-59.69684	
26.22299	3975.431		-59.65281	
26.2771	3972.285		-59.60337	
26.33121	3969.112		-59.54906	
26.38532	3965.916		-59.49048	
26.43942	3962.699		-59.4283	
26.49353	3959.464		-59.36321	
26.54764	3956.211		-59.29599	
26.60175	3952.941		-59.22744	
26.65586	3949.652		-59.15837	
26.70996	3946.34		-59.08961	
26.76407	3943.002		-59.02199	
26.81818	3939.639		-58.95624	
26.87229	3936.248		-58.89304	
26.9264	3932.83		-58.83294	
26.9805	3929.389		-58.77639	
27.03461	3925.938		-58.72376	
27.08872	3922.48		-58.67529	
27.14283	3919.03		-58.63109	
27.19694	3915.608		-58.59115	
27.25105	3912.235		-58.55533	
27.30515	3908.93		-58.52341	
27.35926	3905.705		-58.49508	
27.41337	3902.565		-58.46997	
27.46748	3899.5		-58.44767	
27.52159	3896.494		-58.42772	
27.57569	3893.536		-58.40961	
27.6298	3890.612		-58.39282	
27.68391	3887.708		-58.37679	
27.73802	3884.812		-58.36099	
27.79213	3881.918		-58.34491	
27.84623	3879.021		-58.32809	
27.90034	3876.118		-58.31016	
27.95445	3873.209		-58.29076	
28.00856	3870.295		-58.2696	
28.06267	3867.38		-58.24646	
28.11677	3864.459		-58.22121	
28.17088	3861.529		-58.19383	
28.22499	3858.587		-58.16441	
28.2791	3855.629		-58.13311	
28.33321	3852.642		-58.10019	
28.38731	3849.615		-58.06591	
28.44142	3846.542		-58.03057	
28.49553	3843.426		-57.99448	
28.54964	3840.274		-57.95797	
28.60374	3837.094		-57.92139	
28.65785	3833.885		-57.88511	
28.71196	3830.642		-57.84949	
28.76607	3827.367		-57.81493	
28.82018	3824.062		-57.78177	
28.87428	3820.732		-57.75035	
28.92839	3817.388		-57.72099	
28.9825	3814.046		-57.69392	
29.03661	3810.719		-57.66935	
29.09072	3807.411		-57.64744	
29.14482	3804.123		-57.62828	
29.19893	3800.855		-57.61189	
29.25304	3797.611		-57.59826	
29.30715	3794.396		-57.5873	
29.36126	3791.216		-57.5789	
29.41537	3788.081		-57.57286	
29.46947	3784.99		-57.56892	
29.52358	3781.93		-57.56672	
29.57769	3778.88		-57.56585	
29.6318	3775.817		-57.56583	
29.68591	3772.729		-57.56614	
29.74001	3769.611		-57.56627	
29.79412	3766.462		-57.5657	
29.84823	3763.283		-57.56395	
29.90234	3760.079		-57.56056	
29.95645	3756.863		-57.5551	
30.01055	3753.653		-57.54715	
30.06466	3750.46		-57.5364	
30.11877	3747.294		-57.52259	
30.17288	3744.159		-57.50556	
30.22699	3741.062		-57.48524	
30.28109	3738.004		-57.46161	
30.3352	3734.98		-57.43471	
30.38931	3731.98		-57.40464	
30.44342	3728.99		-57.37154	
30.49753	3726		-57.33556	
30.55163	3723.002		-57.29697	
30.60574	3719.99		-57.25607	
30.65985	3716.955		-57.21321	
30.71396	3713.895		-57.16885	
30.76807	3710.811		-57.12347	
30.82217	3707.713		-57.07763	
30.87628	3704.618		-57.03185	
30.93039	3701.544		-56.98667	
30.9845	3698.506		-56.94259	
31.03861	3695.508		-56.90009	
31.09271	3692.547		-56.85965	
31.14682	3689.61		-56.82167	
31.20093	3686.681		-56.7865	
31.25504	3683.744		-56.75441	
31.30914	3680.775		-56.72563	
31.36325	3677.76		-56.70032	
31.41736	3674.694		-56.67856	
31.47147	3671.585		-56.66035	
31.52558	3668.442		-56.64564	
31.57969	3665.272		-56.63429	
31.63379	3662.086		-56.62614	
31.6879	3658.898		-56.62099	
31.74201	3655.719		-56.61863	
31.79612	3652.556		-56.61885	
31.85023	3649.406		-56.62136	
31.90433	3646.266		-56.62586	
31.95844	3643.141		-56.63197	
32.01255	3640.043		-56.63927	
32.06666	3636.978		-56.64726	
32.12077	3633.945		-56.6554	
32.17487	3630.937		-56.66309	
32.22898	3627.942		-56.66973	
32.28309	3624.946		-56.67472	
32.3372	3621.932		-56.67744	
32.3913	3618.894		-56.6773	
32.44542	3615.835		-56.67372	
32.49952	3612.768		-56.66626	
32.55363	3609.706		-56.65455	
32.60774	3606.658		-56.63839	
32.66185	3603.635		-56.61769	
32.71595	3600.64		-56.59245	
32.77006	3597.671		-56.56279	
32.82417	3594.719		-56.52889	
32.87828	3591.782		-56.491	
32.93238	3588.853		-56.44946	
32.98649	3585.917		-56.40463	
33.0406	3582.96		-56.35697	
33.09471	3579.967		-56.30693	
33.14882	3576.93		-56.25496	
33.20293	3573.847		-56.20145	
33.25703	3570.719		-56.14678	
33.31114	3567.552		-56.09129	
33.36525	3564.349		-56.0353	
33.41936	3561.12		-55.97911	
33.47346	3557.876		-55.92303	
33.52757	3554.628		-55.86731	
33.58168	3551.387		-55.81223	
33.63579	3548.162		-55.758	
33.6899	3544.965		-55.70486	
33.74401	3541.802		-55.65302	
33.79811	3538.672		-55.60265	
33.85222	3535.559		-55.55394	
33.90633	3532.444		-55.50702	
33.96044	3529.317		-55.46201	
34.01455	3526.179		-55.41899	
34.06865	3523.039		-55.37797	
34.12276	3519.904		-55.33893	
34.17687	3516.791		-55.30177	
34.23098	3513.718		-55.26633	
34.28509	3510.695		-55.23241	
34.3392	3507.734		-55.19971	
34.3933	3504.843		-55.16792	
34.44741	3502.024		-55.13665	
34.50152	3499.272		-55.10559	
34.55563	3496.577		-55.07446	
34.60973	3493.92		-55.04306	
34.66384	3491.277		-55.01128	
34.71795	3488.623		-54.97905	
34.77206	3485.931		-54.94636	
34.82617	3483.192		-54.91324	
34.88028	3480.41		-54.87979	
34.93438	3477.597		-54.84612	
34.98849	3474.762		-54.81242	
35.0426	3471.908		-54.77887	
35.09671	3469.038		-54.74574	
35.15081	3466.147		-54.71325	
35.20492	3463.237		-54.68161	
35.25903	3460.304		-54.65102	
35.31314	3457.351		-54.62168	
35.36724	3454.382		-54.59372	
35.42135	3451.403		-54.56728	
35.47546	3448.417		-54.54241	
35.52957	3445.42		-54.51913	
35.58368	3442.406		-54.49739	
35.63779	3439.37		-54.47706	
35.69189	3436.316		-54.45803	
35.746	3433.252		-54.44015	
35.80011	3430.192		-54.42329	
35.85422	3427.147		-54.4073	
35.90833	3424.12		-54.39207	
35.96243	3421.117		-54.37751	
36.01654	3418.149		-54.36356	
36.07065	3415.225		-54.35016	
36.12476	3412.344		-54.33723	
36.17887	3409.491		-54.32467	
36.23298	3406.646		-54.31238	
36.28708	3403.791		-54.30019	
36.34119	3400.914		-54.28792	
36.3953	3398.003		-54.27533	
36.44941	3395.052		-54.26217	
36.50351	3392.06		-54.24818	
36.55762	3389.034		-54.2332	
36.61173	3385.982		-54.21706	
36.66584	3382.92		-54.19965	
36.71995	3379.858		-54.18091	
36.77406	3376.796		-54.16082	
36.82816	3373.734		-54.13939	
36.88227	3370.678		-54.1167	
36.93638	3367.641		-54.09288	
36.99049	3364.63		-54.06813	
37.04459	3361.642		-54.04271	
37.0987	3358.665		-54.01692	
37.15281	3355.682		-53.99109	
37.20692	3352.681		-53.96555	
37.26103	3349.655		-53.94062	
37.31514	3346.607		-53.9166	
37.36924	3343.552		-53.89375	
37.42335	3340.508		-53.87234	
37.47746	3337.491		-53.85259	
37.53157	3334.516		-53.83471	
37.58567	3331.593		-53.81884	
37.63978	3328.731		-53.80509	
37.69389	3325.929		-53.79348	
37.748	3323.184		-53.784	
37.8021	3320.49		-53.77657	
37.85622	3317.835		-53.7711	
37.91032	3315.199		-53.76744	
37.96443	3312.553		-53.76544	
38.01854	3309.883		-53.76489	
38.07265	3307.178		-53.76556	
38.12675	3304.433		-53.76717	
38.18086	3301.646		-53.76942	
38.23497	3298.822		-53.77197	
38.28908	3295.966		-53.77451	
38.34319	3293.09		-53.77666	
38.39729	3290.204		-53.77811	
38.4514	3287.323		-53.77853	
38.50551	3284.454		-53.77761	
38.55962	3281.598		-53.7751	
38.61373	3278.756		-53.77073	
38.66784	3275.932		-53.76428	
38.72194	3273.118		-53.75554	
38.77605	3270.304		-53.74431	
38.83016	3267.475		-53.73044	
38.88427	3264.621		-53.7138	
38.93837	3261.74		-53.69434	
38.99248	3258.835		-53.67205	
39.04659	3255.909		-53.64699	
39.1007	3252.967		-53.61927	
39.15481	3250.012		-53.58904	
39.20892	3247.045		-53.55647	
39.26302	3244.06		-53.52175	
39.31713	3241.058		-53.48507	
39.37124	3238.04		-53.44668	
39.42535	3235.013		-53.40682	
39.47945	3231.989		-53.36575	
39.53356	3228.971		-53.32375	
39.58767	3225.958		-53.2811	
39.64178	3222.947		-53.23799	
39.69589	3219.935		-53.19458	
39.75	3216.918		-53.15099	
39.8041	3213.898		-53.10727	
39.85821	3210.871		-53.06346	
39.91232	3207.835		-53.01957	
39.96643	3204.786		-52.97564	
40.02053	3201.724		-52.93165	
40.07464	3198.649		-52.88755	
40.12875	3195.559		-52.84325	
40.18286	3192.461		-52.79868	
40.23697	3189.368		-52.75374	
40.29108	3186.292		-52.70837	
40.34518	3183.248		-52.66254	
40.39929	3180.251		-52.61621	
40.4534	3177.308		-52.56936	
40.50751	3174.423		-52.52196	
40.56161	3171.59		-52.47395	
40.61572	3168.813		-52.42526	
40.66983	3166.09		-52.37579	
40.72394	3163.414		-52.32541	
40.77805	3160.775		-52.27402	
40.83215	3158.161		-52.22154	
40.88626	3155.563		-52.16793	
40.94037	3152.973		-52.1132	
40.99448	3150.387		-52.05743	
41.04859	3147.797		-52.00076	
41.1027	3145.205		-51.94342	
41.1568	3142.62		-51.88567	
41.21091	3140.047		-51.82789	
41.26502	3137.488		-51.77047	
41.31913	3134.94		-51.71387	
41.37323	3132.396		-51.65855	
41.42734	3129.846		-51.60502	
41.48145	3127.284		-51.55385	
41.53556	3124.702		-51.50558	
41.58967	3122.081		-51.46072	
41.64378	3119.406		-51.41975	
41.69788	3116.674		-51.38303	
41.75199	3113.888		-51.35089	
41.8061	3111.058		-51.3236	
41.86021	3108.199		-51.30136	
41.91431	3105.325		-51.2843	
41.96842	3102.451		-51.27251	
42.02253	3099.585		-51.26601	
42.07664	3096.723		-51.26471	
42.13075	3093.863		-51.26847	
42.18486	3091.002		-51.27703	
42.23896	3088.144		-51.2901	
42.29307	3085.291		-51.30728	
42.34718	3082.447		-51.32813	
42.40129	3079.613		-51.35212	
42.45539	3076.787		-51.37862	
42.5095	3073.961		-51.40692	
42.56361	3071.133		-51.4362	
42.61772	3068.305		-51.46557	
42.67183	3065.481		-51.49411	
42.72594	3062.663		-51.52086	
42.78004	3059.849		-51.54492	
42.83415	3057.042		-51.56541	
42.88826	3054.243		-51.58155	
42.94237	3051.456		-51.59261	
42.99648	3048.686		-51.59799	
43.05058	3045.932		-51.59717	
43.10469	3043.191		-51.58977	
43.1588	3040.454		-51.57552	
43.21291	3037.712		-51.55427	
43.26701	3034.955		-51.52602	
43.32113	3032.176		-51.49084	
43.37523	3029.369		-51.44896	
43.42934	3026.537		-51.40068	
43.48345	3023.686		-51.34639	
43.53756	3020.823		-51.28655	
43.59166	3017.948		-51.22169	
43.64577	3015.063		-51.15239	
43.69988	3012.171		-51.07924	
43.75399	3009.274		-51.00289	
43.80809	3006.379		-50.92398	
43.8622	3003.49		-50.84316	
43.91631	3000.609		-50.76104	
43.97042	2997.736		-50.67823	
44.02453	2994.866		-50.59525	
44.07864	2991.995		-50.51258	
44.13274	2989.118		-50.43061	
44.18685	2986.232		-50.34968	
44.24096	2983.342		-50.27006	
44.29507	2980.453		-50.192	
44.34917	2977.573		-50.11571	
44.40328	2974.703		-50.04137	
44.45739	2971.849		-49.96913	
44.5115	2969.021		-49.89906	
44.56561	2966.232		-49.8312	
44.61972	2963.5		-49.76552	
44.67382	2960.837		-49.70192	
44.72793	2958.246		-49.6403	
44.78204	2955.723		-49.58051	
44.83615	2953.25		-49.52247	
44.89025	2950.806		-49.46605	
44.94436	2948.372		-49.41119	
44.99847	2945.935		-49.35779	
45.05258	2943.487		-49.30579	
45.10669	2941.032		-49.25513	
45.1608	2938.579		-49.2058	
45.2149	2936.139		-49.15778	
45.26901	2933.712		-49.11106	
45.32312	2931.295		-49.06566	
45.37723	2928.882		-49.02163	
45.43134	2926.464		-48.97903	
45.48544	2924.037		-48.93798	
45.53955	2921.593		-48.89861	
45.59366	2919.122		-48.86107	
45.64777	2916.612		-48.82552	
45.70187	2914.058		-48.79211	
45.75599	2911.46		-48.76096	
45.81009	2908.824		-48.73219	
45.8642	2906.158		-48.70592	
45.91831	2903.468		-48.6822	
45.97242	2900.762		-48.66104	
46.02652	2898.05		-48.64241	
46.08063	2895.336		-48.62621	
46.13474	2892.624		-48.61234	
46.18885	2889.916		-48.60067	
46.24295	2887.212		-48.59102	
46.29706	2884.518		-48.58323	
46.35117	2881.836		-48.57711	
46.40528	2879.163		-48.57249	
46.45939	2876.495		-48.56919	
46.5135	2873.83		-48.56701	
46.5676	2871.166		-48.56577	
46.62171	2868.501		-48.56523	
46.67582	2865.835		-48.56516	
46.72993	2863.167		-48.56532	
46.78403	2860.505		-48.56546	
46.83814	2857.854		-48.56535	
46.89225	2855.217		-48.56478	
46.94636	2852.585		-48.56351	
47.00047	2849.944		-48.56136	
47.05458	2847.282		-48.55816	
47.10868	2844.589		-48.55376	
47.16279	2841.867		-48.54804	
47.2169	2839.122		-48.54089	
47.27101	2836.365		-48.5322	
47.32512	2833.601		-48.52187	
47.37922	2830.832		-48.50979	
47.43333	2828.061		-48.4959	
47.48744	2825.288		-48.48014	
47.54155	2822.519		-48.46243	
47.59566	2819.759		-48.44272	
47.64977	2817.013		-48.42096	
47.70387	2814.291		-48.39712	
47.75798	2811.599		-48.3712	
47.81209	2808.938		-48.34323	
47.8662	2806.306		-48.31322	
47.9203	2803.694		-48.28119	
47.97441	2801.098		-48.24718	
48.02852	2798.518		-48.21122	
48.08263	2795.961		-48.1734	
48.13674	2793.435		-48.13383	
48.19085	2790.945		-48.09266	
48.24495	2788.49		-48.05005	
48.29906	2786.061		-48.00624	
48.35317	2783.646		-47.96147	
48.40728	2781.232		-47.91601	
48.46138	2778.812		-47.87016	
48.51549	2776.385		-47.82423	
48.5696	2773.954		-47.77854	
48.62371	2771.515		-47.73339	
48.67781	2769.061		-47.68907	
48.73193	2766.586		-47.64579	
48.78603	2764.092		-47.60373	
48.84014	2761.58		-47.56305	
48.89425	2759.052		-47.52386	
48.94836	2756.505		-47.48625	
49.00246	2753.934		-47.45036	
49.05657	2751.33		-47.4163	
49.11068	2748.694		-47.38424	
49.16479	2746.034		-47.35431	
49.21889	2743.366		-47.32663	
49.273	2740.705		-47.30127	
49.32711	2738.063		-47.27823	
49.38122	2735.446		-47.25745	
49.43533	2732.852		-47.23879	
49.48944	2730.275		-47.22204	
49.54354	2727.701		-47.20696	
49.59765	2725.118		-47.19325	
49.65176	2722.519		-47.1806	
49.70587	2719.906		-47.16871	
49.75998	2717.289		-47.15722	
49.81408	2714.684		-47.14574	
49.86819	2712.099		-47.13387	
49.9223	2709.539		-47.12114	
49.97641	2707.002		-47.10707	
50.03052	2704.482		-47.09124	
50.08463	2701.98		-47.07326	
50.13873	2699.495		-47.05285	
50.19284	2697.027		-47.02983	
50.24695	2694.574		-47.00415	
50.30106	2692.129		-46.97583	
50.35516	2689.682		-46.94498	
50.40927	2687.225		-46.91178	
50.46338	2684.752		-46.87646	
50.51749	2682.261		-46.83931	
50.5716	2679.749		-46.80066	
50.62571	2677.208		-46.7609	
50.67981	2674.635		-46.72041	
50.73392	2672.03		-46.6796	
50.78803	2669.401		-46.63885	
50.84214	2666.764		-46.59853	
50.89624	2664.13		-46.55896	
50.95035	2661.503		-46.5204	
51.00446	2658.883		-46.48311	
51.05857	2656.262		-46.4473	
51.11267	2653.632		-46.41312	
51.16679	2650.992		-46.3807	
51.22089	2648.345		-46.35006	
51.275	2645.7		-46.32119	
51.32911	2643.064		-46.29397	
51.38322	2640.447		-46.26826	
51.43732	2637.861		-46.2438	
51.49143	2635.313		-46.22029	
51.54554	2632.8		-46.19736	
51.59965	2630.314		-46.17457	
51.65376	2627.849		-46.15148	
51.70786	2625.397		-46.12762	
51.76197	2622.959		-46.10254	
51.81608	2620.538		-46.07576	
51.87019	2618.142		-46.04681	
51.9243	2615.773		-46.01521	
51.9784	2613.435		-45.98052	
52.03251	2611.124		-45.94238	
52.08662	2608.833		-45.90054	
52.14073	2606.561		-45.85487	
52.19484	2604.294		-45.80537	
52.24894	2602.025		-45.75216	
52.30305	2599.745		-45.69546	
52.35716	2597.451		-45.63558	
52.41127	2595.142		-45.57293	
52.46538	2592.819		-45.50797	
52.51949	2590.479		-45.44128	
52.57359	2588.11		-45.37352	
52.6277	2585.703		-45.3054	
52.68181	2583.244		-45.2377	
52.73592	2580.724		-45.17119	
52.79002	2578.148		-45.10665	
52.84413	2575.531		-45.04478	
52.89824	2572.889		-44.98625	
52.95235	2570.238		-44.93162	
53.00646	2567.593		-44.88137	
53.06057	2564.962		-44.83591	
53.11467	2562.344		-44.79549	
53.16878	2559.737		-44.76025	
53.22289	2557.139		-44.73019	
53.277	2554.547		-44.70523	
53.3311	2551.958		-44.68514	
53.38521	2549.372		-44.66963	
53.43932	2546.797		-44.65829	
53.49343	2544.241		-44.6506	
53.54753	2541.714		-44.64592	
53.60165	2539.218		-44.64359	
53.65575	2536.754		-44.64288	
53.70986	2534.322		-44.64306	
53.76397	2531.919		-44.64338	
53.81808	2529.547		-44.64308	
53.87218	2527.207		-44.64145	
53.92629	2524.908		-44.63779	
53.9804	2522.656		-44.6315	
54.03451	2520.455		-44.622	
54.08862	2518.307		-44.60877	
54.14272	2516.202		-44.59137	
54.19683	2514.125		-44.56946	
54.25094	2512.054		-44.54282	
54.30505	2509.967		-44.51133	
54.35916	2507.848		-44.47503	
54.41327	2505.689		-44.43409	
54.46737	2503.487		-44.38881	
54.52148	2501.236		-44.33964	
54.57559	2498.939		-44.28712	
54.6297	2496.599		-44.23184	
54.6838	2494.214		-44.17449	
54.73791	2491.784		-44.11575	
54.79202	2489.313		-44.05635	
54.84613	2486.812		-43.99701	
54.90024	2484.29		-43.93842	
54.95435	2481.754		-43.88124	
55.00845	2479.207		-43.82607	
55.06256	2476.647		-43.77338	
55.11667	2474.076		-43.72352	
55.17078	2471.496		-43.67673	
55.22488	2468.913		-43.63311	
55.27899	2466.332		-43.59267	
55.3331	2463.751		-43.55536	
55.38721	2461.173		-43.52106	
55.44132	2458.602		-43.48958	
55.49543	2456.048		-43.46066	
55.54953	2453.522		-43.43396	
55.60364	2451.033		-43.40909	
55.65775	2448.59		-43.3856	
55.71186	2446.2		-43.363	
55.76596	2443.863		-43.3408	
55.82007	2441.573		-43.3185	
55.87418	2439.318		-43.29565	
55.92829	2437.081		-43.27179	
55.9824	2434.85		-43.24649	
56.03651	2432.623		-43.21937	
56.09061	2430.4		-43.19007	
56.14472	2428.18		-43.15831	
56.19883	2425.958		-43.12386	
56.25294	2423.734		-43.08657	
56.30704	2421.51		-43.04639	
56.36115	2419.291		-43.00339	
56.41526	2417.078		-42.95769	
56.46937	2414.871		-42.90953	
56.52348	2412.665		-42.8592	
56.57758	2410.458		-42.80706	
56.63169	2408.247		-42.75352	
56.6858	2406.023		-42.69902	
56.73991	2403.772		-42.64401	
56.79402	2401.486		-42.58894	
56.84813	2399.164		-42.53422	
56.90223	2396.813		-42.48022	
56.95634	2394.444		-42.42723	
57.01045	2392.062		-42.37548	
57.06456	2389.672		-42.32508	
57.11866	2387.283		-42.27606	
57.17277	2384.903		-42.22839	
57.22688	2382.538		-42.18201	
57.28099	2380.192		-42.13683	
57.3351	2377.866		-42.09275	
57.38921	2375.563		-42.04964	
57.44331	2373.282		-42.00734	
57.49742	2371.024		-41.96568	
57.55153	2368.783		-41.92442	
57.60564	2366.559		-41.88333	
57.65974	2364.345		-41.84211	
57.71385	2362.141		-41.80047	
57.76796	2359.942		-41.75814	
57.82207	2357.746		-41.7148	
57.87618	2355.552		-41.6702	
57.93029	2353.356		-41.6241	
57.98439	2351.161		-41.5763	
58.0385	2348.972		-41.52667	
58.09261	2346.791		-41.47516	
58.14672	2344.615		-41.42176	
58.20082	2342.44		-41.36654	
58.25493	2340.267		-41.30962	
58.30904	2338.087		-41.25119	
58.36315	2335.896		-41.19149	
58.41726	2333.682		-41.13079	
58.47137	2331.438		-41.06942	
58.52547	2329.156		-41.00775	
58.57958	2326.836		-40.94619	
58.63369	2324.478		-40.8852	
58.6878	2322.084		-40.82521	
58.74191	2319.659		-40.76665	
58.79601	2317.217		-40.70988	
58.85012	2314.768		-40.65519	
58.90423	2312.328		-40.60279	
58.95834	2309.912		-40.55281	
59.01245	2307.529		-40.50528	
59.06656	2305.19		-40.46022	
59.12066	2302.895		-40.41755	
59.17477	2300.641		-40.3772	
59.22888	2298.427		-40.33904	
59.28299	2296.254		-40.30289	
59.33709	2294.124		-40.26855	
59.3912	2292.034		-40.23576	
59.44531	2289.98		-40.20428	
59.49942	2287.959		-40.17379	
59.55352	2285.967		-40.14398	
59.60763	2283.997		-40.11453	
59.66174	2282.041		-40.08509	
59.71585	2280.086		-40.0553	
59.76996	2278.123		-40.02481	
59.82407	2276.147		-39.99329	
59.87817	2274.158		-39.96043	
59.93228	2272.156		-39.926	
59.98639	2270.14		-39.88978	
60.0405	2268.107		-39.85163	
60.0946	2266.056		-39.81144	
60.14871	2263.989		-39.76915	
60.20282	2261.914		-39.72469	
60.25693	2259.836		-39.67805	
60.31104	2257.76		-39.62924	
60.36515	2255.687		-39.5783	
60.41925	2253.609		-39.52527	
60.47336	2251.518		-39.47026	
60.52747	2249.407		-39.41334	
60.58158	2247.269		-39.35461	
60.63568	2245.102		-39.29418	
60.68979	2242.906		-39.23211	
60.7439	2240.684		-39.1684	
60.79801	2238.442		-39.10303	
60.85212	2236.182		-39.03592	
60.90623	2233.912		-38.96692	
60.96033	2231.638		-38.89582	
61.01444	2229.375		-38.82238	
61.06855	2227.135		-38.74628	
61.12266	2224.925		-38.66717	
61.17677	2222.74		-38.58463	
61.23087	2220.573		-38.49817	
61.28498	2218.418		-38.40731	
61.33909	2216.268		-38.31152	
61.3932	2214.116		-38.21029	
61.44731	2211.958		-38.10314	
61.50142	2209.795		-37.9896	
61.55552	2207.628		-37.86925	
61.60963	2205.458		-37.7417	
61.66374	2203.288		-37.60662	
61.71785	2201.12		-37.46373	
61.77195	2198.958		-37.31286	
61.82606	2196.8		-37.15395	
61.88017	2194.651		-36.98706	
61.93428	2192.522		-36.81235	
61.98838	2190.423		-36.63005	
62.0425	2188.359		-36.44041	
62.0966	2186.328		-36.24379	
62.15071	2184.324		-36.04046	
62.20482	2182.345		-35.83074	
62.25893	2180.386		-35.61493	
62.31303	2178.441		-35.39333	
62.36714	2176.5		-35.16626	
62.42125	2174.555		-34.93399	
62.47536	2172.605		-34.69684	
62.52946	2170.649		-34.45504	
62.58357	2168.691		-34.20882	
62.63768	2166.738		-33.95834	
62.69179	2164.797		-33.70368	
62.7459	2162.874		-33.44495	
62.80001	2160.973		-33.18211	
62.85411	2159.096		-32.91513	
62.90822	2157.245		-32.64386	
62.96233	2155.422		-32.36807	
63.01644	2153.635		-32.08743	
63.07055	2151.895		-31.80151	
63.12465	2150.203		-31.50976	
63.17876	2148.553		-31.21154	
63.23287	2146.938		-30.90615	
63.28698	2145.351		-30.59281	
63.34109	2143.791		-30.27075	
63.3952	2142.256		-29.93908	
63.4493	2140.744		-29.59689	
63.50341	2139.257		-29.24326	
63.55752	2137.792		-28.87724	
63.61163	2136.348		-28.49792	
63.66573	2134.923		-28.10443	
63.71984	2133.521		-27.69597	
63.77395	2132.145		-27.27183	
63.82806	2130.789		-26.83138	
63.88217	2129.448		-26.37407	
63.93628	2128.114		-25.89949	
63.99038	2126.782		-25.40718	
64.04449	2125.447		-24.89674	
64.09859	2124.1		-24.36769	
64.15271	2122.739		-23.81955	
64.20682	2121.366		-23.25199	
64.26093	2119.983		-22.66442	
64.31503	2118.587		-22.05632	
64.36914	2117.173		-21.42711	
64.42325	2115.739		-20.77617	
64.47736	2114.285		-20.10284	
64.53146	2112.815		-19.40643	
64.58557	2111.335		-18.68616	
64.63968	2109.86		-17.94123	
64.69379	2108.404		-17.17074	
64.74789	2106.978		-16.37377	
64.802	2105.591		-15.54937	
64.85611	2104.25		-14.69652	
64.91022	2102.963		-13.81411	
64.96432	2101.732		-12.90098	
65.01843	2100.56		-11.95591	
65.07254	2099.45		-10.9776	
65.12665	2098.405		-9.964734	
65.18076	2097.431		-8.915964	
65.23486	2096.537		-7.829866	
65.28897	2095.726		-6.705109	
65.34308	2095		-5.540201	
65.39719	2094.36		-4.333501	
65.4513	2093.806		-3.083798	
65.50541	2093.337		-1.789458	
65.55952	2092.951		-0.4490517	
65.61362	2092.648		0.9387684	
65.66773	2092.432		2.375264	
65.72184	2092.304		3.861616	
65.77595	2092.26		5.398919	
65.83006	2092.299		6.988185	
65.88416	2092.422		8.630329	
65.93827	2092.63		10.32627	
65.99238	2092.927		12.07679	
66.04649	2093.312		13.88262	
66.10059	2093.783		15.74444	
66.1547	2094.334		17.66289	
66.20881	2094.958		19.63857	
66.26292	2095.66		21.67205	
66.31702	2096.441		23.76391	
66.37113	2097.302		25.91469	
66.42524	2098.245		28.12499	
66.47935	2099.277		30.39523	
66.53345	2100.406		32.72602	
66.58757	2101.647		35.11823	
66.64168	2103.01		37.57188	
66.69579	2104.503		40.08789	
66.74989	2106.138		42.66699	
66.804	2107.923		45.31009	
66.85811	2109.861		48.01804	
66.91222	2111.952		50.79181	
66.96632	2114.19		53.63241	
67.02043	2116.574		56.54094	
67.07454	2119.106		59.51851	
67.12865	2121.789		62.56625	
67.18275	2124.632		65.68534	
67.23686	2127.642		68.87695	
67.29097	2130.824		72.14226	
67.34508	2134.182		75.48246	
67.39919	2137.722		78.89868	
67.45329	2141.449		82.39198	
67.5074	2145.367		85.96331	
67.56151	2149.485		89.61349	
67.61562	2153.815		93.34333	
67.66972	2158.362		97.15327	
67.72383	2163.126		101.0439	
67.77794	2168.099		105.0155	
67.83205	2173.276		109.069	
67.88616	2178.647		113.2035	
67.94027	2184.212		117.4195	
67.99438	2189.977		121.7169	
68.04848	2195.95		126.0958	
68.10259	2202.137		130.5559	
68.1567	2208.538		135.0969	
68.21081	2215.157		139.7182	
68.26492	2222.003		144.4194	
68.31902	2229.088		149.1998	
68.37313	2236.426		154.0585	
68.42724	2244.031		158.9947	
68.48135	2251.914		164.0072	
68.53545	2260.08		169.0949	
68.58956	2268.536		174.2565	
68.64367	2277.288		179.4905	
68.69778	2286.344		184.7957	
68.75188	2295.716		190.1706	
68.80599	2305.416		195.6137	
68.8601	2315.451		201.1237	
68.91421	2325.825		206.6989	
68.96832	2336.534		212.3378	
69.02243	2347.574		218.0395	
69.07654	2358.944		223.8008	
69.13065	2370.652		229.6207	
69.18475	2382.709		235.4974	
69.23886	2395.131		241.4288	
69.29297	2407.928		247.4126	
69.34708	2421.108		253.4465	
69.40118	2434.672		259.5275	
69.45529	2448.621		265.6525	
69.5094	2462.956		271.8179	
69.56351	2477.676		278.0196	
69.61761	2492.779		284.2532	
69.67172	2508.263		290.5136	
69.72583	2524.122		296.7954	
69.77994	2540.352		303.0925	
69.83405	2556.949		309.3983	
69.88815	2573.917		315.7055	
69.94226	2591.25		322.0066	
69.99637	2608.946		328.293	
70.05048	2627.004		334.5559	
70.10458	2645.425		340.7856	
70.15869	2664.214		346.9721	
70.21281	2683.379		353.1056	
70.26691	2702.917		359.1729	
70.32102	2722.834		365.1631	
70.37513	2743.131		371.064	
70.42924	2763.819		376.863	
70.48335	2784.907		382.5468	
70.53745	2806.401		388.1021	
70.59156	2828.297		393.5153	
70.64567	2850.587		398.7728	
70.69978	2873.261		403.8609	
70.75388	2896.312		408.7658	
70.80799	2919.73		413.4741	
70.8621	2943.507		417.9724	
70.91621	2967.638		422.2474	
70.97031	2992.118		426.2867	
71.02442	3016.946		430.0778	
71.07853	3042.12		433.6093	
71.13264	3067.643		436.8703	
71.18674	3093.52		439.8506	
71.24085	3119.761		442.5406	
71.29496	3146.373		444.9322	
71.34907	3173.361		447.0177	
71.40318	3200.726		448.7902	
71.45729	3228.459		450.2441	
71.5114	3256.533		451.3743	
71.56551	3284.933		452.1771	
71.61961	3313.64		452.6501	
71.67372	3342.627		452.7905	
71.72783	3371.859		452.598	
71.78194	3401.296		452.0725	
71.83604	3430.898		451.2151	
71.89015	3460.618		450.0275	
71.94426	3490.41		448.5124	
71.99837	3520.226		446.6733	
72.05247	3550.024		444.5144	
72.10658	3579.765		442.0405	
72.16069	3609.414		439.2573	
72.2148	3638.937		436.1708	
72.26891	3668.289		432.7878	
72.32301	3697.417		429.1154	
72.37712	3726.255		425.1613	
72.43123	3754.733		420.9337	
72.48534	3782.778		416.4406	
72.53944	3810.318		411.6918	
72.59355	3837.287		406.6962	
72.64767	3863.629		401.4627	
72.70177	3889.29		396.0027	
72.75588	3914.233		390.3258	
72.80999	3938.426		384.4426	
72.8641	3961.838		378.3634	
72.91821	3984.453		372.0994	
72.97231	4006.267		365.6618	
73.02642	4027.288		359.0622	
73.08053	4047.522		352.3123	
73.13464	4066.975		345.424	
73.18874	4085.651		338.4099	
73.24285	4103.561		331.2826	
73.29696	4120.71		324.0551	
73.35107	4137.102		316.7404	
73.40517	4152.737		309.3523	
73.45928	4167.618		301.9044	
73.51339	4181.756		294.4109	
73.5675	4195.17		286.8859	
73.6216	4207.896		279.3439	
73.67571	4219.976		271.7995	
73.72982	4231.464		264.2672	
73.78393	4242.411		256.7616	
73.83804	4252.857		249.2962	
73.89215	4262.833		241.8875	
73.94626	4272.375		234.5486	
74.00037	4281.512		227.2932	
74.05447	4290.267		220.1345	
74.10858	4298.652		213.0857	
74.16269	4306.683		206.1589	
74.2168	4314.375		199.3656	
74.2709	4321.762		192.7164	
74.32501	4328.878		186.2211	
74.37912	4335.754		179.8885	
74.43323	4342.416		173.7265	
74.48734	4348.887		167.742	
74.54144	4355.187		161.9406	
74.59555	4361.328		156.327	
74.64966	4367.321		150.9047	
74.70377	4373.175		145.676	
74.75787	4378.896		140.6419	
74.81198	4384.481		135.8026	
74.86609	4389.921		131.1572	
74.9202	4395.201		126.703	
74.9743	4400.313		122.4373	
75.02841	4405.258		118.3561	
75.08253	4410.039		114.454	
75.13663	4414.666		110.7265	
75.19074	4419.148		107.1667	
75.24485	4423.496		103.7677	
75.29896	4427.721		100.5225	
75.35307	4431.836		97.42316	
75.40717	4435.852		94.46172	
75.46128	4439.776		91.6301	
75.51539	4443.607		88.92014	
75.5695	4447.343		86.32375	
75.6236	4450.981		83.83304	
75.67771	4454.527		81.44035	
75.73182	4457.996		79.13836	
75.78593	4461.393		76.92014	
75.84003	4464.722		74.77916	
75.89414	4467.986		72.70938	
75.94825	4471.2		70.70523	
76.00236	4474.383		68.76163	
76.05647	4477.552		66.87401	
76.11057	4480.717		65.03826	
76.16468	4483.891		63.25068	
76.21879	4487.091		61.50807	
76.2729	4490.337		59.80739	
76.32701	4493.63		58.14674	
76.38112	4496.963		56.52391	
76.43523	4500.327		54.93732	
76.48933	4503.708		53.38579	
76.54344	4507.088		51.86835	
76.59755	4510.448		50.38435	
76.65166	4513.771		48.9333	
76.70576	4517.033		47.51488	
76.75987	4520.216		46.12888	
76.81398	4523.297		44.77513	
76.86809	4526.255		43.45355	
76.9222	4529.078		42.16413	
76.9763	4531.757		40.90692	
77.03041	4534.297		39.68203	
77.08452	4536.707		38.48953	
77.13863	4538.992		37.32943	
77.19273	4541.152		36.20172	
77.24684	4543.181		35.10635	
77.30095	4545.068		34.04325	
77.35506	4546.801		33.01229	
77.40916	4548.368		32.01331	
77.46328	4549.767		31.04598	
77.51739	4550.997		30.11036	
77.5715	4552.051		29.20611	
77.6256	4552.921		28.33304	
77.67971	4553.609		27.49103	
77.73382	4554.128		26.68018	
77.78793	4554.503		25.90058	
77.84203	4554.767		25.15253	
77.89614	4554.944		24.43641	
77.95025	4555.06		23.75273	
78.00436	4555.144		23.1021	
78.05846	4555.221		22.48522	
78.11257	4555.315		21.90289	
78.16668	4555.445		21.356	
78.22079	4555.621		20.84553	
78.27489	4555.848		20.37254	
78.329	4556.12		19.93813	
78.38311	4556.425		19.54353	
78.43722	4556.742		19.18996	
78.49133	4557.049		18.87873	
78.54543	4557.334		18.61097	
78.59954	4557.601		18.38791	
78.65365	4557.86		18.2106	
78.70776	4558.13		18.07995	
78.76187	4558.425		17.99669	
78.81598	4558.758		17.9613	
78.87009	4559.14		17.97405	
78.92419	4559.579		18.03519	
78.9783	4560.089		18.14461	
79.03241	4560.678		18.30201	
79.08652	4561.353		18.50686	
79.14063	4562.113		18.75838	
79.19473	4562.952		19.05556	
79.24884	4563.855		19.39714	
79.30295	4564.803		19.7817	
79.35706	4565.78		20.20761	
79.41116	4566.782		20.67304	
79.46527	4567.813		21.17594	
79.51938	4568.894		21.71404	
79.57349	4570.039		22.28484	
79.62759	4571.253		22.88569	
79.6817	4572.535		23.51378	
79.73581	4573.89		24.16621	
79.78992	4575.332		24.83995	
79.84402	4576.861		25.53191	
79.89814	4578.464		26.23898	
79.95225	4580.116		26.95767	
80.00636	4581.79		27.68478	
80.06046	4583.466		28.41701	
80.11457	4585.135		29.15114	
80.16868	4586.792		29.88406	
80.22279	4588.445		30.61279	
80.27689	4590.108		31.33448	
80.331	4591.8		32.04647	
80.38511	4593.529		32.74628	
80.43922	4595.3		33.43166	
80.49332	4597.107		34.10051	
80.54743	4598.95		34.75093	
80.60154	4600.83		35.38114	
80.65565	4602.756		35.98946	
80.70975	4604.73		36.57434	
80.76386	4606.755		37.1344	
80.81797	4608.829		37.66842	
80.87208	4610.951		38.17537	
80.92619	4613.124		38.65438	
80.98029	4615.348		39.10484	
81.0344	4617.631		39.52623	
81.08852	4619.987		39.91822	
81.14262	4622.428		40.28043	
81.19673	4624.958		40.61276	
81.25084	4627.57		40.91515	
81.30495	4630.258		41.18771	
81.35905	4633.01		41.43052	
81.41316	4635.813		41.64378	
81.46727	4638.661		41.82769	
81.52138	4641.55		41.98238	
81.57549	4644.47		42.10794	
81.62959	4647.396		42.20444	
81.6837	4650.301		42.27183	
81.73781	4653.174		42.31004	
81.79192	4656.025		42.31888	
81.84602	4658.873		42.29803	
81.90013	4661.738		42.24703	
81.95424	4664.625		42.1653	
82.00835	4667.529		42.05212	
82.06245	4670.436		41.9067	
82.11656	4673.332		41.72812	
82.17067	4676.203		41.51554	
82.22478	4679.034		41.26804	
82.27888	4681.817		40.98471	
82.333	4684.541		40.66463	
82.38711	4687.194		40.30707	
82.44122	4689.759		39.91125	
82.49532	4692.218		39.47656	
82.54943	4694.565		39.00236	
82.60354	4696.802		38.48816	
82.65765	4698.946		37.93352	
82.71175	4701.009		37.33808	
82.76586	4703.001		36.70161	
82.81997	4704.938		36.02405	
82.87408	4706.833		35.30549	
82.92818	4708.702		34.5462	
82.98229	4710.562		33.74669	
83.0364	4712.412		32.90762	
83.09051	4714.25		32.02988	
83.14462	4716.062		31.11453	
83.19872	4717.834		30.16277	
83.25283	4719.557		29.17596	
83.30694	4721.228		28.15558	
83.36105	4722.848		27.10314	
83.41515	4724.433		26.0203	
83.46926	4725.991		24.90867	
83.52338	4727.539		23.76976	
83.57748	4729.092		22.60559	
83.63159	4730.658		21.41772	
83.6857	4732.226		20.20788	
83.73981	4733.789		18.97776	
83.79391	4735.326		17.72905	
83.84802	4736.822		16.46337	
83.90213	4738.259		15.18218	
83.95624	4739.613		13.88683	
84.01035	4740.853		12.5785	
84.06445	4741.96		11.25823	
84.11856	4742.923		9.926931	
84.17267	4743.74		8.58544	
84.22678	4744.409		7.23448	
84.28088	4744.94		5.874662	
84.33499	4745.342		4.506494	
84.3891	4745.621		3.13041	
84.44321	4745.781		1.74679	
84.49731	4745.834		0.3559619	
84.55142	4745.787		-1.041803	
84.60553	4745.645		-2.446251	
84.65964	4745.409		-3.8572	
84.71375	4745.077		-5.274675	
84.76786	4744.639		-6.6981	
84.82197	4744.088		-8.127462	
84.87608	4743.418		-9.562496	
84.93018	4742.643		-11.00285	
84.98429	4741.777		-12.44807	
85.0384	4740.834		-13.89764	
85.09251	4739.821		-15.35095	
85.14661	4738.733		-16.80733	
85.20072	4737.566		-18.26606	
85.25483	4736.314		-19.72637	
85.30894	4734.978		-21.18745	
85.36304	4733.563		-22.6485	
85.41715	4732.071		-24.1087	
85.47126	4730.499		-25.5672	
85.52537	4728.85		-27.02311	
85.57948	4727.126		-28.47546	
85.63358	4725.326		-29.92319	
85.68769	4723.454		-31.36514	
85.7418	4721.514		-32.80011	
85.79591	4719.506		-34.22689	
85.85001	4717.427		-35.64434	
85.90412	4715.273		-37.0513	
85.95824	4713.035		-38.44691	
86.01234	4710.714		-39.82975	
86.06645	4708.315		-41.19906	
86.12056	4705.854		-42.554	
86.17467	4703.342		-43.89378	
86.22878	4700.793		-45.21776	
86.28288	4698.216		-46.52534	
86.33699	4695.61		-47.81603	
86.3911	4692.96		-49.08936	
86.44521	4690.255		-50.34489	
86.49931	4687.484		-51.58223	
86.55342	4684.633		-52.80098	
86.60753	4681.696		-54.00074	
86.66164	4678.672		-55.18117	
86.71574	4675.567		-56.34188	
86.76985	4672.383		-57.48249	
86.82396	4669.12		-58.60255	
86.87807	4665.79		-59.70161	
86.93217	4662.407		-60.77919	
86.98628	4658.975		-61.83479	
87.04039	4655.493		-62.86796	
87.0945	4651.954		-63.87828	
87.14861	4648.352		-64.86544	
87.20272	4644.68		-65.82876	
87.25683	4640.938		-66.76797	
87.31094	4637.119		-67.68272	
87.36504	4633.224		-68.57268	
87.41915	4629.248		-69.43756	
87.47326	4625.192		-70.27709	
87.52737	4621.055		-71.09098	
87.58147	4616.84		-71.87893	
87.63558	4612.548		-72.64065	
87.68969	4608.195		-73.37588	
87.7438	4603.795		-74.08446	
87.7979	4599.362		-74.76629	
87.85201	4594.899		-75.42141	
87.90612	4590.403		-76.04992	
87.96023	4585.861		-76.65202	
88.01434	4581.272		-77.22799	
88.06844	4576.637		-77.77827	
88.12255	4571.963		-78.30341	
88.17666	4567.251		-78.80403	
88.23077	4562.513		-79.28096	
88.28487	4557.756		-79.73503	
88.33898	4552.99		-80.16715	
88.3931	4548.22		-80.57831	
88.4472	4543.458		-80.96929	
88.50131	4538.707		-81.3411	
88.55542	4533.958		-81.69469	
88.60953	4529.19		-82.03092	
88.66364	4524.39		-82.35076	
88.71774	4519.543		-82.6551	
88.77185	4514.643		-82.94478	
88.82596	4509.698		-83.22062	
88.88007	4504.739		-83.48341	
88.93417	4499.795		-83.73388	
88.98828	4494.899		-83.97273	
89.04239	4490.073		-84.20065	
89.0965	4485.323		-84.41827	
89.1506	4480.64		-84.62621	
89.20471	4476.019		-84.82504	
89.25882	4471.45		-85.01537	
89.31293	4466.927		-85.19777	
89.36703	4462.432		-85.37283	
89.42114	4457.949		-85.54106	
89.47525	4453.461		-85.70299	
89.52936	4448.951		-85.8591	
89.58347	4444.412		-86.00983	
89.63758	4439.851		-86.15553	
89.69169	4435.292		-86.29652	
89.7458	4430.76		-86.43316	
89.7999	4426.279		-86.56577	
89.85401	4421.863		-86.69476	
89.90812	4417.516		-86.82051	
89.96223	4413.234		-86.9435	
90.01633	4409.011		-87.06419	
90.07044	4404.83		-87.18304	
90.12455	4400.672		-87.30049	
90.17866	4396.508		-87.41701	
90.23277	4392.296		-87.53304	
90.28687	4387.994		-87.64907	
90.34098	4383.571		-87.76554	
90.39509	4379.011		-87.8829	
90.4492	4374.323		-88.00159	
90.5033	4369.538		-88.12205	
90.55741	4364.689		-88.24471	
90.61152	4359.813		-88.37003	
90.66563	4354.932		-88.49845	
90.71973	4350.054		-88.63048	
90.77385	4345.175		-88.7666	
90.82796	4340.288		-88.90722	
90.88206	4335.379		-89.05269	
90.93617	4330.441		-89.20322	
90.99028	4325.469		-89.35889	
91.04439	4320.46		-89.51962	
91.0985	4315.407		-89.68516	
91.1526	4310.304		-89.85509	
91.20671	4305.153		-90.02889	
91.26082	4299.963		-90.20589	
91.31493	4294.748		-90.38539	
91.36903	4289.52		-90.56666	
91.42314	4284.296		-90.74902	
91.47725	4279.099		-90.93179	
91.53136	4273.944		-91.11432	
91.58546	4268.83		-91.29588	
91.63957	4263.759		-91.47571	
91.69368	4258.73		-91.65304	
91.74779	4253.734		-91.82708	
91.8019	4248.754		-91.99706	
91.856	4243.771		-92.16225	
91.91011	4238.763		-92.32192	
91.96422	4233.728		-92.47538	
92.01833	4228.659		-92.62196	
92.07244	4223.566		-92.76099	
92.12655	4218.463		-92.89194	
92.18066	4213.375		-93.01434	
92.23476	4208.315		-93.1278	
92.28887	4203.296		-93.2321	
92.34298	4198.31		-93.32713	
92.39709	4193.342		-93.41288	
92.45119	4188.364		-93.4484	
92.5053	4183.359		-93.48015	
92.55941	4178.321		-93.50894	
92.61352	4173.263		-93.53556	
92.66763	4168.193		-93.56062	
92.72173	4163.124		-93.58453	
92.77584	4158.058		-93.60757	
92.82995	4153		-93.62996	
92.88406	4147.95		-93.65179	
92.93816	4142.904		-93.67316	
92.99227	4137.856		-93.69412	
93.04638	4132.811		-93.71473	
93.10049	4127.775		-93.73502	
93.15459	4122.749		-93.75504	
93.20871	4117.718		-93.7748	
93.26282	4112.667		-93.79433	
93.31693	4107.575		-93.81365	
93.37103	4102.431		-93.83278	
93.42514	4097.232		-93.85172	
93.47925	4091.997		-93.87046	
93.53336	4086.738		-93.88902	
93.58746	4081.477		-93.90738	
93.64157	4076.233		-93.92553	
93.69568	4071.022		-93.94349	
93.74979	4065.857		-93.96124	
93.80389	4060.748		-93.97877	
93.858	4055.686		-93.99609	
93.91211	4050.657		-94.01321	
93.96622	4045.64		-94.03011	
94.02032	4040.608		-94.04678	
94.07443	4035.54		-94.06322	
94.12854	4030.436		-94.07941	
94.18265	4025.333		-94.09534	
94.23676	4020.244		-94.11099	
94.29086	4015.17		-94.12637	
94.34497	4010.111		-94.14145	
94.39909	4005.067		-94.15623	
94.45319	4000.038		-94.17071	
94.5073	3995.02		-94.18488	
94.56141	3990.012		-94.19873	
94.61552	3985.012		-94.21226	
94.66962	3980.017		-94.22548	
94.72373	3975.024		-94.23837	
94.77784	3970.032		-94.25095	
94.83195	3965.039		-94.26323	
94.88605	3960.045		-94.27518	
94.94016	3955.05		-94.28684	
94.99427	3950.055		-94.2982	
