T[Â°C]	330nm [counts / mm]	S.D.
20.00057	4981.897	
20.00066	4988.938	
20.00475	4994.532	
20.00624	5005.647	
20.01946	4992.479	
20.02247	4994.108	
20.04691	4997.213	
20.05103	4994.973	
20.08028	5003.12	
20.08589	4988.717	
20.12447	4983.151	
20.13084	4981.232	
20.17434	4970.715	
20.18198	4978.35	
20.23377	4968.696	
20.24229	4980.21	
20.30046	4971.896	
20.30994	4969.769	
20.3733	4972.836	
20.3838	4971.702	
20.45214	4956.904	
20.46319	4957.123	
20.54023	4946.855	
20.55232	4950.05	
20.63006	4939.363	
20.64294	4938.184	
20.72522	4939.9	
20.73822	4941.663	
20.82705	4943.015	
20.84109	4921.088	
20.93107	4925.576	
20.94498	4934.235	
21.03546	4923.885	
21.04946	4932.748	
21.14449	4899.713	
21.15926	4918.11	
21.25387	4894.839	
21.26856	4908.838	
21.36184	4883.844	
21.37667	4883.266	
21.47428	4897.062	
21.48942	4884.377	
21.58207	4890.147	
21.59678	4884.345	
21.69102	4883.664	
21.70835	4875.481	
21.80186	4879.592	
21.81666	4862.615	
21.90839	4876.251	
21.92292	4878.643	
22.02059	4853.5	
22.03564	4866.849	
22.1309	4848.533	
22.14518	4846.255	
22.24038	4843.585	
22.25529	4838.278	
22.34889	4840.627	
22.36371	4831.607	
22.45964	4828.313	
22.47537	4808.904	
22.56601	4812.114	
22.5806	4828.977	
22.67677	4819.691	
22.69123	4807.398	
22.78599	4803.164	
22.80069	4808.159	
22.89558	4803.113	
22.9101	4802.943	
23.00654	4792.776	
23.02159	4793.172	
23.11484	4793.888	
23.12897	4787.248	
23.22469	4791.327	
23.24023	4782.81	
23.33611	4772.257	
23.35047	4770.149	
23.443	4765.979	
23.45797	4748.302	
23.55358	4751.738	
23.56818	4755.223	
23.66172	4754.819	
23.6764	4749.643	
23.77352	4737.5	
23.78863	4747.852	
23.8817	4733.679	
23.89687	4732.736	
23.99064	4724.551	
24.00701	4726.365	
24.10154	4730.065	
24.11594	4718.287	
24.2077	4718.529	
24.22246	4715.656	
24.31853	4717.609	
24.33321	4707.236	
24.42902	4701.259	
24.4437	4694.321	
24.53843	4695.186	
24.553	4701.824	
24.64654	4683.513	
24.6618	4685.358	
24.75835	4659.285	
24.77313	4687.408	
24.86785	4665.801	
24.88309	4667.778	
24.97571	4671.016	
24.99113	4664.727	
25.08442	4660.27	
25.10103	4651.625	
25.19446	4643.455	
25.21218	4644.474	
25.3035	4643.366	
25.31848	4639.817	
25.41309	4635.858	
25.43024	4630.537	
25.52366	4626.107	
25.53858	4610.217	
25.63277	4617.751	
25.64876	4608.887	
25.74184	4614.707	
25.75779	4615.328	
25.85279	4604.841	
25.86712	4602.459	
25.96154	4601.641	
25.9762	4596.136	
26.07038	4588.632	
26.08506	4598.123	
26.17969	4577.24	
26.19604	4584.41	
26.29053	4575.383	
26.30643	4569.144	
26.40061	4573.286	
26.41559	4574.177	
26.50719	4566.553	
26.52164	4542.324	
26.62119	4569.886	
26.63883	4561.674	
26.73721	4554.093	
26.75222	4540.664	
26.84378	4543.45	
26.85889	4537.494	
26.95405	4527.496	
26.9688	4530.212	
27.06451	4508.068	
27.07932	4525.168	
27.17278	4522.377	
27.18711	4511.377	
27.28149	4512.227	
27.29665	4517.841	
27.39179	4499.902	
27.40673	4500.053	
27.50141	4499.681	
27.51584	4497.981	
27.61175	4486.336	
27.62689	4493.813	
27.72264	4500.012	
27.73809	4484.45	
27.82896	4486.773	
27.84418	4474.651	
27.93875	4481.56	
27.95357	4472.96	
28.04993	4464.532	
28.06659	4473.595	
28.15872	4460.017	
28.17352	4463.729	
28.26733	4447.084	
28.28195	4447.448	
28.37449	4428.474	
28.39038	4442.439	
28.48821	4429.553	
28.50372	4445.123	
28.59657	4440.932	
28.61089	4418.823	
28.70594	4425.322	
28.7205	4428.165	
28.81635	4418.742	
28.83257	4410.322	
28.92505	4406.531	
28.93955	4410.532	
29.03353	4394.715	
29.04855	4406.635	
29.14464	4403.888	
29.16026	4387.383	
29.2532	4387.677	
29.26745	4378.727	
29.36119	4369.252	
29.37623	4380.624	
29.47252	4370.82	
29.48749	4371.425	
29.58364	4364.087	
29.59868	4359.225	
29.69153	4363.729	
29.70591	4354.604	
29.7995	4358.266	
29.81508	4356.738	
29.91004	4347.18	
29.92487	4348.111	
30.0181	4345.229	
30.03262	4339.263	
30.12871	4338.877	
30.14377	4329.884	
30.23705	4328.462	
30.25152	4337.201	
30.34566	4328.125	
30.36046	4319.802	
30.45478	4314.169	
30.47101	4302.406	
30.56515	4301.186	
30.57992	4291.223	
30.6763	4292.139	
30.69191	4288.159	
30.78543	4298.422	
30.80058	4294.483	
30.89386	4292.946	
30.9101	4276.392	
31.00367	4276.24	
31.01857	4286.556	
31.11335	4270.449	
31.13126	4271.528	
31.22689	4276.182	
31.24405	4267.218	
31.336	4264.498	
31.3535	4249.299	
31.44831	4255.631	
31.46295	4250.383	
31.55663	4247.326	
31.57131	4238.471	
31.66994	4253.852	
31.68487	4239.333	
31.77765	4231.681	
31.79362	4248.49	
31.88636	4223.584	
31.90135	4227.753	
31.99755	4231.114	
32.01243	4213.311	
32.10976	4224.43	
32.12574	4213.694	
32.22112	4210.36	
32.23531	4203.116	
32.32722	4188.7	
32.34346	4205.298	
32.43876	4208.873	
32.45367	4181.054	
32.54683	4199.749	
32.56342	4186.925	
32.65709	4181.528	
32.6721	4174.995	
32.76812	4176.147	
32.78555	4165.943	
32.88072	4171.078	
32.89631	4164.978	
32.98734	4155.359	
33.00334	4158.253	
33.09619	4162.882	
33.11099	4138.019	
33.20888	4146.695	
33.22569	4150	
33.31948	4139.591	
33.33436	4137.235	
33.42646	4133.971	
33.44391	4127.513	
33.53851	4132.704	
33.55399	4120.493	
33.65056	4127.907	
33.66726	4113.041	
33.75829	4116.829	
33.77239	4111.867	
33.86911	4110.173	
33.8848	4088.641	
33.97841	4096.075	
33.99289	4092.517	
34.08942	4085.287	
34.1042	4092.269	
34.19667	4074.417	
34.211	4090.707	
34.30666	4075.631	
34.32296	4085.275	
34.41583	4080.783	
34.43011	4067.157	
34.52458	4064.599	
34.54158	4075.869	
34.63148	4058.778	
34.64619	4052.529	
34.74338	4066.459	
34.75809	4051.376	
34.85347	4047.062	
34.86788	4051.742	
34.96253	4040.764	
34.97709	4039.639	
35.07061	4040.471	
35.08496	4043.488	
35.18041	4021.823	
35.19535	4031.745	
35.29445	4019.595	
35.30956	4027.224	
35.40292	4025.622	
35.41741	4015.986	
35.51307	4015.799	
35.52885	4007.446	
35.62288	4013.893	
35.63766	3990.501	
35.73361	4007.913	
35.74953	3989.996	
35.84196	3992.09	
35.85753	3991.135	
35.95028	3972.832	
35.96487	3971.921	
36.05994	3982.725	
36.07553	3970.626	
36.16848	3973.957	
36.18262	3967.326	
36.27637	3960.951	
36.2907	3961.068	
36.38564	3953.227	
36.40511	3954.964	
36.49964	3951.5	
36.51423	3954.537	
36.60892	3941.188	
36.62402	3950.186	
36.71634	3939.656	
36.73136	3945.042	
36.82756	3938.447	
36.84258	3929.12	
36.93537	3938.641	
36.9502	3923.724	
37.04562	3925.457	
37.06212	3907.359	
37.15587	3915.827	
37.17068	3907.678	
37.26461	3903.242	
37.27948	3905.482	
37.37491	3903.475	
37.39312	3897.016	
37.48552	3894.814	
37.4998	3887.75	
37.60167	3888.077	
37.61689	3891.034	
37.70986	3893.42	
37.72566	3881.006	
37.81676	3885.734	
37.83224	3885.403	
37.93247	3869.799	
37.94735	3871.623	
38.04218	3857.457	
38.0572	3851.176	
38.14997	3867.918	
38.16462	3851.958	
38.26115	3859.164	
38.27605	3856.755	
38.36903	3852.526	
38.38545	3847.938	
38.48008	3844.845	
38.49471	3833.741	
38.58751	3834.582	
38.60205	3837.884	
38.6986	3826.662	
38.71351	3839.752	
38.8068	3827.356	
38.82196	3820.941	
38.91834	3814.433	
38.93279	3812.476	
39.02586	3802.497	
39.04063	3804.214	
39.13543	3797.55	
39.14991	3797.421	
39.24392	3801.774	
39.26007	3797.522	
39.35309	3799.879	
39.36761	3779.724	
39.46412	3786.825	
39.47861	3783.63	
39.57314	3783.369	
39.58816	3772.297	
39.6841	3780.538	
39.69882	3777.834	
39.79263	3768.324	
39.80746	3757.801	
39.90271	3758.466	
39.91703	3759.172	
40.01032	3747.06	
40.02844	3755.554	
40.12566	3748.178	
40.13995	3735.701	
40.23597	3751.598	
40.25069	3732.892	
40.34647	3736.072	
40.36473	3727.873	
40.45998	3731.26	
40.47464	3726.127	
40.57325	3716.626	
40.58834	3719.591	
40.68344	3719.32	
40.70069	3701.171	
40.79597	3716.481	
40.81108	3699.844	
40.90439	3702.631	
40.91895	3703.764	
41.01466	3704.736	
41.03185	3691.354	
41.12863	3690.831	
41.14318	3682.531	
41.23495	3689.555	
41.24979	3689.174	
41.34568	3684.725	
41.36096	3681.403	
41.45568	3667.986	
41.47044	3672.244	
41.56552	3675.234	
41.58284	3670.464	
41.67789	3664.643	
41.6946	3662.61	
41.78732	3663.652	
41.80222	3661.722	
41.89592	3657.996	
41.91008	3641.027	
42.00758	3652.622	
42.02248	3647.945	
42.11635	3635.862	
42.13164	3653.65	
42.22577	3634.187	
42.24224	3641.482	
42.33467	3623.807	
42.34948	3617.49	
42.44256	3619.77	
42.45728	3615.847	
42.55266	3621.637	
42.5678	3610.268	
42.66434	3612.077	
42.67884	3609.026	
42.77278	3609.671	
42.78794	3600.085	
42.882	3590.595	
42.89689	3587.252	
42.99027	3586.157	
43.00531	3586.986	
43.09878	3580.399	
43.11499	3581.671	
43.20758	3584.866	
43.22424	3573.752	
43.31992	3590.471	
43.33517	3569.849	
43.4304	3564.955	
43.44434	3559.036	
43.5366	3560.499	
43.55178	3559.159	
43.64763	3553.554	
43.66249	3556.639	
43.75858	3557.581	
43.77312	3552.409	
43.86583	3550.731	
43.88182	3548.674	
43.97557	3542.295	
43.99241	3543.746	
44.08466	3538.066	
44.09912	3531.308	
44.1949	3521.893	
44.20942	3521.992	
44.30421	3523.571	
44.32032	3505.334	
44.41421	3521.65	
44.42907	3506.352	
44.52372	3502.425	
44.53805	3507.158	
44.63251	3503.279	
44.64749	3488.619	
44.74043	3496.219	
44.75539	3497.214	
44.84967	3491.978	
44.86612	3499.284	
44.96015	3492.941	
44.97471	3481.976	
45.06937	3475.993	
45.08371	3477.064	
45.17907	3481.784	
45.19341	3474.206	
45.29003	3480.975	
45.30617	3455.965	
45.39933	3474.754	
45.41556	3463.611	
45.5078	3457.833	
45.52277	3464.584	
45.61718	3449.765	
45.63176	3458.955	
45.72644	3445.683	
45.74152	3451.814	
45.83657	3442.092	
45.85135	3436.993	
45.94589	3441.017	
45.96048	3436.05	
46.05502	3438.298	
46.06974	3425.489	
46.16437	3423.537	
46.17884	3416.862	
46.27337	3416.02	
46.28756	3418.887	
46.38167	3416.913	
46.3966	3401.584	
46.49107	3416.7	
46.50565	3401.277	
46.60024	3407.537	
46.61529	3407.874	
46.71288	3397.215	
46.72747	3398.249	
46.82037	3386.323	
46.836	3392.107	
46.93025	3390.209	
46.94537	3390.316	
47.04027	3372.398	
47.05492	3373.072	
47.1496	3384.262	
47.16479	3373.562	
47.25714	3372.347	
47.27357	3367.491	
47.36765	3366.382	
47.38321	3356.38	
47.477	3363.316	
47.49213	3350.13	
47.58575	3345.235	
47.60096	3342.884	
47.69767	3345.219	
47.71249	3344.06	
47.80523	3347.879	
47.82184	3338.71	
47.91516	3341.197	
47.93137	3333.078	
48.02422	3338.348	
48.03935	3327.501	
48.13359	3322.218	
48.14896	3321.255	
48.24375	3319.376	
48.25861	3318.413	
48.35273	3308.271	
48.36805	3317.663	
48.46118	3309.422	
48.47599	3303.888	
48.57136	3312.941	
48.58698	3303.157	
48.68123	3307.991	
48.69606	3294.916	
48.78844	3296.879	
48.80338	3298.136	
48.89939	3294.326	
48.91413	3281.059	
49.00967	3284.171	
49.02441	3284.524	
49.11885	3283.621	
49.13409	3276.189	
49.22901	3273.064	
49.24379	3270.264	
49.33885	3267.431	
49.35411	3271.383	
49.44691	3253.468	
49.46185	3258.091	
49.556	3252.643	
49.5706	3252.026	
49.66535	3255.081	
49.68232	3246.001	
49.77637	3241.815	
49.79128	3235.093	
49.88659	3236.042	
49.90093	3235.613	
49.99536	3230.397	
50.01005	3235.648	
50.10613	3236.003	
50.12078	3220.518	
50.21349	3227.974	
50.22842	3221.583	
50.32497	3215.708	
50.33971	3219.748	
50.43303	3216.328	
50.4477	3206.061	
50.54261	3207.744	
50.55726	3201.101	
50.65326	3199.928	
50.66874	3198.506	
50.76152	3202.046	
50.77638	3194.172	
50.87326	3197.537	
50.88825	3191.897	
50.98223	3195.477	
50.99677	3182.875	
51.08995	3184.448	
51.10581	3181.839	
51.20122	3176.239	
51.21589	3175.562	
51.31165	3166.853	
51.32607	3167.369	
51.42029	3160.8	
51.4353	3160.828	
51.52771	3158.057	
51.54187	3142.397	
51.63897	3147.297	
51.65395	3152.005	
51.74908	3150.76	
51.76379	3138.54	
51.85902	3145.656	
51.87461	3135.995	
51.96838	3138.02	
51.98229	3131.374	
52.07635	3132.814	
52.09129	3140.452	
52.18528	3134.345	
52.2001	3118.565	
52.30073	3120.252	
52.31533	3111.326	
52.41194	3124.107	
52.42642	3106.03	
52.51954	3107.46	
52.53739	3105.935	
52.63642	3112.084	
52.65117	3099.617	
52.74469	3106.749	
52.76167	3097.325	
52.85657	3095.63	
52.87145	3089.768	
52.96648	3084.242	
52.98106	3085.361	
53.07684	3088.116	
53.09159	3089.02	
53.18935	3090.911	
53.20393	3071.706	
53.30281	3076.474	
53.31815	3071.876	
53.41148	3073.939	
53.42629	3073.249	
53.52165	3066.015	
53.53726	3053.86	
53.63136	3062.117	
53.64572	3054.714	
53.74445	3062.286	
53.75946	3055.675	
53.85907	3046.013	
53.8749	3041.208	
53.96616	3046.286	
53.98058	3040.292	
54.07783	3035.488	
54.09663	3028.202	
54.19144	3043.818	
54.20909	3030.447	
54.30455	3023.835	
54.3215	3024.051	
54.41367	3018.923	
54.43296	3017.862	
54.5273	3013.038	
54.54234	3014.396	
54.63653	3009.274	
54.65136	3004.937	
54.74591	3010.586	
54.76239	3004.585	
54.85546	3004.587	
54.87027	2998.887	
54.9659	3000.3	
54.98033	2990.437	
55.07402	2993.475	
55.09035	2982.307	
55.18419	2996.892	
55.20037	2982.86	
55.29515	2987.214	
55.31116	2966.513	
55.40148	2978.259	
55.41616	2975.007	
55.51267	2963.427	
55.52788	2964.801	
55.62239	2966.451	
55.63734	2963.397	
55.73209	2964.434	
55.75001	2961.145	
55.84465	2954.582	
55.86241	2946.817	
55.95663	2948.027	
55.97181	2945.591	
56.07267	2944.961	
56.08709	2941.765	
56.18384	2941.514	
56.1991	2943.389	
56.294	2945.696	
56.3083	2934.46	
56.40573	2929.698	
56.42065	2924.14	
56.52185	2926.62	
56.53649	2918.826	
56.63025	2930.506	
56.64745	2913.027	
56.74133	2912.754	
56.75779	2923.201	
56.85189	2904.716	
56.86701	2912.625	
56.96381	2908.824	
56.97802	2905.555	
57.07319	2907.068	
57.08752	2897.553	
57.18252	2894.13	
57.2004	2900.06	
57.29457	2890.458	
57.31216	2885.302	
57.40851	2889.461	
57.42384	2886.571	
57.51619	2875.602	
57.53081	2867.437	
57.62701	2880.539	
57.6416	2874.051	
57.73597	2874.135	
57.75058	2868.828	
57.84573	2868.551	
57.86298	2859.359	
57.95925	2862.869	
57.97379	2859.438	
58.07141	2852.491	
58.08654	2862.756	
58.18391	2847.963	
58.19936	2853.119	
58.29214	2854.382	
58.30856	2849.581	
58.40196	2843.267	
58.41671	2842.163	
58.50989	2846.74	
58.52491	2833.642	
58.62053	2842.253	
58.63566	2827.789	
58.73191	2832.117	
58.74658	2820.349	
58.83934	2826.014	
58.8541	2812.101	
58.9487	2825.965	
58.96394	2817.487	
59.05997	2819.446	
59.07445	2805.719	
59.16738	2806.771	
59.18215	2806.367	
59.27724	2797.693	
59.29257	2795.735	
59.38737	2800.051	
59.40172	2801.919	
59.49337	2785.817	
59.51127	2792.624	
59.60823	2790.291	
59.62291	2783.277	
59.71523	2793.426	
59.72994	2780.276	
59.82545	2781.705	
59.84052	2769.572	
59.93568	2778.496	
59.95039	2774.849	
60.04327	2771.097	
60.05897	2762.75	
60.15222	2778.874	
60.16734	2766.511	
60.26329	2768.279	
60.27798	2755.416	
60.37197	2768.458	
60.38715	2762.48	
60.48181	2749.694	
60.49701	2747.156	
60.59171	2744.071	
60.60606	2748.068	
60.70252	2745.058	
60.71758	2744.478	
60.81158	2749.896	
60.82656	2736.728	
60.92045	2739.053	
60.93539	2735.937	
61.02911	2731.227	
61.04399	2723.102	
61.14075	2727.867	
61.15565	2727.689	
61.24842	2730.983	
61.26348	2715.346	
61.35952	2717.932	
61.37486	2709.334	
61.46627	2712.691	
61.48196	2709.806	
61.58033	2708.894	
61.59469	2701.155	
61.68793	2713.004	
61.70308	2701.37	
61.79556	2702.61	
61.81034	2696.74	
61.90913	2698.403	
61.92404	2687.239	
62.01698	2693.368	
62.03265	2684.622	
62.12543	2701.391	
62.13994	2685.525	
62.23476	2689.474	
62.24914	2678.995	
62.35027	2675.61	
62.3654	2672.005	
62.45837	2674.279	
62.47314	2667.242	
62.56668	2673.237	
62.58152	2669.782	
62.67734	2667.585	
62.69249	2658.604	
62.78786	2663.469	
62.80298	2648.626	
62.89679	2656.298	
62.91196	2656.659	
63.00675	2658.748	
63.02253	2649.556	
63.11671	2655.781	
63.13157	2646.949	
63.22555	2647.791	
63.24031	2644.95	
63.33792	2634.788	
63.35324	2639.469	
63.4486	2635.615	
63.46456	2635.298	
63.55743	2631.925	
63.57215	2637.72	
63.66699	2631.096	
63.68294	2625.25	
63.77837	2622.212	
63.79337	2623.098	
63.88792	2627.167	
63.9035	2622.364	
63.99506	2630.092	
64.0098	2612.389	
64.10555	2621.611	
64.12304	2604.217	
64.21986	2620.821	
64.2347	2611.588	
64.32794	2620.693	
64.34278	2608.59	
64.43793	2609.354	
64.45258	2612.78	
64.54636	2596.616	
64.56097	2604.824	
64.65641	2603.79	
64.67438	2597.089	
64.77071	2598.621	
64.78498	2591.549	
64.88214	2593.281	
64.89849	2591.057	
64.99282	2597.942	
65.00996	2593.071	
65.10638	2591.038	
65.12097	2589.212	
65.21629	2588.212	
65.23407	2583.075	
65.3302	2578.46	
65.34673	2583.933	
65.43976	2585.118	
65.45404	2581.669	
65.54776	2585.899	
65.56589	2577.631	
65.66378	2590.496	
65.68069	2571.963	
65.77335	2586.488	
65.78811	2586.407	
65.8874	2582.672	
65.90261	2579.54	
65.99781	2584.49	
66.01234	2579.572	
66.11254	2591.537	
66.12732	2583.433	
66.22015	2592.875	
66.23566	2579.959	
66.33041	2595.772	
66.34546	2587.842	
66.44048	2591.582	
66.45508	2589.759	
66.54807	2595.273	
66.56332	2590.129	
66.65913	2589.989	
66.67538	2591.731	
66.76881	2603.366	
66.78636	2595.076	
66.87992	2610.375	
66.89477	2598.301	
66.9952	2612.729	
67.01584	2602.828	
67.10777	2617.873	
67.12312	2613.054	
67.22157	2616.944	
67.23701	2618.167	
67.334	2628.097	
67.34908	2625.413	
67.44604	2642.32	
67.46445	2642.4	
67.55798	2646.74	
67.57229	2652.178	
67.67069	2656.967	
67.6864	2656.999	
67.78189	2671.138	
67.79943	2670.149	
67.89314	2682.676	
67.90793	2683.72	
68.00802	2696.599	
68.02347	2688.107	
68.11456	2725.093	
68.13245	2706.985	
68.23032	2733.816	
68.24519	2727.394	
68.33875	2748.164	
68.35378	2748.897	
68.45311	2762.327	
68.46763	2764.934	
68.56223	2777.549	
68.57991	2780.072	
68.67659	2803.01	
68.69237	2802.471	
68.78782	2825.949	
68.80244	2818.898	
68.90189	2851.317	
68.91858	2838.119	
69.01094	2880	
69.02556	2875.601	
69.11993	2901.931	
69.13724	2906.799	
69.23271	2937.395	
69.24707	2939.92	
69.34502	2967.493	
69.3629	2959.972	
69.45669	3001.556	
69.47182	3003.267	
69.5643	3035.776	
69.57906	3029.928	
69.67523	3077.358	
69.69018	3073.78	
69.78382	3113.56	
69.80037	3114.15	
69.895	3143.406	
69.91045	3146.315	
70.00418	3199.63	
70.0205	3189.788	
70.11469	3242.331	
70.13084	3238.052	
70.22354	3290.256	
70.24187	3292.343	
70.33684	3333.958	
70.35388	3341.717	
70.44933	3390.415	
70.46388	3392.183	
70.55952	3445.771	
70.57697	3444.451	
70.67146	3501.253	
70.68889	3508.502	
70.78593	3565.093	
70.80376	3566.231	
70.8995	3618.571	
70.91418	3623.867	
71.0135	3687.2	
71.02995	3679.578	
71.12103	3751.825	
71.13746	3756.908	
71.23498	3815.869	
71.25331	3817.241	
71.34917	3886.179	
71.36393	3892.652	
71.46208	3953.331	
71.47798	3964.772	
71.56974	4033.118	
71.58707	4037.575	
71.68513	4113.397	
71.70144	4101.378	
71.79454	4176.152	
71.8092	4182.189	
71.90667	4261.924	
71.92384	4274.729	
72.01958	4350.438	
72.03474	4357.1	
72.13067	4434.925	
72.14851	4446.377	
72.24352	4531.476	
72.25806	4529.012	
72.35066	4602.099	
72.36877	4615.62	
72.46561	4699.057	
72.48057	4692.175	
72.57542	4780.454	
72.59327	4761.164	
72.68741	4839.539	
72.702	4839.436	
72.79864	4895.078	
72.81716	4908.361	
72.91117	4951.099	
72.92561	4962.601	
73.02016	5022.34	
73.03779	5038.027	
73.13338	5094.272	
73.14801	5080.716	
73.24535	5135.202	
73.26303	5121.978	
73.35617	5160.818	
73.37083	5153.703	
73.46574	5203.457	
73.48386	5204.614	
73.57896	5235.751	
73.59312	5237.8	
73.68884	5272.769	
73.7038	5259.443	
73.8013	5306.207	
73.81827	5291.259	
73.91288	5342.539	
73.92816	5307.466	
74.02127	5343.632	
74.03952	5335.458	
74.13529	5362.879	
74.1499	5358.141	
74.24445	5384.226	
74.25939	5361.234	
74.35684	5400.599	
74.37267	5386.621	
74.46712	5423.198	
74.48179	5400.517	
74.57703	5431.518	
74.59133	5414.305	
74.68874	5437.147	
74.70357	5434.417	
74.79913	5448.387	
74.81403	5456.488	
74.91216	5481.499	
74.93073	5455.54	
75.02499	5480.86	
75.03998	5467.839	
75.13539	5492.173	
75.15051	5479.834	
75.24408	5498.933	
75.262	5489.313	
75.35616	5521.234	
75.37091	5505.121	
75.46802	5531.484	
75.48615	5493.206	
75.58091	5527.351	
75.59569	5514.537	
75.6902	5558.176	
75.70537	5523.494	
75.80207	5541.012	
75.82053	5535.521	
75.91833	5549.568	
75.93307	5535.502	
76.02699	5558.667	
76.04198	5528.557	
76.13808	5566.742	
76.1559	5554.063	
76.25336	5585.516	
76.26856	5557.601	
76.36332	5586.135	
76.37752	5576.165	
76.47388	5585.679	
76.48927	5579.687	
76.58561	5606.292	
76.60311	5572.729	
76.69901	5587.614	
76.71379	5576.993	
76.80991	5595.874	
76.8244	5586.385	
76.92018	5616.384	
76.93825	5596.39	
77.03222	5622.951	
77.04728	5600.791	
77.14138	5629.736	
77.15564	5599.264	
77.25169	5625.37	
77.26685	5616.359	
77.36185	5619.076	
77.37648	5632.697	
77.47346	5628.746	
77.48881	5630.659	
77.58398	5614.773	
77.59865	5617.543	
77.69678	5624.346	
77.71385	5601.139	
77.8092	5632.993	
77.8243	5621.294	
77.91985	5641.321	
77.9376	5607.736	
78.0296	5629.42	
78.04768	5596.087	
78.14729	5622.332	
78.16244	5612.279	
78.25729	5626.577	
78.272	5604.897	
78.36609	5612.913	
78.38125	5608.225	
78.47884	5605.623	
78.49712	5587.907	
78.5913	5617.34	
78.60594	5586.686	
78.70209	5620.621	
78.71612	5598.4	
78.81228	5599.883	
78.83134	5590.662	
78.92635	5616.172	
78.94076	5604.456	
79.03606	5616.007	
79.05101	5582.354	
79.14313	5617.422	
79.16189	5596.506	
79.25524	5615.737	
79.2732	5592.304	
79.37259	5609.976	
79.38772	5581.695	
79.48047	5619.26	
79.49503	5592.933	
79.59258	5606.193	
79.61098	5592.112	
79.70373	5616.803	
79.71775	5610.664	
79.81446	5620.613	
79.82921	5604.271	
79.9251	5640.342	
79.94009	5604.196	
80.03468	5625.298	
80.04906	5602.469	
80.14214	5627.753	
80.15668	5600.288	
80.25398	5645.718	
80.26902	5610.286	
80.36312	5637.431	
80.37768	5623.906	
80.47263	5639.709	
80.48871	5610.449	
80.58255	5636.628	
80.59737	5617.071	
80.69209	5639.599	
80.70663	5610.942	
80.80127	5641.569	
80.81589	5615.802	
80.90972	5632.742	
80.92453	5623.838	
81.01891	5648.277	
81.03393	5623.555	
81.12894	5648.094	
81.14353	5627.593	
81.23833	5657.579	
81.25294	5631.226	
81.34729	5662.484	
81.3623	5647.759	
81.46027	5664.855	
81.47502	5644.188	
81.56617	5679.698	
81.58131	5656.006	
81.67936	5673.721	
81.69376	5657.837	
81.78714	5672.771	
81.80196	5653.432	
81.89742	5677.608	
81.91177	5650.87	
82.00536	5690.833	
82.02097	5660.534	
82.11764	5691.057	
82.13252	5658.651	
82.22356	5689.679	
82.23862	5660.198	
82.33408	5687.054	
82.34903	5671.839	
82.44383	5689.944	
82.45881	5672.972	
82.55651	5694.302	
82.57162	5672.037	
82.66402	5699.794	
82.67877	5684.613	
82.77427	5694.056	
82.78908	5685.184	
82.88389	5704.008	
82.89809	5677.615	
82.99268	5700.511	
83.00775	5689.727	
83.10188	5711.942	
83.11639	5679.375	
83.21048	5696.254	
83.22551	5677.482	
83.32213	5698.603	
83.33659	5684.617	
83.43236	5721.13	
83.44746	5697.028	
83.54214	5714.01	
83.5572	5686.121	
83.64847	5713.031	
83.66318	5685.814	
83.76075	5719.453	
83.77559	5698.419	
83.86884	5712.761	
83.88334	5697.975	
83.98067	5717.702	
83.99572	5701.002	
84.08938	5714.064	
84.10362	5700.851	
84.19688	5721.28	
84.21146	5708.091	
84.30843	5720.985	
84.32321	5686.903	
84.41774	5725.604	
84.43265	5693.73	
84.52824	5727.582	
84.54341	5697.756	
84.6384	5725.22	
84.65315	5685.74	
84.74726	5698.615	
84.76196	5689.854	
84.85577	5705.25	
84.87046	5675.68	
84.96786	5725.384	
84.98246	5689.45	
85.07629	5710.582	
85.091	5680.334	
85.1846	5694.781	
85.19961	5664.107	
85.29404	5689.36	
85.30869	5662.633	
85.40429	5697.29	
85.41933	5665.272	
85.51602	5684.03	
85.53016	5665.753	
85.62202	5685.75	
85.63678	5652.082	
85.73299	5655.465	
85.74769	5637.864	
85.84091	5667.891	
85.85559	5646.479	
85.95135	5654.997	
85.96645	5628.61	
86.06161	5643.577	
86.07625	5632.08	
86.1713	5634.603	
86.18628	5617.734	
86.28054	5628.864	
86.29536	5609.861	
86.38995	5621.427	
86.40481	5598.907	
86.49892	5610.654	
86.51382	5586.885	
86.60932	5612.2	
86.62413	5573.671	
86.71849	5605.137	
86.73333	5574.989	
86.82793	5591.591	
86.84297	5568.444	
86.93724	5587.254	
86.95196	5574.77	
87.0494	5572.464	
87.06438	5549.574	
87.15736	5567.124	
87.17242	5525.646	
87.26911	5547.603	
87.28453	5517.423	
87.37778	5549.737	
87.39205	5514.857	
87.48511	5550.211	
87.50011	5520.078	
87.59731	5535.062	
87.61221	5503.216	
87.7042	5521.192	
87.71864	5500.478	
87.81512	5512.313	
87.83002	5477.925	
87.92426	5493.25	
87.93926	5476.274	
88.03601	5484.369	
88.05149	5459.663	
88.14429	5481.438	
88.15895	5449.119	
88.25404	5463.185	
88.269	5426.129	
88.3638	5445.785	
88.37845	5427.589	
88.47247	5440.62	
88.48728	5420.461	
88.58184	5425.781	
88.59706	5401.873	
88.6904	5416.715	
88.70499	5381.135	
88.79985	5389.975	
88.81464	5373.506	
88.91258	5400.542	
88.92685	5368.453	
89.02208	5382.629	
89.03684	5357.177	
89.13026	5358.711	
89.14523	5340.967	
89.23922	5352.956	
89.25426	5326.356	
89.34988	5351.909	
89.36481	5324.746	
89.45986	5325.132	
89.47435	5302.817	
89.56949	5314.339	
89.58465	5283.831	
89.68086	5316.375	
89.69526	5279.504	
89.78902	5295.591	
89.80371	5260.181	
89.89938	5291.688	
89.91566	5261.011	
90.00816	5267.71	
90.02275	5254.462	
90.11617	5273.33	
90.13096	5242.986	
90.22658	5251.815	
90.24157	5227.423	
90.33546	5231.766	
90.35012	5196.667	
90.44442	5226.376	
90.45909	5181.915	
90.55605	5218.315	
90.57094	5179.817	
90.66718	5203.971	
90.68171	5167.304	
90.7762	5192.186	
90.79089	5156.413	
90.88437	5187.2	
90.89931	5146.813	
90.99428	5167.72	
91.00908	5129.823	
91.10538	5141.92	
91.11987	5112.271	
91.21347	5140.929	
91.22852	5093.312	
91.3248	5122.168	
91.33934	5098.236	
91.43214	5109.78	
91.44702	5092.137	
91.54271	5095.049	
91.55762	5071.792	
91.65192	5089.264	
91.66648	5059.561	
91.76147	5074.382	
91.77641	5043.194	
91.8709	5066.269	
91.88736	5034.418	
91.97967	5053.864	
91.99478	5024.51	
92.09052	5047.224	
92.10836	5013.073	
92.20157	5019.392	
92.21622	4991.409	
92.31005	5013.986	
92.32455	4992.487	
92.41962	5010.365	
92.43427	4975.899	
92.53038	4984.385	
92.54555	4956.109	
92.64013	4973.716	
92.65417	4940.428	
92.74709	4966.536	
92.76192	4929.569	
92.85933	4955.229	
92.8741	4914.762	
92.96859	4944.263	
92.98318	4908.23	
93.07887	4939.634	
93.09406	4900.743	
93.18894	4907.263	
93.20396	4890.012	
93.29633	4891.307	
93.31281	4876.174	
93.40944	4889.356	
93.42388	4861.939	
93.51634	4869.48	
93.53062	4855.23	
93.62492	4861.095	
93.6413	4829.192	
93.73706	4860.581	
93.7533	4827.022	
93.84402	4845.917	
93.85892	4808.03	
93.95283	4827.965	
93.96775	4798.584	
94.0592	4804.421	
94.07327	4771.892	
94.1636	4784.473	
94.17751	4758.332	
94.26649	4783.422	
94.27924	4753.175	
94.36028	4760.332	
94.37302	4745.008	
94.45351	4773.678	
94.46539	4732.106	
94.53756	4749.32	
94.54875	4724.518	
94.61751	4725.65	
94.62798	4708.327	
94.69305	4741.915	
94.70283	4698.292	
94.76083	4720.826	
94.7693	4696.089	
94.81934	4707.188	
94.82645	4687.543	
94.87118	4728.051	
94.87775	4690.081	
94.91571	4704.039	
94.92124	4679.225	
94.95008	4708.443	
94.95385	4668.129	
94.97663	4679.269	
94.9798	4675.258	
94.99427	4695.141	
