T[Â°C]	350nm [counts / mm]	S.D.	First derivative	S.D. of first derivative
19.99894	6828.13		-95.94145	
20.05293	6822.418		-95.93444	
20.10692	6816.704		-95.92775	
20.16092	6810.987		-95.92138	
20.21491	6805.27		-95.91534	
20.2689	6799.553		-95.90961	
20.32289	6793.836		-95.90421	
20.37688	6788.124		-95.89911	
20.43088	6782.415		-95.8943	
20.48487	6776.713		-95.88979	
20.53886	6771.02		-95.88554	
20.59285	6765.335		-95.88155	
20.64684	6759.661		-95.8778	
20.70083	6753.999		-95.87427	
20.75483	6748.348		-95.87092	
20.80882	6742.708		-95.86773	
20.86281	6737.076		-95.86467	
20.9168	6731.444		-95.86171	
20.97079	6725.789		-95.85881	
21.02478	6720.383		-95.85593	
21.07878	6715.075		-95.85302	
21.13277	6709.875		-95.85005	
21.18676	6704.777		-95.84696	
21.24075	6699.771		-95.8437	
21.29474	6694.834		-95.84024	
21.34873	6689.941		-95.83651	
21.40273	6685.068		-95.83245	
21.45672	6680.209		-95.82802	
21.51071	6675.362		-95.82314	
21.5647	6670.53		-95.81779	
21.61869	6665.708		-95.8119	
21.67269	6660.887		-95.80542	
21.72668	6656.054		-95.79834	
21.78067	6651.191		-95.7906	
21.83466	6646.28		-95.7822	
21.88865	6641.309		-95.7731	
21.94264	6636.282		-95.76331	
21.99664	6631.21		-95.75285	
22.05063	6626.102		-95.74173	
22.10462	6620.956		-95.73003	
22.15861	6615.766		-95.71785	
22.2126	6610.518		-95.70532	
22.26659	6605.2		-95.69266	
22.32059	6599.804		-95.68014	
22.37458	6594.334		-95.66816	
22.42857	6588.812		-95.65729	
22.48256	6583.267		-95.64824	
22.53655	6577.732		-95.64196	
22.59055	6572.23		-95.63944	
22.64454	6566.778		-95.63064	
22.69853	6561.389		-95.62171	
22.75252	6556.067		-95.61241	
22.80651	6550.794		-95.60242	
22.8605	6545.55		-95.59141	
22.9145	6540.317		-95.57899	
22.96849	6535.087		-95.56478	
23.02248	6529.865		-95.54834	
23.07647	6524.661		-95.52924	
23.13046	6519.484		-95.50706	
23.18445	6514.345		-95.48145	
23.23845	6509.246		-95.45215	
23.29244	6504.178		-95.41895	
23.34643	6499.126		-95.38175	
23.40042	6494.08		-95.34055	
23.45441	6489.029		-95.29536	
23.5084	6483.974		-95.2463	
23.5624	6478.926		-95.19354	
23.61639	6473.901		-95.13732	
23.67038	6468.905		-95.07795	
23.72437	6463.925		-95.01579	
23.77836	6458.933		-94.95123	
23.83236	6453.901		-94.88471	
23.88635	6448.811		-94.81673	
23.94034	6443.651		-94.74784	
23.99433	6438.429		-94.67863	
24.04832	6433.162		-94.60974	
24.10231	6427.871		-94.5418	
24.15631	6422.582		-94.47543	
24.2103	6417.321		-94.41118	
24.26429	6412.104		-94.3495	
24.31828	6406.925		-94.29079	
24.37227	6401.768		-94.23535	
24.42626	6396.611		-94.18342	
24.48026	6391.442		-94.13518	
24.53425	6386.256		-94.09073	
24.58824	6381.053		-94.0501	
24.64223	6375.841		-94.01324	
24.69622	6370.642		-93.97995	
24.75021	6365.476		-93.95002	
24.8042	6360.362		-93.92313	
24.8582	6355.311		-93.89894	
24.91219	6350.329		-93.87708	
24.96618	6345.414		-93.85719	
25.02017	6340.558		-93.83891	
25.07417	6335.758		-93.8219	
25.12816	6331.013		-93.80576	
25.18215	6326.31		-93.79007	
25.23614	6321.631		-93.77445	
25.29013	6316.96		-93.75856	
25.34412	6312.277		-93.74207	
25.39812	6307.561		-93.72473	
25.45211	6302.791		-93.7064	
25.5061	6297.945		-93.68701	
25.56009	6293.021		-93.66658	
25.61408	6288.038		-93.64517	
25.66807	6283.012		-93.62291	
25.72206	6277.963		-93.59992	
25.77606	6272.902		-93.57636	
25.83005	6267.83		-93.55238	
25.88404	6262.732		-93.52814	
25.93803	6257.599		-93.50386	
25.99202	6252.427		-93.47977	
26.04602	6247.212		-93.45611	
26.10001	6241.952		-93.43314	
26.154	6236.647		-93.41109	
26.20799	6231.31		-93.3901	
26.26198	6225.959		-93.37016	
26.31598	6220.611		-93.35117	
26.36997	6215.281		-93.33295	
26.42396	6209.977		-93.31522	
26.47795	6204.711		-93.29769	
26.53194	6199.492		-93.28005	
26.58593	6194.317		-93.26196	
26.63993	6189.188		-93.24299	
26.69392	6184.093		-93.22269	
26.74791	6179.025		-93.20063	
26.8019	6173.983		-93.17632	
26.85589	6168.973		-93.14931	
26.90988	6163.995		-93.1192	
26.96387	6159.042		-93.08572	
27.01787	6154.114		-93.04871	
27.07186	6149.204		-93.00813	
27.12585	6144.304		-92.96404	
27.17984	6139.409		-92.91659	
27.23383	6134.518		-92.86604	
27.28783	6129.619		-92.8127	
27.34182	6124.703		-92.75697	
27.39581	6119.77		-92.69922	
27.4498	6114.814		-92.63991	
27.50379	6109.825		-92.57944	
27.55779	6104.791		-92.51827	
27.61178	6099.707		-92.45679	
27.66577	6094.588		-92.39536	
27.71976	6089.455		-92.33432	
27.77375	6084.321		-92.2739	
27.82774	6079.194		-92.21435	
27.88173	6074.076		-92.15585	
27.93573	6068.973		-92.09856	
27.98972	6063.887		-92.04266	
28.04371	6058.823		-91.98827	
28.0977	6053.792		-91.93558	
28.15169	6048.802		-91.88474	
28.20568	6043.855		-91.83591	
28.25968	6038.948		-91.78915	
28.31367	6034.078		-91.7445	
28.36766	6029.241		-91.7019	
28.42165	6024.429		-91.6613	
28.47564	6019.636		-91.62261	
28.52964	6014.861		-91.58577	
28.58363	6010.108		-91.55075	
28.63762	6005.365		-91.51752	
28.69161	6000.615		-91.48605	
28.7456	5995.852		-91.45628	
28.79959	5991.077		-91.42818	
28.85359	5986.295		-91.40167	
28.90758	5981.512		-91.37666	
28.96157	5976.735		-91.3531	
29.01556	5971.969		-91.33095	
29.06955	5967.2		-91.31023	
29.12354	5962.416		-91.29103	
29.17754	5957.612		-91.27353	
29.23153	5952.787		-91.25798	
29.28552	5947.931		-91.24474	
29.33951	5943.039		-91.23421	
29.3935	5938.11		-91.2268	
29.44749	5933.146		-91.22284	
29.50149	5928.141		-91.22261	
29.55548	5923.087		-91.22626	
29.60947	5917.985		-91.23386	
29.66346	5912.851		-91.24532	
29.71745	5907.699		-91.26046	
29.77145	5902.542		-91.27898	
29.82544	5897.395		-91.30042	
29.87943	5892.269		-91.3242	
29.93342	5887.174		-91.34963	
29.98741	5882.117		-91.37592	
30.0414	5877.101		-91.40219	
30.0954	5872.116		-91.4275	
30.14939	5867.152		-91.4509	
30.20338	5862.199		-91.47148	
30.25737	5857.251		-91.48831	
30.31136	5852.306		-91.50052	
30.36535	5847.368		-91.50732	
30.41935	5842.438		-91.50802	
30.47334	5837.521		-91.50204	
30.52733	5832.624		-91.48895	
30.58132	5827.754		-91.46845	
30.63531	5822.915		-91.44042	
30.6893	5818.106		-91.40483	
30.7433	5813.321		-91.36177	
30.79729	5808.553		-91.31139	
30.85128	5803.8		-91.25391	
30.90527	5799.059		-91.18961	
30.95926	5794.321		-91.1188	
31.01326	5789.573		-91.04189	
31.06725	5784.798		-90.95936	
31.12124	5779.978		-90.87177	
31.17523	5775.096		-90.77977	
31.22922	5770.144		-90.68408	
31.28321	5765.124		-90.58556	
31.33721	5760.04		-90.48512	
31.3912	5754.906		-90.38371	
31.44519	5749.735		-90.2823	
31.49918	5744.536		-90.18179	
31.55317	5739.323		-90.08296	
31.60716	5734.107		-89.98653	
31.66116	5728.897		-89.8931	
31.71515	5723.693		-89.80317	
31.76914	5718.498		-89.71712	
31.82313	5713.307		-89.63517	
31.87712	5708.115		-89.55737	
31.93111	5702.937		-89.4836	
31.98511	5697.797		-89.41364	
32.0391	5692.725		-89.34711	
32.09309	5687.743		-89.28355	
32.14708	5682.87		-89.22246	
32.20107	5678.105		-89.16325	
32.25507	5673.439		-89.10537	
32.30906	5668.862		-89.04826	
32.36305	5664.358		-88.99144	
32.41704	5659.913		-88.93456	
32.47103	5655.512		-88.87735	
32.52502	5651.137		-88.81962	
32.57901	5646.771		-88.76126	
32.63301	5642.404		-88.70218	
32.687	5638.02		-88.64238	
32.74099	5633.609		-88.58189	
32.79498	5629.169		-88.52076	
32.84898	5624.696		-88.45908	
32.90297	5620.185		-88.39697	
32.95696	5615.629		-88.33447	
33.01095	5611.033		-88.27167	
33.06494	5606.407		-88.20862	
33.11893	5601.759		-88.14538	
33.17292	5597.088		-88.08202	
33.22692	5592.388		-88.01862	
33.28091	5587.652		-87.95527	
33.3349	5582.881		-87.89211	
33.38889	5578.079		-87.82935	
33.44288	5573.248		-87.76725	
33.49688	5568.392		-87.70605	
33.55087	5563.519		-87.64603	
33.60486	5558.634		-87.58745	
33.65885	5553.746		-87.53054	
33.71284	5548.863		-87.47554	
33.76683	5543.983		-87.42263	
33.82083	5539.105		-87.37199	
33.87482	5534.231		-87.3237	
33.92881	5529.357		-87.27779	
33.9828	5524.487		-87.23418	
34.03679	5519.631		-87.19271	
34.09079	5514.81		-87.15319	
34.14478	5510.032		-87.11534	
34.19877	5505.303		-87.07883	
34.25276	5500.618		-87.04329	
34.30675	5495.964		-87.00828	
34.36074	5491.333		-86.97338	
34.41473	5486.712		-86.93822	
34.46873	5482.092		-86.90247	
34.52272	5477.461		-86.86589	
34.57671	5472.798		-86.8283	
34.6307	5468.087		-86.78954	
34.68469	5463.323		-86.74952	
34.73869	5458.516		-86.70817	
34.79268	5453.685		-86.66548	
34.84667	5448.839		-86.62148	
34.90066	5443.984		-86.57622	
34.95465	5439.12		-86.52969	
35.00864	5434.247		-86.48186	
35.06264	5429.376		-86.43269	
35.11663	5424.523		-86.38212	
35.17062	5419.699		-86.33005	
35.22461	5414.913		-86.27638	
35.2786	5410.165		-86.22104	
35.3326	5405.453		-86.16393	
35.38659	5400.769		-86.10497	
35.44058	5396.113		-86.04411	
35.49457	5391.487		-85.98135	
35.54856	5386.9		-85.91677	
35.60255	5382.365		-85.85056	
35.65654	5377.886		-85.78302	
35.71054	5373.463		-85.71455	
35.76453	5369.095		-85.6457	
35.81852	5364.775		-85.57706	
35.87251	5360.491		-85.5094	
35.9265	5356.224		-85.44344	
35.9805	5351.957		-85.37994	
36.03449	5347.677		-85.31962	
36.08848	5343.376		-85.26312	
36.14247	5339.051		-85.21104	
36.19646	5334.696		-85.16389	
36.25045	5330.304		-85.12203	
36.30445	5325.869		-85.08573	
36.35844	5321.383		-85.05514	
36.41243	5316.839		-85.03029	
36.46642	5312.24		-85.01114	
36.52041	5307.584		-84.99759	
36.57441	5302.871		-84.98952	
36.6284	5298.104		-84.98677	
36.68239	5293.279		-84.98911	
36.73638	5288.408		-84.99625	
36.79037	5283.51		-85.0079	
36.84436	5278.615		-85.02372	
36.89835	5273.75		-85.04337	
36.95235	5268.928		-85.06644	
37.00634	5264.16		-85.09245	
37.06033	5259.445		-85.12086	
37.11432	5254.779		-85.15105	
37.16831	5250.162		-85.18233	
37.22231	5245.591		-85.21394	
37.2763	5241.06		-85.24503	
37.33029	5236.563		-85.27473	
37.38428	5232.093		-85.30209	
37.43827	5227.646		-85.32611	
37.49226	5223.226		-85.34587	
37.54626	5218.835		-85.36047	
37.60025	5214.467		-85.36918	
37.65424	5210.106		-85.37139	
37.70823	5205.739		-85.36666	
37.76222	5201.361		-85.35473	
37.81622	5196.968		-85.33548	
37.8702	5192.554		-85.30902	
37.9242	5188.111		-85.27562	
37.97819	5183.638		-85.23573	
38.03218	5179.131		-85.18991	
38.08617	5174.579		-85.13886	
38.14016	5169.967		-85.08332	
38.19416	5165.278		-85.02406	
38.24815	5160.505		-84.96187	
38.30214	5155.649		-84.89748	
38.35613	5150.717		-84.83156	
38.41012	5145.721		-84.76472	
38.46412	5140.685		-84.69743	
38.51811	5135.639		-84.63004	
38.5721	5130.618		-84.5629	
38.62609	5125.643		-84.4962	
38.68008	5120.72		-84.43007	
38.73407	5115.843		-84.36454	
38.78807	5111.007		-84.2996	
38.84206	5106.203		-84.23523	
38.89605	5101.426		-84.17139	
38.95004	5096.679		-84.10806	
39.00403	5091.969		-84.04523	
39.05803	5087.311		-83.98294	
39.11201	5082.711		-83.9212	
39.16601	5078.175		-83.85998	
39.22	5073.713		-83.79926	
39.27399	5069.327		-83.73901	
39.32798	5065.008		-83.67918	
39.38197	5060.732		-83.61977	
39.43597	5056.479		-83.56073	
39.48996	5052.238		-83.50211	
39.54395	5048.017		-83.44395	
39.59794	5043.817		-83.38631	
39.65193	5039.636		-83.32925	
39.70592	5035.473		-83.27285	
39.75992	5031.323		-83.21721	
39.81391	5027.175		-83.1624	
39.8679	5023.007		-83.10857	
39.92189	5018.798		-83.05598	
39.97588	5014.535		-83.00492	
40.02988	5010.203		-82.95591	
40.08387	5005.803		-82.90948	
40.13786	5001.349		-82.86633	
40.19185	4996.856		-82.82714	
40.24584	4992.337		-82.7926	
40.29984	4987.806		-82.76339	
40.35382	4983.273		-82.74006	
40.40782	4978.737		-82.72303	
40.46181	4974.192		-82.71261	
40.5158	4969.64		-82.70887	
40.56979	4965.083		-82.71178	
40.62378	4960.53		-82.72105	
40.67778	4955.996		-82.73621	
40.73177	4951.486		-82.75668	
40.78576	4947.007		-82.78163	
40.83975	4942.56		-82.81022	
40.89374	4938.145		-82.84142	
40.94773	4933.762		-82.87425	
41.00173	4929.414		-82.90769	
41.05572	4925.096		-82.94081	
41.10971	4920.79		-82.97273	
41.1637	4916.484		-83.00262	
41.21769	4912.176		-83.02971	
41.27169	4907.868		-83.05333	
41.32568	4903.556		-83.07294	
41.37967	4899.23		-83.08813	
41.43366	4894.878		-83.0986	
41.48765	4890.489		-83.10423	
41.54165	4886.051		-83.10496	
41.59563	4881.549		-83.10087	
41.64963	4876.975		-83.09208	
41.70362	4872.335		-83.07874	
41.75761	4867.649		-83.06104	
41.8116	4862.937		-83.03922	
41.86559	4858.224		-83.0135	
41.91959	4853.527		-82.98412	
41.97358	4848.848		-82.95132	
42.02757	4844.174		-82.91544	
42.08156	4839.486		-82.87684	
42.13555	4834.77		-82.83588	
42.18954	4830.015		-82.793	
42.24354	4825.224		-82.74857	
42.29753	4820.411		-82.703	
42.35152	4815.599		-82.65668	
42.40551	4810.811		-82.60992	
42.4595	4806.06		-82.56303	
42.5135	4801.354		-82.5162	
42.56749	4796.693		-82.46961	
42.62148	4792.08		-82.42328	
42.67547	4787.504		-82.3772	
42.72946	4782.955		-82.33121	
42.78345	4778.429		-82.28506	
42.83744	4773.933		-82.23841	
42.89144	4769.479		-82.19073	
42.94543	4765.077		-82.14146	
42.99942	4760.737		-82.08997	
43.05341	4756.459		-82.03564	
43.1074	4752.237		-81.97788	
43.1614	4748.062		-81.91615	
43.21539	4743.921		-81.84998	
43.26938	4739.803		-81.77911	
43.32337	4735.69		-81.70335	
43.37736	4731.578		-81.62275	
43.43135	4727.462		-81.53748	
43.48535	4723.347		-81.44794	
43.53934	4719.223		-81.35462	
43.59333	4715.072		-81.25816	
43.64732	4710.886		-81.15921	
43.70131	4706.662		-81.0585	
43.75531	4702.406		-80.95681	
43.8093	4698.124		-80.85494	
43.86329	4693.823		-80.75362	
43.91728	4689.521		-80.65357	
43.97127	4685.23		-80.55539	
44.02526	4680.948		-80.45967	
44.07925	4676.666		-80.36691	
44.13325	4672.37		-80.27749	
44.18724	4668.051		-80.19179	
44.24123	4663.692		-80.11006	
44.29522	4659.282		-80.03248	
44.34921	4654.81		-79.95909	
44.40321	4650.278		-79.88985	
44.4572	4645.701		-79.82456	
44.51119	4641.11		-79.76299	
44.56518	4636.531		-79.70477	
44.61917	4631.986		-79.64959	
44.67316	4627.49		-79.59702	
44.72716	4623.052		-79.5467	
44.78115	4618.668		-79.4982	
44.83514	4614.331		-79.45106	
44.88913	4610.028		-79.40479	
44.94312	4605.747		-79.35881	
44.99712	4601.478		-79.31252	
45.05111	4597.214		-79.26524	
45.1051	4592.946		-79.21632	
45.15909	4588.671		-79.16511	
45.21308	4584.387		-79.11104	
45.26707	4580.093		-79.05371	
45.32106	4575.791		-78.9929	
45.37506	4571.492		-78.92857	
45.42905	4567.221		-78.8609	
45.48304	4562.999		-78.79023	
45.53703	4558.831		-78.71701	
45.59102	4554.715		-78.6418	
45.64502	4550.641		-78.56522	
45.69901	4546.59		-78.48792	
45.753	4542.541		-78.41062	
45.80699	4538.465		-78.33401	
45.86098	4534.336		-78.25876	
45.91497	4530.14		-78.18549	
45.96897	4525.868		-78.11479	
46.02296	4521.525		-78.04716	
46.07695	4517.122		-77.98306	
46.13094	4512.687		-77.92288	
46.18493	4508.249		-77.867	
46.23893	4503.841		-77.8158	
46.29292	4499.483		-77.76961	
46.34691	4495.182		-77.72861	
46.4009	4490.937		-77.69296	
46.45489	4486.749		-77.66261	
46.50888	4482.609		-77.63745	
46.56287	4478.495		-77.61722	
46.61687	4474.384		-77.60155	
46.67086	4470.262		-77.59006	
46.72485	4466.116		-77.58222	
46.77884	4461.942		-77.57749	
46.83283	4457.751		-77.57526	
46.88683	4453.563		-77.57486	
46.94082	4449.408		-77.57565	
46.99481	4445.313		-77.57697	
47.0488	4441.293		-77.5782	
47.10279	4437.352		-77.57871	
47.15678	4433.477		-77.57795	
47.21078	4429.662		-77.57542	
47.26477	4425.891		-77.57074	
47.31876	4422.139		-77.56364	
47.37275	4418.383		-77.55395	
47.42674	4414.595		-77.54156	
47.48074	4410.749		-77.5265	
47.53473	4406.824		-77.50882	
47.58872	4402.808		-77.48863	
47.64271	4398.7		-77.46612	
47.6967	4394.51		-77.4415	
47.75069	4390.255		-77.41503	
47.80468	4385.945		-77.38705	
47.85868	4381.586		-77.35786	
47.91267	4377.185		-77.32781	
47.96666	4372.745		-77.29721	
48.02065	4368.27		-77.26631	
48.07464	4363.77		-77.23531	
48.12864	4359.258		-77.20438	
48.18263	4354.744		-77.17362	
48.23662	4350.238		-77.14316	
48.29061	4345.743		-77.113	
48.3446	4341.263		-77.08311	
48.39859	4336.804		-77.05341	
48.45259	4332.377		-77.02372	
48.50658	4327.995		-76.99385	
48.56057	4323.666		-76.96352	
48.61456	4319.393		-76.93242	
48.66855	4315.165		-76.90022	
48.72255	4310.962		-76.86654	
48.77654	4306.765		-76.83094	
48.83053	4302.556		-76.79293	
48.88452	4298.336		-76.75195	
48.93851	4294.119		-76.70749	
48.9925	4289.922		-76.659	
49.04649	4285.765		-76.60604	
49.10049	4281.657		-76.54821	
49.15448	4277.594		-76.48518	
49.20847	4273.568		-76.41676	
49.26246	4269.568		-76.34284	
49.31645	4265.591		-76.26347	
49.37045	4261.629		-76.17879	
49.42444	4257.678		-76.08909	
49.47843	4253.727		-75.99474	
49.53242	4249.762		-75.8962	
49.58641	4245.772		-75.79398	
49.6404	4241.753		-75.68862	
49.6944	4237.707		-75.58073	
49.74839	4233.639		-75.47102	
49.80238	4229.552		-75.3602	
49.85637	4225.455		-75.24907	
49.91036	4221.355		-75.13841	
49.96436	4217.267		-75.02902	
50.01834	4213.202		-74.92168	
50.07234	4209.17		-74.81712	
50.12633	4205.176		-74.71611	
50.18032	4201.213		-74.61934	
50.23431	4197.276		-74.52742	
50.2883	4193.353		-74.44088	
50.3423	4189.423		-74.36009	
50.39629	4185.469		-74.28535	
50.45028	4181.476		-74.21682	
50.50427	4177.452		-74.15461	
50.55826	4173.415		-74.09875	
50.61226	4169.378		-74.04922	
50.66625	4165.352		-74.00595	
50.72024	4161.343		-73.96883	
50.77423	4157.347		-73.93767	
50.82822	4153.366		-73.91221	
50.88221	4149.402		-73.89211	
50.93621	4145.455		-73.87698	
50.9902	4141.52		-73.86639	
51.04419	4137.604		-73.85986	
51.09818	4133.711		-73.85696	
51.15217	4129.845		-73.85719	
51.20617	4125.997		-73.86005	
51.26015	4122.156		-73.86509	
51.31415	4118.314		-73.87187	
51.36814	4114.462		-73.88006	
51.42213	4110.596		-73.88935	
51.47612	4106.714		-73.89956	
51.53011	4102.818		-73.91052	
51.58411	4098.905		-73.92213	
51.6381	4094.974		-73.93424	
51.69209	4091.03		-73.94674	
51.74608	4087.076		-73.95948	
51.80007	4083.11		-73.9723	
51.85406	4079.125		-73.985	
51.90806	4075.114		-73.99737	
51.96205	4071.081		-74.00913	
52.01604	4067.025		-74.01998	
52.07003	4062.954		-74.02958	
52.12402	4058.876		-74.03754	
52.17802	4054.804		-74.04346	
52.23201	4050.752		-74.04684	
52.286	4046.724		-74.04716	
52.33999	4042.717		-74.0438	
52.39398	4038.72		-74.0361	
52.44798	4034.724		-74.0234	
52.50196	4030.728		-74.00507	
52.55596	4026.726		-73.98053	
52.60995	4022.71		-73.94926	
52.66394	4018.667		-73.91083	
52.71793	4014.582		-73.86486	
52.77192	4010.452		-73.81105	
52.82592	4006.285		-73.74915	
52.87991	4002.102		-73.67896	
52.9339	3997.92		-73.60039	
52.98789	3993.75		-73.51347	
53.04188	3989.607		-73.4184	
53.09587	3985.501		-73.31548	
53.14987	3981.438		-73.20514	
53.20386	3977.414		-73.08789	
53.25785	3973.422		-72.96434	
53.31184	3969.455		-72.83514	
53.36583	3965.503		-72.70107	
53.41983	3961.565		-72.56287	
53.47382	3957.645		-72.42143	
53.52781	3953.731		-72.27762	
53.5818	3949.801		-72.13235	
53.63579	3945.836		-71.98654	
53.68979	3941.83		-71.84106	
53.74377	3937.784		-71.69672	
53.79777	3933.704		-71.55424	
53.85176	3929.602		-71.41428	
53.90575	3925.495		-71.27744	
53.95974	3921.4		-71.14418	
54.01373	3917.332		-71.01491	
54.06773	3913.302		-70.88993	
54.12172	3909.313		-70.76948	
54.17571	3905.367		-70.65369	
54.2297	3901.461		-70.5426	
54.28369	3897.595		-70.43618	
54.33768	3893.761		-70.33424	
54.39168	3889.953		-70.23654	
54.44567	3886.167		-70.14278	
54.49966	3882.404		-70.0526	
54.55365	3878.667		-69.96567	
54.60764	3874.965		-69.88161	
54.66164	3871.302		-69.80004	
54.71563	3867.689		-69.72054	
54.76962	3864.133		-69.64266	
54.82361	3860.647		-69.56599	
54.8776	3857.241		-69.49011	
54.93159	3853.921		-69.41467	
54.98558	3850.683		-69.33944	
55.03958	3847.515		-69.26427	
55.09357	3844.397		-69.18916	
55.14756	3841.306		-69.11415	
55.20155	3838.21		-69.0394	
55.25554	3835.075		-68.96518	
55.30954	3831.869		-68.89182	
55.36353	3828.574		-68.81977	
55.41752	3825.188		-68.74956	
55.47151	3821.712		-68.68172	
55.52551	3818.147		-68.61686	
55.57949	3814.49		-68.55559	
55.63349	3810.745		-68.49852	
55.68748	3806.924		-68.44627	
55.74147	3803.03		-68.39938	
55.79546	3799.07		-68.35832	
55.84945	3795.056		-68.3235	
55.90345	3791		-68.2952	
55.95744	3786.916		-68.27358	
56.01143	3782.823		-68.25867	
56.06542	3778.73		-68.25037	
56.11941	3774.641		-68.24843	
56.1734	3770.556		-68.25244	
56.22739	3766.484		-68.26194	
56.28139	3762.432		-68.27632	
56.33538	3758.415		-68.29488	
56.38937	3754.448		-68.31683	
56.44336	3750.546		-68.34134	
56.49735	3746.72		-68.36751	
56.55135	3742.975		-68.39441	
56.60534	3739.303		-68.42108	
56.65933	3735.685		-68.4465	
56.71332	3732.09		-68.46958	
56.76731	3728.494		-68.48926	
56.8213	3724.883		-68.50445	
56.8753	3721.254		-68.51413	
56.92929	3717.617		-68.51736	
56.98328	3713.983		-68.51331	
57.03727	3710.361		-68.50124	
57.09126	3706.754		-68.48058	
57.14526	3703.162		-68.45081	
57.19925	3699.583		-68.41159	
57.25324	3696.018		-68.36277	
57.30723	3692.464		-68.30431	
57.36122	3688.912		-68.23639	
57.41521	3685.356		-68.15932	
57.4692	3681.792		-68.07357	
57.5232	3678.207		-67.97969	
57.57719	3674.587		-67.87832	
57.63118	3670.923		-67.77014	
57.68517	3667.217		-67.65587	
57.73916	3663.469		-67.53627	
57.79316	3659.68		-67.41212	
57.84715	3655.861		-67.28424	
57.90114	3652.029		-67.1535	
57.95513	3648.205		-67.02071	
58.00912	3644.421		-66.88665	
58.06311	3640.7		-66.75201	
58.11711	3637.052		-66.61736	
58.1711	3633.466		-66.48322	
58.22509	3629.925		-66.34997	
58.27908	3626.405		-66.2179	
58.33307	3622.883		-66.08726	
58.38707	3619.335		-65.95813	
58.44106	3615.745		-65.83059	
58.49505	3612.11		-65.70457	
58.54904	3608.439		-65.57999	
58.60303	3604.745		-65.45669	
58.65702	3601.033		-65.33441	
58.71101	3597.315		-65.21288	
58.76501	3593.604		-65.09179	
58.819	3589.922		-64.97081	
58.87299	3586.287		-64.84963	
58.92698	3582.717		-64.72792	
58.98098	3579.217		-64.60538	
59.03497	3575.783		-64.48172	
59.08896	3572.399		-64.35664	
59.14295	3569.045		-64.22986	
59.19694	3565.713		-64.1011	
59.25093	3562.398		-63.97017	
59.30492	3559.096		-63.83689	
59.35892	3555.801		-63.70121	
59.41291	3552.505		-63.56316	
59.4669	3549.194		-63.42284	
59.52089	3545.855		-63.28041	
59.57488	3542.483		-63.13605	
59.62888	3539.084		-62.98993	
59.68287	3535.67		-62.84224	
59.73686	3532.254		-62.69316	
59.79085	3528.85		-62.54292	
59.84484	3525.464		-62.39172	
59.89883	3522.1		-62.2397	
59.95282	3518.751		-62.08701	
60.00682	3515.414		-61.93365	
60.06081	3512.087		-61.77959	
60.1148	3508.771		-61.62467	
60.16879	3505.469		-61.46865	
60.22279	3502.186		-61.31128	
60.27678	3498.92		-61.15223	
60.33077	3495.661		-60.99112	
60.38476	3492.396		-60.8276	
60.43875	3489.117		-60.66124	
60.49274	3485.823		-60.49163	
60.54673	3482.516		-60.31837	
60.60073	3479.202		-60.141	
60.65472	3475.885		-59.95911	
60.70871	3472.575		-59.77229	
60.7627	3469.276		-59.5802	
60.81669	3465.992		-59.38259	
60.87069	3462.727		-59.1792	
60.92467	3459.491		-58.96986	
60.97867	3456.293		-58.7544	
61.03266	3453.138		-58.53267	
61.08665	3450.02		-58.30456	
61.14064	3446.922		-58.06986	
61.19463	3443.819		-57.82841	
61.24863	3440.69		-57.57999	
61.30262	3437.527		-57.32444	
61.35661	3434.333		-57.06165	
61.4106	3431.114		-56.79145	
61.4646	3427.878		-56.51373	
61.51859	3424.642		-56.22837	
61.57258	3421.417		-55.93518	
61.62657	3418.206		-55.63405	
61.68056	3415.01		-55.32481	
61.73455	3411.833		-55.00736	
61.78854	3408.68		-54.68166	
61.84254	3405.563		-54.34756	
61.89653	3402.484		-54.00496	
61.95052	3399.443		-53.65356	
62.00451	3396.434		-53.29306	
62.0585	3393.448		-52.92306	
62.1125	3390.474		-52.54296	
62.16648	3387.508		-52.15223	
62.22048	3384.548		-51.75014	
62.27447	3381.599		-51.33605	
62.32846	3378.666		-50.90925	
62.38245	3375.752		-50.46893	
62.43645	3372.863		-50.01434	
62.49044	3370.005		-49.54476	
62.54443	3367.186		-49.05937	
62.59842	3364.412		-48.55756	
62.65241	3361.696		-48.03861	
62.70641	3359.044		-47.50199	
62.7604	3356.458		-46.94722	
62.81439	3353.93		-46.37375	
62.86838	3351.451		-45.78125	
62.92237	3349.012		-45.16925	
62.97636	3346.609		-44.53747	
63.03035	3344.24		-43.88565	
63.08435	3341.905		-43.21341	
63.13834	3339.608		-42.52063	
63.19233	3337.348		-41.807	
63.24632	3335.121		-41.07242	
63.30031	3332.916		-40.31683	
63.35431	3330.715		-39.54002	
63.40829	3328.507		-38.742	
63.46229	3326.285		-37.92265	
63.51628	3324.052		-37.08192	
63.57027	3321.814		-36.2198	
63.62426	3319.572		-35.336	
63.67826	3317.335		-34.43038	
63.73225	3315.116		-33.50272	
63.78624	3312.926		-32.55256	
63.84023	3310.768		-31.57961	
63.89422	3308.644		-30.58319	
63.94822	3306.559		-29.56272	
64.0022	3304.519		-28.51749	
64.0562	3302.538		-27.44639	
64.11019	3300.626		-26.34841	
64.16418	3298.791		-25.22232	
64.21817	3297.038		-24.06696	
64.27216	3295.371		-22.88056	
64.32616	3293.784		-21.66176	
64.38015	3292.274		-20.40889	
64.43414	3290.841		-19.12019	
64.48813	3289.489		-17.79399	
64.54212	3288.223		-16.42796	
64.59612	3287.056		-15.02033	
64.65011	3285.997		-13.56914	
64.7041	3285.053		-12.07239	
64.75809	3284.223		-10.52836	
64.81208	3283.506		-8.934612	
64.86607	3282.898		-7.289411	
64.92007	3282.398		-5.590803	
64.97406	3281.995		-3.836878	
65.02805	3281.673		-2.026018	
65.08204	3281.418		-0.1558688	
65.13603	3281.219		1.77513	
65.19003	3281.066		3.768748	
65.24402	3280.953		5.826719	
65.298	3280.881		7.950433	
65.352	3280.854		10.14216	
65.40599	3280.878		12.40322	
65.45998	3280.964		14.73519	
65.51398	3281.125		17.13955	
65.56796	3281.371		19.61743	
65.62196	3281.718		22.17099	
65.67595	3282.183		24.80135	
65.72994	3282.784		27.51004	
65.78394	3283.528		30.29862	
65.83792	3284.413		33.16827	
65.89191	3285.431		36.12145	
65.94591	3286.573		39.15943	
65.9999	3287.831		42.28392	
66.05389	3289.202		45.4967	
66.10788	3290.687		48.79912	
66.16187	3292.298		52.19404	
66.21587	3294.057		55.68294	
66.26986	3295.99		59.2678	
66.32385	3298.113		62.95066	
66.37785	3300.437		66.73361	
66.43183	3302.968		70.61823	
66.48582	3305.713		74.60785	
66.53982	3308.681		78.70416	
66.59381	3311.89		82.90951	
66.6478	3315.351		87.22625	
66.70179	3319.065		91.65622	
66.75578	3323.023		96.20319	
66.80978	3327.213		100.8691	
66.86377	3331.629		105.6567	
66.91776	3336.271		110.5685	
66.97175	3341.144		115.6065	
67.02574	3346.269		120.7747	
67.07973	3351.666		126.0749	
67.13373	3357.354		131.5096	
67.18772	3363.34		137.0815	
67.24171	3369.626		142.7922	
67.2957	3376.22		148.6458	
67.34969	3383.132		154.644	
67.40369	3390.366		160.7892	
67.45768	3397.923		167.0837	
67.51167	3405.802		173.529	
67.56566	3414.006		180.1288	
67.61965	3422.536		186.8845	
67.67365	3431.404		193.7977	
67.72764	3440.622		200.8701	
67.78162	3450.2		208.102	
67.83562	3460.154		215.4964	
67.88961	3470.5		223.0529	
67.9436	3481.258		230.7716	
67.9976	3492.439		238.652	
68.05158	3504.039		246.692	
68.10558	3516.057		254.8924	
68.15957	3528.495		263.2498	
68.21356	3541.356		271.7616	
68.26756	3554.652		280.4244	
68.32154	3568.388		289.233	
68.37553	3582.578		298.1854	
68.42953	3597.221		307.2755	
68.48352	3612.317		316.4978	
68.53751	3627.872		325.8463	
68.5915	3643.9		335.3133	
68.64549	3660.428		344.8947	
68.69949	3677.477		354.5818	
68.75348	3695.06		364.3671	
68.80747	3713.187		374.2425	
68.86147	3731.861		384.1994	
68.91545	3751.083		394.2275	
68.96944	3770.865		404.3203	
69.02344	3791.217		414.4664	
69.07743	3812.155		424.6557	
69.13142	3833.697		434.8774	
69.18541	3855.859		445.1189	
69.2394	3878.674		455.3716	
69.2934	3902.162		465.6222	
69.34739	3926.344		475.8584	
69.40138	3951.239		486.0675	
69.45537	3976.859		496.2351	
69.50936	4003.221		506.3506	
69.56335	4030.328		516.3989	
69.61735	4058.192		526.3658	
69.67134	4086.828		536.2368	
69.72533	4116.248		545.9957	
69.77932	4146.474		555.6301	
69.83331	4177.515		565.1227	
69.88731	4209.39		574.4575	
69.9413	4242.109		583.6177	
69.99529	4275.669		592.585	
70.04928	4310.073		601.3444	
70.10327	4345.305		609.8763	
70.15726	4381.339		618.1624	
70.21126	4418.145		626.1839	
70.26524	4455.681		633.9207	
70.31924	4493.919		641.3558	
70.37323	4532.802		648.4691	
70.42722	4572.268		655.2415	
70.48122	4612.254		661.6542	
70.5352	4652.702		667.6881	
70.5892	4693.571		673.327	
70.64319	4734.808		678.5529	
70.69718	4776.372		683.3491	
70.75117	4818.235		687.7002	
70.80516	4860.382		691.591	
70.85915	4902.815		695.0091	
70.91315	4945.526		697.9415	
70.96714	4988.517		700.3773	
71.02113	5031.772		702.3068	
71.07513	5075.272		703.7217	
71.12911	5118.993		704.6153	
71.18311	5162.931		704.9828	
71.2371	5207.062		704.8206	
71.29109	5251.351		704.1267	
71.34509	5295.765		702.9012	
71.39907	5340.251		701.1457	
71.45306	5384.773		698.8629	
71.50706	5429.282		696.0576	
71.56105	5473.748		692.736	
71.61504	5518.143		688.9057	
71.66903	5562.44		684.5763	
71.72302	5606.623		679.7569	
71.77702	5650.646		674.4595	
71.83101	5694.452		668.6968	
71.885	5737.979		662.4825	
71.93899	5781.146		655.8323	
71.99298	5823.896		648.7598	
72.04697	5866.137		641.2822	
72.10097	5907.779		633.4166	
72.15496	5948.712		625.1805	
72.20895	5988.831		616.5933	
72.26294	6028.052		607.6708	
72.31693	6066.288		598.4329	
72.37093	6103.463		588.8983	
72.42492	6139.524		579.0862	
72.4789	6174.438		569.0167	
72.5329	6208.208		558.7061	
72.58689	6240.836		548.1746	
72.64088	6272.321		537.441	
72.69488	6302.668		526.524	
72.74886	6331.889		515.4437	
72.80286	6360.006		504.2157	
72.85685	6387.031		492.8601	
72.91084	6412.991		481.3956	
72.96484	6437.907		469.8409	
73.01882	6461.773		458.2161	
73.07281	6484.585		446.5369	
73.12681	6506.336		434.8235	
73.1808	6527.036		423.0948	
73.23479	6546.706		411.3695	
73.28879	6565.386		399.6663	
73.34277	6583.128		388.0055	
73.39677	6599.995		376.4022	
73.45076	6616.033		364.876	
73.50475	6631.293		353.4447	
73.55875	6645.822		342.1254	
73.61273	6659.664		330.936	
73.66673	6672.879		319.8893	
73.72072	6685.522		309.0016	
73.77471	6697.644		298.2872	
73.8287	6709.284		287.7593	
73.88269	6720.466		277.4318	
73.93668	6731.209		267.3131	
73.99068	6741.52		257.4153	
74.04467	6751.403		247.7477	
74.09866	6760.853		238.3185	
74.15265	6769.869		229.1364	
74.20664	6778.472		220.2046	
74.26064	6786.683		211.5294	
74.31463	6794.534		203.1145	
74.36862	6802.059		194.9626	
74.42261	6809.288		187.0758	
74.4766	6816.254		179.4522	
74.53059	6822.99		172.0917	
74.58459	6829.527		164.992	
74.63858	6835.89		158.1499	
74.69257	6842.095		151.562	
74.74656	6848.146		145.2213	
74.80055	6854.021		139.1229	
74.85455	6859.699		133.2601	
74.90854	6865.175		127.6258	
74.96252	6870.438		122.2133	
75.01652	6875.469		117.0129	
75.07051	6880.266		112.0174	
75.1245	6884.826		107.2185	
75.1785	6889.15		102.608	
75.23248	6893.246		98.17839	
75.28648	6897.14		93.92039	
75.34047	6900.862		89.82679	
75.39446	6904.458		85.88995	
75.44846	6907.961		82.10244	
75.50244	6911.398		78.45762	
75.55643	6914.777		74.94757	
75.61043	6918.098		71.56626	
75.66442	6921.353		68.3074	
75.71841	6924.526		65.16495	
75.77241	6927.603		62.13314	
75.82639	6930.574		59.20688	
75.88039	6933.44		56.38008	
75.93438	6936.199		53.64816	
75.98837	6938.85		51.00632	
76.04237	6941.381		48.44994	
76.09635	6943.777		45.97492	
76.15034	6946.029		43.57626	
76.20434	6948.124		41.25017	
76.25833	6950.056		38.99265	
76.31232	6951.829		36.79986	
76.36631	6953.457		34.66839	
76.4203	6954.956		32.59411	
76.4743	6956.332		30.57395	
76.52829	6957.58		28.60472	
76.58228	6958.694		26.68347	
76.63627	6959.666		24.80768	
76.69026	6960.491		22.97429	
76.74426	6961.17		21.18121	
76.79825	6961.705		19.42626	
76.85224	6962.104		17.70743	
76.90623	6962.367		16.0231	
76.96022	6962.487		14.37111	
77.01421	6962.471		12.75023	
77.06821	6962.329		11.15915	
77.1222	6962.073		9.596838	
77.17619	6961.723		8.062692	
77.23018	6961.301		6.555689	
77.28417	6960.833		5.075665	
77.33817	6960.344		3.622436	
77.39216	6959.857		2.196018	
77.44614	6959.386		0.7968175	
77.50014	6958.941		-0.5751181	
77.55413	6958.525		-1.918888	
77.60812	6958.147		-3.233534	
77.66212	6957.812		-4.517888	
77.7161	6957.511		-5.770461	
77.7701	6957.215		-6.990222	
77.82409	6956.896		-8.175574	
77.87808	6956.531		-9.325101	
77.93208	6956.104		-10.43741	
77.98607	6955.608		-11.51117	
78.04005	6955.049		-12.54494	
78.09405	6954.43		-13.53789	
78.14804	6953.756		-14.48897	
78.20203	6953.037		-15.39759	
78.25603	6952.263		-16.26347	
78.31001	6951.422		-17.08655	
78.36401	6950.509		-17.86741	
78.418	6949.53		-18.60652	
78.47199	6948.499		-19.30469	
78.52599	6947.423		-19.96288	
78.57997	6946.302		-20.58207	
78.63396	6945.12		-21.16362	
78.68796	6943.861		-21.70867	
78.74195	6942.517		-22.21855	
78.79594	6941.083		-22.69467	
78.84993	6939.564		-23.13846	
78.90392	6937.958		-23.55156	
78.95792	6936.267		-23.93549	
79.01191	6934.494		-24.29184	
79.0659	6932.636		-24.62219	
79.11989	6930.689		-24.92808	
79.17388	6928.653		-25.21107	
79.22787	6926.53		-25.47254	
79.28187	6924.336		-25.71376	
79.33586	6922.093		-25.93587	
79.38985	6919.817		-26.13978	
79.44384	6917.521		-26.32628	
79.49783	6915.208		-26.49581	
79.55183	6912.889		-26.64861	
79.60582	6910.575		-26.78464	
79.65981	6908.294		-26.90364	
79.7138	6906.075		-27.0052	
79.76779	6903.95		-27.08877	
79.82178	6901.933		-27.1537	
79.87578	6900.024		-27.19928	
79.92976	6898.213		-27.22474	
79.98376	6896.493		-27.22927	
80.03775	6894.843		-27.21202	
80.09174	6893.25		-27.17215	
80.14574	6891.714		-27.10898	
80.19973	6890.252		-27.02199	
80.25372	6888.872		-26.91087	
80.30771	6887.565		-26.77549	
80.3617	6886.327		-26.61597	
80.4157	6885.151		-26.43266	
80.46969	6884.037		-26.22616	
80.52367	6882.985		-25.99735	
80.57767	6882.002		-25.74725	
80.63166	6881.093		-25.47724	
80.68565	6880.244		-25.18881	
80.73965	6879.42		-24.88369	
80.79363	6878.575		-24.56374	
80.84763	6877.668		-24.23083	
80.90162	6876.677		-23.88707	
80.95561	6875.594		-23.53465	
81.00961	6874.422		-23.1759	
81.06359	6873.169		-22.81327	
81.11758	6871.855		-22.44911	
81.17158	6870.505		-22.086	
81.22557	6869.146		-21.7265	
81.27956	6867.805		-21.37319	
81.33355	6866.503		-21.02869	
81.38754	6865.252		-20.69543	
81.44154	6864.054		-20.3759	
81.49553	6862.903		-20.07241	
81.54952	6861.777		-19.7871	
81.60351	6860.639		-19.52194	
81.6575	6859.457		-19.2786	
81.71149	6858.228		-19.0587	
81.76549	6856.963		-18.86363	
81.81948	6855.683		-18.69464	
81.87347	6854.411		-18.55288	
81.92746	6853.17		-18.43931	
81.98145	6851.977		-18.35484	
82.03545	6850.844		-18.30029	
82.08944	6849.789		-18.2764	
82.14342	6848.836		-18.28386	
82.19742	6848.01		-18.32335	
82.25141	6847.311		-18.39551	
82.3054	6846.726		-18.5009	
82.3594	6846.217		-18.64	
82.41339	6845.734		-18.81323	
82.46738	6845.23		-19.0209	
82.52137	6844.676		-19.26344	
82.57536	6844.08		-19.54122	
82.62936	6843.462		-19.85471	
82.68335	6842.848		-20.2044	
82.73734	6842.256		-20.59076	
82.79133	6841.693		-21.01445	
82.84532	6841.159		-21.47595	
82.89931	6840.656		-21.97584	
82.95331	6840.182		-22.51477	
83.00729	6839.729		-23.09338	
83.06129	6839.276		-23.7126	
83.11528	6838.792		-24.37309	
83.16927	6838.24		-25.07556	
83.22327	6837.601		-25.82061	
83.27725	6836.859		-26.60865	
83.33125	6836.013		-27.44035	
83.38524	6835.069		-28.31596	
83.43923	6834.053		-29.23574	
83.49323	6832.995		-30.19987	
83.54721	6831.912		-31.20823	
83.6012	6830.807		-32.26104	
83.6552	6829.684		-33.35794	
83.70919	6828.537		-34.49864	
83.76318	6827.353		-35.68272	
83.81717	6826.113		-36.90945	
83.87116	6824.795		-38.17846	
83.92516	6823.373		-39.48872	
83.97915	6821.821		-40.83923	
84.03314	6820.121		-42.22889	
84.08713	6818.271		-43.65622	
84.14112	6816.282		-45.12025	
84.19511	6814.164		-46.61927	
84.24911	6811.932		-48.15173	
84.3031	6809.599		-49.71596	
84.35709	6807.176		-51.30996	
84.41108	6804.667		-52.93227	
84.46507	6802.056		-54.58068	
84.51907	6799.332		-56.25311	
84.57306	6796.477		-57.94739	
84.62704	6793.472		-59.66109	
84.68104	6790.307		-61.39246	
84.73503	6786.971		-63.13899	
84.78902	6783.454		-64.89835	
84.84302	6779.757		-66.66814	
84.89701	6775.897		-68.44595	
84.951	6771.904		-70.2291	
85.00499	6767.81		-72.01573	
85.05898	6763.633		-73.80334	
85.11298	6759.379		-75.58968	
85.16697	6755.047		-77.3726	
85.22095	6750.646		-79.14973	
85.27495	6746.177		-80.91946	
85.32894	6741.643		-82.67947	
85.38293	6737.034		-84.42769	
85.43693	6732.339		-86.16208	
85.49091	6727.535		-87.88037	
85.54491	6722.585		-89.58107	
85.5989	6717.474		-91.26199	
85.65289	6712.203		-92.92122	
85.70689	6706.795		-94.55701	
85.76087	6701.281		-96.16751	
85.81487	6695.685		-97.75169	
85.86886	6690.019		-99.30797	
85.92285	6684.292		-100.8351	
85.97684	6678.5		-102.3321	
86.03083	6672.65		-103.7978	
86.08482	6666.74		-105.2319	
86.13882	6660.771		-106.6334	
86.19281	6654.729		-108.0018	
86.2468	6648.592		-109.3364	
86.30079	6642.331		-110.6366	
86.35478	6635.934		-111.9024	
86.40878	6629.4		-113.1331	
86.46277	6622.744		-114.3284	
86.51676	6615.97		-115.4881	
86.57075	6609.092		-116.6121	
86.62474	6602.127		-117.7005	
86.67873	6595.108		-118.7535	
86.73273	6588.059		-119.7713	
86.78672	6580.997		-120.754	
86.84071	6573.935		-121.7021	
86.8947	6566.88		-122.6161	
86.94869	6559.833		-123.4962	
87.00269	6552.791		-124.343	
87.05668	6545.74		-125.1568	
87.11067	6538.66		-125.938	
87.16466	6531.529		-126.6872	
87.21865	6524.331		-127.405	
87.27264	6517.057		-128.0921	
87.32664	6509.71		-128.7493	
87.38063	6502.308		-129.3773	
87.43462	6494.878		-129.977	
87.48861	6487.45		-130.5493	
87.5426	6480.046		-131.0951	
87.5966	6472.685		-131.6153	
87.65059	6465.372		-132.1108	
87.70457	6458.101		-132.5825	
87.75857	6450.848		-133.0313	
87.81256	6443.581		-133.4582	
87.86655	6436.269		-133.8643	
87.92055	6428.894		-134.2505	
87.97453	6421.458		-134.6177	
88.02853	6413.968		-134.9671	
88.08252	6406.44		-135.2995	
88.13651	6398.89		-135.616	
88.19051	6391.337		-135.9173	
88.24449	6383.798		-136.2044	
88.29848	6376.275		-136.4781	
88.35248	6368.777		-136.7392	
88.40647	6361.321		-136.9883	
88.46046	6353.913		-137.2262	
88.51445	6346.543		-137.4532	
88.56844	6339.188		-137.67	
88.62244	6331.83		-137.8769	
88.67643	6324.452		-138.0741	
88.73042	6317.042		-138.2617	
88.78441	6309.603		-138.4397	
88.8384	6302.148		-138.608	
88.8924	6294.696		-138.7668	
88.94639	6287.257		-138.9158	
89.00038	6279.832		-139.0551	
89.05437	6272.417		-139.1844	
89.10836	6265.017		-139.3038	
89.16235	6257.632		-139.4132	
89.21635	6250.263		-139.5125	
89.27034	6242.899		-139.6018	
89.32433	6235.525		-139.6813	
89.37832	6228.113		-139.7512	
89.43231	6220.639		-139.8118	
89.48631	6213.088		-139.8633	
89.5403	6205.473		-139.9062	
89.59429	6197.811		-139.9408	
89.64828	6190.132		-139.9676	
89.70227	6182.458		-139.9874	
89.75626	6174.801		-140.0008	
89.81026	6167.156		-140.0086	
89.86425	6159.516		-140.0119	
89.91824	6151.876		-140.0113	
89.97223	6144.234		-140.008	
90.02622	6136.587		-140.0026	
90.08022	6128.923		-139.9959	
90.13421	6121.227		-139.9887	
90.18819	6113.495		-139.9816	
90.24219	6105.713		-139.9752	
90.29618	6097.879		-139.97	
90.35017	6089.99		-139.9666	
90.40417	6082.062		-139.9653	
90.45815	6074.115		-139.9668	
90.51215	6066.167		-139.9712	
90.56614	6058.232		-139.979	
90.62013	6050.327		-139.9904	
90.67413	6042.456		-140.0052	
90.72811	6034.629		-140.0236	
90.7821	6026.849		-140.0451	
90.8361	6019.117		-140.0694	
90.89009	6011.424		-140.0959	
90.94408	6003.765		-140.124	
90.99807	5996.137		-140.1531	
91.05206	5988.543		-140.1825	
91.10606	5980.999		-140.2114	
91.16005	5973.517		-140.2393	
91.21404	5966.109		-140.2655	
91.26803	5958.79		-140.2898	
91.32202	5951.561		-140.3116	
91.37601	5944.411		-140.3309	
91.43001	5937.308		-140.3474	
91.484	5930.224		-140.3613	
91.53799	5923.145		-140.3724	
91.59198	5916.061		-140.381	
91.64597	5908.969		-140.3871	
91.69997	5901.862		-140.3911	
91.75396	5894.729		-140.3932	
91.80795	5887.554		-140.3938	
91.86194	5880.326		-140.3932	
91.91593	5873.033		-140.3921	
91.96992	5865.677		-140.3908	
92.02392	5858.259		-140.39	
92.07791	5850.787		-140.3905	
92.1319	5843.272		-140.3929	
92.18589	5835.72		-140.3978	
92.23988	5828.128		-140.406	
92.29388	5820.484		-140.4179	
92.34787	5812.772		-140.434	
92.40186	5804.992		-140.4547	
92.45585	5797.153		-140.5002	
92.50984	5789.277		-140.5434	
92.56384	5781.379		-140.5853	
92.61783	5773.47		-140.627	
92.67181	5765.561		-140.6691	
92.72581	5757.669		-140.712	
92.7798	5749.812		-140.756	
92.83379	5741.998		-140.8011	
92.88779	5734.22		-140.8473	
92.94177	5726.472		-140.8945	
92.99577	5718.739		-140.9427	
93.04976	5711.014		-140.9916	
93.10375	5703.282		-141.0412	
93.15775	5695.533		-141.0913	
93.21173	5687.761		-141.1418	
93.26572	5679.98		-141.1926	
93.31972	5672.213		-141.2434	
93.37371	5664.485		-141.2943	
93.4277	5656.808		-141.3452	
93.48169	5649.195		-141.3959	
93.53568	5641.642		-141.4465	
93.58968	5634.124		-141.4967	
93.64367	5626.611		-141.5466	
93.69766	5619.084		-141.5962	
93.75165	5611.532		-141.6453	
93.80564	5603.955		-141.6939	
93.85963	5596.35		-141.7419	
93.91363	5588.713		-141.7894	
93.96762	5581.033		-141.8363	
94.02161	5573.303		-141.8825	
94.0756	5565.512		-141.928	
94.12959	5557.736		-141.9729	
94.18359	5549.983		-142.0169	
94.23758	5542.25		-142.0602	
94.29157	5534.529		-142.1028	
94.34556	5526.816		-142.1445	
94.39955	5519.104		-142.1854	
94.45354	5511.389		-142.2255	
94.50754	5503.669		-142.2648	
94.56153	5495.942		-142.3032	
94.61552	5488.21		-142.3408	
94.66951	5480.471		-142.3776	
94.7235	5472.726		-142.4135	
94.7775	5464.977		-142.4487	
94.83149	5457.221		-142.483	
94.88548	5449.461		-142.5165	
94.93947	5441.695		-142.5493	
94.99346	5433.925		-142.5813	
