T[Â°C]	330nm [counts / mm]	S.D.
20.00043	3297.584	
20.00066	3293.301	
20.0056	3303.851	
20.00787	3302.781	
20.02045	3289.196	
20.02512	3294.898	
20.046	3296.746	
20.0525	3296.482	
20.08142	3297.742	
20.08973	3301.275	
20.1242	3292.229	
20.13422	3302.402	
20.17479	3296.614	
20.18661	3293.42	
20.23302	3289.42	
20.24656	3296.641	
20.30035	3294.201	
20.31642	3282.674	
20.37307	3292.614	
20.38975	3293.981	
20.45271	3279.557	
20.47029	3278.264	
20.53938	3275.476	
20.5582	3274.346	
20.63041	3266.797	
20.65077	3265.848	
20.72584	3270.464	
20.74654	3264.334	
20.82598	3260.365	
20.8472	3266.267	
20.92971	3258.967	
20.95245	3250.798	
21.03699	3253.858	
21.06003	3253.75	
21.14396	3248.684	
21.16663	3246.378	
21.25284	3246.138	
21.27639	3247.998	
21.36125	3237.787	
21.38448	3240.543	
21.47319	3231.021	
21.49627	3231.743	
21.58305	3234.09	
21.60537	3222.38	
21.68993	3226.877	
21.71299	3219.209	
21.80193	3230.327	
21.82489	3221.654	
21.91035	3214.974	
21.93381	3223.558	
22.02047	3208.037	
22.04398	3215.951	
22.13139	3204.802	
22.15441	3207.84	
22.23881	3204.02	
22.26182	3205.066	
22.34808	3205.227	
22.3713	3192.125	
22.45787	3177.39	
22.48109	3176.827	
22.56727	3177.277	
22.59016	3182.364	
22.67787	3179.954	
22.70092	3186.638	
22.787	3171.994	
22.81054	3178.832	
22.89761	3166.788	
22.92054	3168.306	
23.00561	3154.108	
23.02913	3161.629	
23.11503	3163.235	
23.13766	3160.42	
23.22198	3151.645	
23.24536	3151.051	
23.33453	3154.513	
23.35788	3146.208	
23.44579	3138.308	
23.46838	3141.805	
23.55334	3137.383	
23.57681	3140.975	
23.66212	3138.62	
23.6853	3136.637	
23.77332	3134.002	
23.7966	3124.373	
23.88235	3127.859	
23.90525	3130.696	
23.99189	3137.402	
24.01533	3118.139	
24.10152	3118.085	
24.12432	3122.66	
24.2109	3106.412	
24.23462	3119.612	
24.32168	3102.337	
24.34452	3096.438	
24.42874	3096.674	
24.45224	3095.177	
24.53829	3099.412	
24.56143	3098.236	
24.64992	3094.752	
24.67287	3085.803	
24.75694	3093.285	
24.78061	3090.771	
24.86879	3074.957	
24.89173	3078.997	
24.9773	3083.89	
24.99976	3077.879	
25.08603	3081.057	
25.10998	3068.595	
25.19795	3073.627	
25.22133	3071.459	
25.30708	3071.001	
25.33029	3066.26	
25.41544	3060.755	
25.43831	3059.528	
25.52528	3055.514	
25.5484	3053.217	
25.63419	3042.263	
25.65738	3055.629	
25.74408	3043.347	
25.76698	3050.578	
25.85142	3038.031	
25.87437	3043.478	
25.96299	3030.195	
25.98856	3034.306	
26.07311	3027.703	
26.09635	3024.709	
26.18041	3021.972	
26.20339	3028.1	
26.29048	3024.01	
26.31445	3021.299	
26.4017	3017.03	
26.42416	3011.563	
26.50914	3017.163	
26.53218	3017.099	
26.61936	3010.913	
26.64278	3003.771	
26.73182	3011.335	
26.75488	3003.54	
26.83646	2996.146	
26.85941	2996.742	
26.94858	2992.31	
26.97196	2996.453	
27.05857	2985.795	
27.08155	2982.55	
27.1673	2989.076	
27.19165	2984.694	
27.27674	2974.391	
27.29977	2980.861	
27.38673	2978.419	
27.40992	2976.426	
27.49546	2971.923	
27.51888	2964.851	
27.6041	2971.457	
27.62673	2970.1	
27.7147	2966.63	
27.73771	2964.103	
27.82242	2949.521	
27.84548	2950.219	
27.93348	2950.723	
27.95661	2944.909	
28.04165	2935.586	
28.06575	2952.544	
28.15478	2939.766	
28.17735	2943.065	
28.2607	2940.304	
28.28355	2932.704	
28.37074	2934.9	
28.39392	2926.859	
28.48158	2924.728	
28.50509	2922.374	
28.59104	2928.753	
28.61416	2919.987	
28.69897	2920.678	
28.72173	2919.487	
28.80935	2915.298	
28.83327	2911.124	
28.91863	2917.366	
28.9412	2909.415	
29.02833	2908.006	
29.05225	2908.493	
29.13884	2908.051	
29.1619	2913.146	
29.24753	2892.5	
29.27059	2896.268	
29.35511	2895.672	
29.37951	2893.571	
29.46626	2888.331	
29.4896	2885.173	
29.57479	2873.536	
29.59773	2879.676	
29.68457	2879.264	
29.70816	2875.573	
29.79401	2878.175	
29.81678	2874.405	
29.90433	2868.381	
29.92755	2867.504	
30.01305	2871.831	
30.0362	2870.83	
30.12237	2850.682	
30.14554	2859.538	
30.2306	2854.961	
30.25317	2862.687	
30.34048	2859.166	
30.36618	2851.452	
30.45121	2840.627	
30.47519	2849.96	
30.56034	2840.587	
30.58305	2841.649	
30.6706	2827.477	
30.69407	2831.383	
30.78029	2835.674	
30.80301	2838.497	
30.88995	2830.015	
30.91359	2830.872	
30.99755	2816.709	
31.02147	2820.463	
31.10697	2822	
31.12979	2815.435	
31.21804	2817.06	
31.24165	2819.698	
31.32651	2814.304	
31.35044	2808.086	
31.43654	2808.495	
31.45961	2798.061	
31.54466	2802.558	
31.56779	2806.719	
31.65585	2799.655	
31.67921	2791.246	
31.76345	2797.354	
31.78767	2793.559	
31.87394	2801.036	
31.89681	2792.406	
31.98494	2781.156	
32.00799	2777.724	
32.09285	2782.109	
32.11598	2772.89	
32.20136	2775.007	
32.22523	2785.223	
32.311	2775.713	
32.33469	2761.172	
32.42099	2776.198	
32.44387	2771.737	
32.53055	2761.855	
32.55328	2765.213	
32.64079	2757.964	
32.66384	2753.502	
32.74808	2748.481	
32.77129	2750.603	
32.85838	2746.798	
32.88162	2752.294	
32.96983	2742.24	
32.99304	2745.628	
33.07872	2732.459	
33.1016	2742.133	
33.18483	2735.968	
33.20815	2738.142	
33.29713	2730.07	
33.3214	2730.963	
33.40581	2732.574	
33.42924	2724.446	
33.51737	2723.449	
33.53971	2716.927	
33.62366	2716.104	
33.64783	2714.622	
33.73512	2705.418	
33.75794	2702.721	
33.84404	2712.124	
33.86787	2705.183	
33.95393	2712.649	
33.97698	2704.391	
34.06335	2704.61	
34.08649	2703.506	
34.17212	2697.696	
34.19528	2702.064	
34.2811	2692.228	
34.3044	2685.596	
34.3916	2693.753	
34.41442	2682.167	
34.501	2687.61	
34.52345	2683.994	
34.60933	2678.39	
34.63278	2678.242	
34.72084	2673.278	
34.74414	2665.077	
34.82821	2665.335	
34.85376	2667.866	
34.93828	2662.098	
34.96117	2664.767	
35.04868	2657.485	
35.07227	2656.239	
35.15695	2655.706	
35.18087	2658.991	
35.26519	2658.529	
35.28803	2650.058	
35.37789	2655.576	
35.40093	2644.355	
35.48437	2643.155	
35.50805	2644.343	
35.59526	2641.219	
35.61851	2641.833	
35.70383	2638.698	
35.72708	2630.736	
35.81382	2632.318	
35.83691	2626.511	
35.92337	2636.524	
35.9461	2630.731	
36.03337	2631.92	
36.05748	2630.2	
36.14307	2618.736	
36.16572	2623.44	
36.252	2606.569	
36.27488	2616.349	
36.36032	2611.771	
36.3836	2611.461	
36.47059	2614.28	
36.49381	2604.652	
36.57996	2606.382	
36.6039	2602.878	
36.69101	2598.807	
36.71337	2591.369	
36.79908	2594.323	
36.82262	2590.608	
36.90842	2600.601	
36.93092	2585.878	
37.01706	2594.49	
37.04081	2585.509	
37.12769	2584.709	
37.15079	2582.984	
37.23639	2572.157	
37.25931	2569.85	
37.3456	2577.979	
37.36917	2578.714	
37.45491	2574.703	
37.47828	2569.116	
37.56598	2567.823	
37.58963	2567.116	
37.67451	2555.062	
37.69946	2558.488	
37.78364	2557.542	
37.80675	2553.31	
37.89423	2549.871	
37.91737	2544.75	
38.00373	2560.777	
38.02781	2544.159	
38.1123	2550.691	
38.13499	2544.35	
38.22103	2538.072	
38.24471	2530.914	
38.33092	2533.58	
38.35388	2524.799	
38.44119	2538.758	
38.46454	2523.204	
38.54855	2529.881	
38.57461	2521.806	
38.65868	2521.604	
38.6842	2522.46	
38.76744	2516.935	
38.79022	2513.533	
38.87799	2513.506	
38.90139	2515.027	
38.98851	2511.261	
39.01181	2508.367	
39.09705	2513.719	
39.12073	2503.604	
39.20798	2511.315	
39.23072	2503.061	
39.31708	2499.953	
39.34063	2493.701	
39.42731	2496.598	
39.45016	2480.727	
39.53643	2490.961	
39.55901	2485.657	
39.64638	2490.233	
39.6692	2491.108	
39.75486	2487.663	
39.77767	2482.176	
39.86296	2474.65	
39.8862	2478.714	
39.97379	2480.006	
39.99721	2468.528	
40.08456	2464.816	
40.10754	2470.915	
40.19316	2466.358	
40.21576	2458.161	
40.30079	2460.223	
40.32596	2457.21	
40.41249	2464.195	
40.43628	2452.927	
40.52243	2451.025	
40.54597	2448.5	
40.63114	2450.053	
40.65441	2452.184	
40.74178	2444.673	
40.76555	2444.697	
40.85027	2445.71	
40.87349	2434.43	
40.95976	2433.655	
40.9836	2431.743	
41.07111	2436.307	
41.09387	2430.312	
41.17711	2431.593	
41.20552	2432.447	
41.29147	2427.897	
41.31707	2422.439	
41.40134	2420.785	
41.42447	2420.228	
41.51227	2421.438	
41.53519	2417.641	
41.6213	2413.01	
41.64425	2410.485	
41.72917	2411.647	
41.75256	2410.992	
41.84094	2404.485	
41.86345	2400.747	
41.94812	2407.1	
41.97137	2397.291	
42.058	2401.571	
42.08092	2391.388	
42.16921	2402.26	
42.19269	2394.975	
42.27844	2390.267	
42.30133	2387.295	
42.38641	2382.463	
42.40929	2384.771	
42.49559	2383.431	
42.51978	2381.556	
42.60717	2380.928	
42.63047	2375.549	
42.71444	2378.634	
42.73804	2370.235	
42.8247	2376.122	
42.85002	2366.773	
42.93626	2369.354	
42.95949	2364.842	
43.04392	2365.724	
43.06778	2369.323	
43.15133	2355.7	
43.17537	2356.148	
43.26349	2358.99	
43.28701	2352.059	
43.37207	2355.804	
43.39459	2346.784	
43.4809	2352.979	
43.50404	2347.898	
43.59116	2342.208	
43.6144	2334.972	
43.70181	2340.537	
43.72498	2340.318	
43.80973	2342.525	
43.83282	2332.317	
43.91779	2333.862	
43.94056	2325.246	
44.02792	2333.195	
44.05139	2326.551	
44.13831	2323.957	
44.16188	2316.021	
44.24829	2323.859	
44.27121	2313.919	
44.35615	2314.129	
44.37953	2311.341	
44.46526	2310.765	
44.49055	2308.612	
44.57715	2307.732	
44.59966	2312.829	
44.68459	2304.291	
44.70738	2306.329	
44.7945	2299.335	
44.81719	2290.54	
44.90443	2298.707	
44.92771	2299.577	
45.01456	2291.249	
45.03759	2290.471	
45.12296	2291.608	
45.14666	2284.313	
45.23103	2284.77	
45.25475	2277.388	
45.34278	2284.599	
45.36597	2272.891	
45.45351	2275.811	
45.479	2266.202	
45.56535	2276.968	
45.5885	2265.214	
45.67384	2270.297	
45.69804	2268.193	
45.78442	2271.608	
45.80725	2265.848	
45.89346	2272.468	
45.91639	2258.625	
46.00061	2253.588	
46.02464	2255.339	
46.11235	2253.404	
46.13527	2257.424	
46.22017	2252.013	
46.24345	2245.159	
46.33031	2253.707	
46.35407	2241.927	
46.44122	2249.604	
46.46381	2240.985	
46.54972	2246.643	
46.57287	2239.794	
46.65872	2242.259	
46.68238	2235.626	
46.76851	2234.387	
46.79142	2239.177	
46.87673	2236.562	
46.90126	2229.402	
46.9878	2229.252	
47.01069	2215.78	
47.09545	2223.894	
47.11892	2218.255	
47.20681	2211.765	
47.2297	2214.732	
47.31539	2219.306	
47.33859	2211.059	
47.42403	2217.493	
47.44704	2206.082	
47.53635	2212.371	
47.55926	2205.051	
47.64291	2199.888	
47.66586	2202.331	
47.75317	2200.834	
47.77701	2195.301	
47.86344	2192.641	
47.88675	2194.262	
47.9719	2196.483	
47.99588	2188.195	
48.08243	2191.278	
48.10596	2189.799	
48.19464	2183.649	
48.21787	2177.456	
48.2993	2180.694	
48.32443	2168.302	
48.41005	2179.157	
48.43347	2174.107	
48.51857	2176.699	
48.54203	2173.837	
48.63194	2179.359	
48.65493	2166.588	
48.73936	2166.312	
48.76212	2159.279	
48.85141	2164.981	
48.8748	2156.006	
48.96246	2154.547	
48.98631	2145.875	
49.07154	2152.2	
49.09491	2158.333	
49.17987	2153.364	
49.20262	2146.558	
49.28866	2142.028	
49.31214	2142.735	
49.39799	2144.76	
49.42091	2136.452	
49.50888	2136.81	
49.53357	2137.027	
49.61744	2136.765	
49.64006	2132.391	
49.72618	2132.546	
49.75019	2127.142	
49.83735	2130.898	
49.86058	2121.517	
49.94655	2126.152	
49.96976	2112.963	
50.05646	2125.318	
50.07948	2121.99	
50.16477	2119.371	
50.18785	2119.327	
50.27435	2110.596	
50.29821	2112.541	
50.38552	2110.832	
50.40876	2111.669	
50.49229	2108.023	
50.51515	2107.647	
50.60241	2110.849	
50.62621	2106.786	
50.71362	2108.803	
50.73698	2094.658	
50.82318	2095.256	
50.84589	2095.554	
50.93258	2097.385	
50.95582	2083.792	
51.04086	2091.946	
51.06414	2090.542	
51.15051	2088.095	
51.1741	2085.463	
51.26137	2087.166	
51.28391	2080.174	
51.36935	2080.745	
51.39283	2066.097	
51.4795	2080.228	
51.50222	2072.619	
51.58648	2068.112	
51.6097	2067.363	
51.69829	2069.061	
51.72139	2060.237	
51.80591	2064.154	
51.82996	2060.973	
51.919	2061.049	
51.94107	2052.477	
52.02349	2065.249	
52.04763	2052.231	
52.13757	2057.501	
52.16035	2049.435	
52.24434	2052.795	
52.26715	2042.06	
52.35555	2048.772	
52.37842	2041.072	
52.46215	2048.89	
52.48526	2040.034	
52.57441	2043.238	
52.59769	2039.655	
52.68265	2038.284	
52.70792	2036.407	
52.79164	2038.323	
52.81446	2029.197	
52.90305	2036.06	
52.92888	2027.861	
53.01255	2027.953	
53.03746	2022.824	
53.12225	2029.9	
53.14539	2014.611	
53.22988	2029.503	
53.25465	2016.456	
53.34053	2017.387	
53.36386	2012.26	
53.45207	2010.43	
53.47507	2014.345	
53.56087	2013.225	
53.58307	2012.867	
53.6696	2015.691	
53.69215	2002.714	
53.77844	2003.027	
53.80179	2003.122	
53.88964	2001.547	
53.91208	2001.575	
54.00238	1997.263	
54.02614	1990.294	
54.11196	1995.662	
54.13525	1993.313	
54.22121	1987.543	
54.2442	1984.212	
54.33184	1984.936	
54.35501	1984.387	
54.43966	1984.552	
54.46262	1973.231	
54.55369	1986.142	
54.5774	1976.722	
54.6621	1976.132	
54.68489	1973.831	
54.77257	1974.693	
54.79552	1966.332	
54.88393	1960.712	
54.90797	1964.67	
54.99009	1968.073	
55.01306	1958.484	
55.10072	1967.798	
55.12354	1963.425	
55.21445	1960.402	
55.23738	1951.655	
55.32386	1959.523	
55.3473	1948.213	
55.43493	1954.889	
55.4577	1943.521	
55.548	1949.278	
55.57193	1940.752	
55.65679	1955.799	
55.67907	1939.699	
55.76751	1948.132	
55.79089	1941.495	
55.87752	1944.429	
55.90055	1940.34	
55.98582	1936.613	
56.01075	1935.38	
56.09676	1934.298	
56.11989	1924.265	
56.20411	1925.297	
56.22709	1917.2	
56.31458	1924.827	
56.33773	1919.673	
56.42393	1920.502	
56.44816	1920.887	
56.53622	1920.398	
56.56009	1908.703	
56.64443	1917.165	
56.66935	1904.217	
56.75094	1911.242	
56.77609	1912.135	
56.86265	1909.781	
56.88841	1901.657	
56.97287	1902.61	
56.99604	1894.779	
57.08011	1905.557	
57.10666	1899.496	
57.19437	1901.788	
57.21983	1891.792	
57.30515	1903.594	
57.33058	1886.272	
57.41714	1897.936	
57.4411	1887.832	
57.52626	1897.034	
57.55013	1884.04	
57.63647	1885.814	
57.6612	1878.094	
57.74594	1886.775	
57.77221	1885.731	
57.85928	1878.744	
57.88255	1878.373	
57.96918	1880.349	
57.99279	1876.803	
58.07901	1877.064	
58.10212	1865.428	
58.18742	1872.233	
58.20985	1860.288	
58.29789	1870.76	
58.32111	1864.849	
58.40783	1866.629	
58.43229	1860.096	
58.51793	1866.068	
58.54108	1852.124	
58.62647	1863.935	
58.64896	1861.527	
58.7364	1854.79	
58.75972	1853.315	
58.84651	1852.853	
58.87014	1844.535	
58.95739	1852.241	
58.98207	1837.634	
59.06555	1847.502	
59.08871	1836.524	
59.17424	1845.533	
59.19762	1834.442	
59.28906	1848.323	
59.31242	1828.868	
59.39957	1839.621	
59.4228	1827.059	
59.50534	1836.256	
59.52858	1826.32	
59.6191	1842.426	
59.64399	1827.299	
59.72659	1829.917	
59.74981	1825.179	
59.83704	1819.992	
59.86087	1815.884	
59.94688	1826.276	
59.96937	1814.052	
60.05618	1814.749	
60.07951	1806.982	
60.16556	1818.581	
60.18994	1808.983	
60.27557	1814.93	
60.29882	1806.612	
60.38417	1811.567	
60.40736	1798.43	
60.498	1807.846	
60.52333	1796.344	
60.60791	1805.427	
60.63092	1798.486	
60.71598	1800.936	
60.73928	1795.083	
60.82634	1800.995	
60.85101	1788.526	
60.93569	1797.037	
60.95926	1785.755	
61.04641	1796.846	
61.069	1788.449	
61.15651	1790.56	
61.17961	1784.37	
61.26581	1790.755	
61.28874	1785.272	
61.37682	1783.249	
61.40004	1775.84	
61.48539	1780.427	
61.50954	1775.99	
61.59629	1774.182	
61.61977	1771.961	
61.70444	1770.166	
61.72766	1770.274	
61.8151	1775.756	
61.83918	1769.753	
61.92612	1774.157	
61.94923	1765.76	
62.03585	1764.487	
62.05928	1761.551	
62.14709	1764.802	
62.17101	1757.758	
62.25457	1758.724	
62.27808	1761.807	
62.36595	1760.144	
62.38945	1751.468	
62.47276	1756.261	
62.49544	1748.856	
62.58264	1759.944	
62.60566	1746.484	
62.69295	1746.165	
62.71874	1742.994	
62.8023	1745.946	
62.82536	1746.565	
62.91162	1746.241	
62.93509	1742.226	
63.02182	1744.322	
63.04464	1738.826	
63.13251	1743.007	
63.15639	1733.395	
63.24233	1742.149	
63.26568	1739.936	
63.35092	1743.367	
63.37399	1730.416	
63.46242	1736.712	
63.48589	1728.83	
63.57127	1735.627	
63.59443	1727.312	
63.68084	1728.323	
63.70382	1721.531	
63.79188	1726.985	
63.81546	1723.389	
63.90036	1729.629	
63.92337	1715.016	
64.00961	1727.26	
64.0327	1720.614	
64.11967	1719.519	
64.14289	1716.639	
64.23009	1722.892	
64.25335	1707.959	
64.34027	1720.13	
64.36337	1717.592	
64.44865	1715.737	
64.47212	1709.436	
64.55841	1712.433	
64.58181	1703.117	
64.66749	1715.23	
64.69044	1703.943	
64.77631	1711.856	
64.79981	1702.729	
64.88687	1708.292	
64.90996	1707.818	
64.99559	1708.969	
65.01862	1705.468	
65.10528	1702.671	
65.12878	1697.235	
65.21326	1710.624	
65.23693	1700.486	
65.32549	1706.471	
65.34856	1693.668	
65.43351	1698.924	
65.45631	1699.676	
65.54486	1705.683	
65.56843	1702.516	
65.65363	1705.446	
65.67702	1700.029	
65.76443	1704.844	
65.7877	1701.21	
65.87133	1706.792	
65.89496	1698.849	
65.98147	1701.417	
66.00455	1702.41	
66.09137	1703.409	
66.11518	1697.943	
66.20181	1708.377	
66.22525	1690.671	
66.31187	1701.687	
66.335	1695.267	
66.42121	1709.921	
66.4443	1694.518	
66.52888	1707.353	
66.55238	1700.977	
66.63984	1710.243	
66.66323	1708.953	
66.75105	1718.779	
66.7747	1711.898	
66.8577	1713.267	
66.88121	1716.777	
66.97012	1727.725	
66.9939	1718.695	
67.07925	1733.089	
67.10238	1714.585	
67.18768	1728.576	
67.21072	1724.547	
67.29795	1736.125	
67.32121	1725.882	
67.40803	1743.891	
67.43205	1728.425	
67.51707	1746.74	
67.53995	1740.947	
67.62621	1758.953	
67.64981	1746.037	
67.7372	1759.646	
67.76141	1749.481	
67.84664	1762.707	
67.86972	1757.909	
67.95552	1776.683	
67.97826	1767.54	
68.06543	1781.755	
68.09128	1783.163	
68.17815	1793.04	
68.20157	1784.429	
68.28865	1812.661	
68.31142	1808.273	
68.39711	1820.759	
68.42126	1816.339	
68.50766	1834.333	
68.53053	1827.712	
68.617	1845.465	
68.64083	1840.294	
68.72758	1862.579	
68.75133	1852.306	
68.83538	1874.368	
68.8588	1867.444	
68.95061	1895.564	
68.97549	1886.548	
69.06022	1906.545	
69.08356	1897.755	
69.16742	1931.374	
69.19376	1924.102	
69.27843	1945.948	
69.30486	1943.819	
69.39378	1974.679	
69.41666	1967.212	
69.50373	1996.84	
69.52717	1991.239	
69.61477	2010.28	
69.64336	2013.835	
69.72652	2042.619	
69.74964	2040.067	
69.83986	2066.669	
69.86313	2065.29	
69.95068	2098.763	
69.97475	2094.38	
70.06067	2122.206	
70.08363	2121.641	
70.1691	2150.178	
70.19294	2151.885	
70.27563	2186.838	
70.29892	2185.326	
70.38614	2211.606	
70.41058	2223.754	
70.49526	2257.727	
70.51821	2247.341	
70.6071	2294.093	
70.63038	2285.158	
70.71761	2318.514	
70.7444	2328.535	
70.83221	2368.758	
70.85527	2358.425	
70.94243	2402.796	
70.96589	2398.627	
71.05219	2449.067	
71.07443	2450.155	
71.16086	2491.795	
71.18361	2491.218	
71.2702	2539.898	
71.29539	2536.568	
71.38676	2587.554	
71.41	2580.104	
71.49268	2622.533	
71.51538	2622.688	
71.60191	2682.911	
71.62532	2673.336	
71.71316	2721.522	
71.7364	2718.589	
71.82319	2767.465	
71.84557	2777.008	
71.93035	2825.885	
71.95497	2828.806	
72.03974	2876.538	
72.06328	2875.143	
72.15	2930.047	
72.17422	2936.058	
72.25758	3001.322	
72.28152	2993.001	
72.36974	3051.28	
72.39294	3051.108	
72.47856	3106.935	
72.50165	3105.915	
72.58958	3153.761	
72.61278	3150.927	
72.6983	3205.793	
72.72069	3191.805	
72.80753	3248.245	
72.83086	3233.23	
72.91713	3292.288	
72.9397	3273.945	
73.02721	3332.708	
73.05045	3316.756	
73.13772	3367.751	
73.16124	3349.951	
73.24509	3401.644	
73.26726	3391.636	
73.35596	3427.346	
73.37997	3408.46	
73.46924	3451.024	
73.49197	3430.418	
73.57742	3471.232	
73.60334	3464.084	
73.69068	3492.116	
73.7148	3477.138	
73.80229	3526.792	
73.82657	3503.065	
73.9102	3530.828	
73.93293	3515.232	
74.01873	3549.76	
74.0428	3538.652	
74.1304	3566.577	
74.15557	3548.91	
74.23971	3580.749	
74.26266	3554.626	
74.34778	3586.067	
74.37109	3559.82	
74.45947	3598.779	
74.48586	3575.333	
74.57143	3606.77	
74.59444	3596.267	
74.68031	3623.898	
74.70568	3598.327	
74.79091	3623.447	
74.81614	3609.092	
74.89838	3637.341	
74.92509	3609.418	
75.01373	3638.897	
75.03609	3617.059	
75.12153	3643.962	
75.14849	3624.13	
75.23618	3658.349	
75.25963	3636.963	
75.3454	3661.412	
75.37146	3638.327	
75.45982	3673.334	
75.48335	3653.164	
75.56853	3670.316	
75.59467	3653.851	
75.68047	3688.222	
75.70352	3660.274	
75.79204	3693.456	
75.81796	3657.148	
75.90542	3688.042	
75.92912	3675.997	
76.01329	3700.686	
76.04151	3661.771	
76.1288	3711.462	
76.15153	3675.908	
76.23676	3707.351	
76.26008	3683.807	
76.35167	3709.901	
76.37521	3677.135	
76.46194	3707.441	
76.48514	3683.798	
76.57406	3724.141	
76.59848	3698.126	
76.68268	3712.319	
76.70648	3705.507	
76.7991	3720.882	
76.82251	3700.952	
76.90482	3729.025	
76.92751	3701.966	
77.0174	3731.272	
77.04086	3703.811	
77.13123	3731.523	
77.15331	3709.065	
77.23634	3748.48	
77.26292	3722.167	
77.35125	3732.606	
77.37416	3719.259	
77.46062	3750.79	
77.48449	3713.071	
77.5719	3754.49	
77.59518	3725.809	
77.68084	3754.151	
77.70415	3719.059	
77.79542	3745.183	
77.81882	3726.21	
77.90286	3751.685	
77.92595	3725.334	
78.01685	3740.902	
78.04294	3721.239	
78.12751	3750.271	
78.1517	3732.469	
78.23695	3750.551	
78.25953	3733.621	
78.34556	3761.481	
78.36893	3727.099	
78.45593	3756.194	
78.47932	3733.124	
78.56628	3746.008	
78.58932	3739.101	
78.67465	3759.981	
78.69736	3729.358	
78.78292	3760.136	
78.80682	3730.379	
78.89556	3764.997	
78.91834	3740.935	
79.00513	3772.217	
79.03204	3740.47	
79.11864	3769.453	
79.14159	3736	
79.22697	3761.181	
79.2536	3741.028	
79.34065	3763.009	
79.36317	3736.895	
79.44927	3764.707	
79.47211	3733.112	
79.5625	3776.467	
79.58627	3727.281	
79.67358	3773.734	
79.6965	3742.11	
79.78191	3771.363	
79.80498	3742.923	
79.89613	3771.944	
79.91944	3744.22	
80.00661	3763.436	
80.02969	3734.053	
80.11587	3775.822	
80.13896	3750.079	
80.22396	3775.898	
80.24876	3745.523	
80.33624	3770.635	
80.35965	3754.427	
80.4424	3781.308	
80.46736	3746.999	
80.55235	3775.25	
80.57558	3742.745	
80.6647	3770.347	
80.68816	3736.617	
80.77275	3774.651	
80.79531	3745.086	
80.88542	3775.962	
80.90933	3749.86	
80.99641	3771.497	
81.01938	3740.593	
81.10569	3772.246	
81.12879	3743.149	
81.21431	3774.509	
81.23729	3750.529	
81.32526	3775.951	
81.34871	3746.624	
81.4344	3784.187	
81.4594	3753.001	
81.54423	3773.315	
81.5675	3755.137	
81.65424	3782.32	
81.67759	3739.913	
81.76338	3786.226	
81.78641	3753.96	
81.87196	3788.532	
81.89499	3744.569	
81.98174	3781.539	
82.00537	3759.73	
82.09325	3788.973	
82.1161	3756.643	
82.2003	3794.862	
82.22398	3763.986	
82.31057	3791.22	
82.33366	3764.669	
82.41956	3795.871	
82.4444	3766.607	
82.52914	3797.043	
82.55272	3759.102	
82.6406	3784.134	
82.66325	3762.817	
82.74757	3797.487	
82.77082	3775.418	
82.85944	3796.849	
82.88245	3772.787	
82.96788	3798.458	
82.99043	3769.962	
83.076	3792.184	
83.09993	3776.531	
83.18668	3796.11	
83.21091	3763.087	
83.29586	3800.309	
83.31975	3763.368	
83.40768	3794.95	
83.43029	3760.14	
83.51465	3801.79	
83.53859	3761.324	
83.62469	3803.485	
83.64755	3771.573	
83.73444	3809.566	
83.75786	3767.191	
83.84444	3816.36	
83.86763	3783.88	
83.95821	3812.175	
83.98063	3782.026	
84.06742	3808.369	
84.09125	3770.676	
84.17802	3807.008	
84.20071	3774.165	
84.28654	3808.849	
84.30988	3782.607	
84.39692	3801.266	
84.42035	3773.358	
84.5071	3803.246	
84.52991	3773.719	
84.61525	3804.033	
84.63775	3770.636	
84.72537	3805.237	
84.74859	3775.495	
84.83479	3809.086	
84.85815	3771.762	
84.94306	3801.053	
84.96621	3769.497	
85.05362	3799.947	
85.07729	3770.14	
85.16433	3793.773	
85.18716	3761.407	
85.27186	3795.267	
85.29456	3757.071	
85.38173	3791.907	
85.40581	3761.412	
85.49153	3789.255	
85.5139	3763.607	
85.59815	3796.019	
85.6218	3754.568	
85.71136	3783.514	
85.73468	3741.167	
85.82098	3778.258	
85.8448	3743.462	
85.92955	3776.585	
85.95435	3736.06	
86.03862	3768.213	
86.06219	3729.566	
86.15015	3765.193	
86.17342	3729.247	
86.25962	3756.04	
86.28276	3728.621	
86.3682	3754.239	
86.39121	3728.177	
86.47797	3739.733	
86.50163	3703.714	
86.58761	3752.162	
86.61043	3706.452	
86.69756	3747.773	
86.72027	3707.198	
86.80638	3734.999	
86.83025	3699.344	
86.91467	3730.242	
86.93766	3706.221	
87.02591	3731.094	
87.0493	3689.823	
87.136	3720.845	
87.15874	3686.655	
87.24702	3712.682	
87.27004	3678.698	
87.35625	3716.358	
87.37975	3673.255	
87.46626	3714.381	
87.48939	3671.173	
87.57565	3692.558	
87.59888	3664.448	
87.68336	3683.909	
87.7058	3669.876	
87.79253	3688.288	
87.81721	3656.852	
87.90284	3678.431	
87.92651	3645.466	
88.01205	3662.307	
88.03503	3625.291	
88.12114	3664.353	
88.14452	3638.513	
88.23094	3658.556	
88.25449	3623.448	
88.34006	3656.969	
88.36305	3622.44	
88.45101	3652.28	
88.47482	3610.329	
88.56184	3634.011	
88.58445	3606.871	
88.67103	3624.585	
88.6937	3592.592	
88.77873	3615.969	
88.80179	3579.984	
88.88742	3621.823	
88.911	3590.241	
89.00025	3615.041	
89.02408	3580.976	
89.10883	3608.853	
89.13245	3576.51	
89.21656	3606.601	
89.23965	3567.133	
89.32755	3596.388	
89.35077	3557.345	
89.43723	3578.921	
89.46021	3549.672	
89.54666	3568.083	
89.57019	3537.399	
89.65678	3574.65	
89.68005	3538.946	
89.7651	3562.112	
89.78809	3530.486	
89.87509	3555.784	
89.89821	3520.631	
89.98471	3548.544	
90.00832	3514.385	
90.09602	3533.841	
90.11908	3508.13	
90.20475	3538.299	
90.22796	3500.8	
90.31499	3523.799	
90.3382	3495.674	
90.42371	3518.536	
90.44675	3484.39	
90.53207	3515.111	
90.55523	3474.822	
90.64448	3497.105	
90.66808	3465.104	
90.75282	3497.152	
90.77544	3459.545	
90.8624	3492.105	
90.88612	3456.064	
90.97268	3488.121	
90.99554	3444.614	
91.08141	3474.863	
91.10453	3441.553	
91.1904	3462.544	
91.21331	3424	
91.30065	3458.462	
91.32386	3417.823	
91.4105	3452.035	
91.43295	3418.199	
91.51743	3439.595	
91.54044	3396.76	
91.628	3423.946	
91.65182	3391.023	
91.73851	3416.543	
91.76115	3385.226	
91.84936	3410.196	
91.87267	3375.167	
91.95702	3401.396	
91.98007	3379.546	
92.06704	3393.368	
92.09038	3361.29	
92.17911	3390.673	
92.20213	3356.93	
92.28499	3384.033	
92.30806	3351.442	
92.396	3371.372	
92.418	3332.397	
92.50568	3365.614	
92.52899	3332.004	
92.61394	3356.208	
92.63726	3324.26	
92.72436	3348.12	
92.74763	3325.562	
92.83559	3348.806	
92.85884	3310.669	
92.94212	3332.173	
92.96532	3297.206	
93.05327	3328.255	
93.07684	3287.434	
93.1629	3324.483	
93.18591	3273.534	
93.2721	3310.756	
93.29538	3279.447	
93.38236	3304.653	
93.40568	3266.892	
93.49193	3287.333	
93.51475	3263.573	
93.60117	3289.427	
93.62409	3251.091	
93.71159	3274.303	
93.73503	3241.359	
93.82118	3265.354	
93.84368	3230.272	
93.92743	3256.975	
93.95042	3223.653	
94.03596	3252.993	
94.05847	3223.402	
94.14263	3242.022	
94.16458	3221.304	
94.24132	3231.533	
94.26239	3210.716	
94.33856	3229.057	
94.35873	3193.805	
94.43172	3219.632	
94.45047	3190.682	
94.51764	3207.798	
94.53554	3170.346	
94.59957	3213.878	
94.61751	3176.306	
94.67717	3212.054	
94.69222	3167.039	
94.74583	3202.332	
94.75939	3164.052	
94.80491	3191.838	
94.81651	3152.576	
94.85904	3189.458	
94.87028	3152.611	
94.90543	3173.713	
94.91405	3151.706	
94.94226	3194.306	
94.94882	3147.39	
94.97109	3183.606	
94.9758	3147.624	
94.99068	3169.334	
