T[Â°C]	350nm [counts / mm]	S.D.	First derivative	S.D. of first derivative
20.00043	2892.872		-39.85982	
20.05437	2890.68		-39.87472	
20.10832	2888.489		-39.88973	
20.16228	2886.299		-39.90485	
20.21622	2884.112		-39.92007	
20.27017	2881.927		-39.9354	
20.32412	2879.746		-39.95082	
20.37807	2877.566		-39.96633	
20.43202	2875.387		-39.98192	
20.48597	2873.208		-39.99757	
20.53992	2871.028		-40.01329	
20.59387	2868.844		-40.02905	
20.64782	2866.656		-40.04485	
20.70177	2864.461		-40.06067	
20.75572	2862.26		-40.07648	
20.80967	2860.049		-40.09229	
20.86362	2857.826		-40.10807	
20.91757	2855.589		-40.1238	
20.97152	2853.344		-40.13946	
21.02547	2851.125		-40.15503	
21.07942	2848.936		-40.17049	
21.13337	2846.783		-40.18581	
21.18732	2844.663		-40.20098	
21.24127	2842.569		-40.21595	
21.29522	2840.49		-40.23072	
21.34917	2838.413		-40.24525	
21.40312	2836.329		-40.25951	
21.45707	2834.234		-40.2735	
21.51102	2832.131		-40.28718	
21.56497	2830.025		-40.30055	
21.61892	2827.917		-40.3136	
21.67287	2825.803		-40.32631	
21.72682	2823.682		-40.3387	
21.78077	2821.553		-40.35075	
21.83472	2819.416		-40.36247	
21.88867	2817.272		-40.37388	
21.94262	2815.128		-40.38499	
21.99657	2812.993		-40.39582	
22.05052	2810.869		-40.4064	
22.10447	2808.75		-40.41679	
22.15842	2806.622		-40.42705	
22.21237	2804.473		-40.43724	
22.26632	2802.294		-40.44749	
22.32027	2800.091		-40.45794	
22.37422	2797.867		-40.46878	
22.42817	2795.627		-40.48027	
22.48212	2793.37		-40.49273	
22.53607	2791.096		-40.50652	
22.59002	2788.797		-40.52198	
22.64397	2786.464		-40.52793	
22.69792	2784.099		-40.53323	
22.75187	2781.714		-40.53772	
22.80582	2779.324		-40.54128	
22.85977	2776.943		-40.54374	
22.91372	2774.583		-40.54498	
22.96766	2772.261		-40.5449	
23.02162	2769.986		-40.54345	
23.07557	2767.76		-40.5406	
23.12951	2765.579		-40.53635	
23.18346	2763.439		-40.53072	
23.23742	2761.338		-40.52374	
23.29136	2759.266		-40.51546	
23.34531	2757.211		-40.50594	
23.39926	2755.154		-40.49524	
23.45321	2753.077		-40.48346	
23.50716	2750.97		-40.47068	
23.56111	2748.829		-40.45704	
23.61506	2746.654		-40.44268	
23.66901	2744.45		-40.42776	
23.72296	2742.232		-40.41249	
23.77691	2740.016		-40.39705	
23.83086	2737.812		-40.38166	
23.88481	2735.624		-40.36653	
23.93876	2733.452		-40.35186	
23.99271	2731.291		-40.33779	
24.04666	2729.14		-40.32447	
24.10061	2726.99		-40.31199	
24.15456	2724.828		-40.30041	
24.20851	2722.643		-40.28974	
24.26246	2720.425		-40.27999	
24.31641	2718.172		-40.27112	
24.37036	2715.886		-40.26308	
24.42431	2713.584		-40.25579	
24.47826	2711.285		-40.24917	
24.53221	2709.011		-40.24316	
24.58616	2706.776		-40.23772	
24.64011	2704.589		-40.23281	
24.69406	2702.456		-40.22844	
24.74801	2700.371		-40.22464	
24.80196	2698.327		-40.22149	
24.85591	2696.312		-40.21906	
24.90986	2694.321		-40.21741	
24.96381	2692.349		-40.21658	
25.01776	2690.387		-40.21658	
25.07171	2688.421		-40.21744	
25.12566	2686.435		-40.21914	
25.17961	2684.421		-40.22166	
25.23356	2682.375		-40.22498	
25.28751	2680.293		-40.22905	
25.34146	2678.181		-40.2338	
25.39541	2676.047		-40.23916	
25.44936	2673.897		-40.24503	
25.50331	2671.738		-40.25132	
25.55726	2669.566		-40.25792	
25.61121	2667.372		-40.26473	
25.66516	2665.15		-40.27161	
25.71911	2662.9		-40.27843	
25.77306	2660.626		-40.285	
25.82701	2658.334		-40.29113	
25.88096	2656.028		-40.29656	
25.93491	2653.711		-40.30104	
25.98886	2651.39		-40.30429	
26.0428	2649.072		-40.30603	
26.09676	2646.761		-40.30603	
26.15071	2644.461		-40.30403	
26.20465	2642.17		-40.29982	
26.2586	2639.892		-40.29319	
26.31256	2637.629		-40.28397	
26.3665	2635.381		-40.27195	
26.42045	2633.15		-40.25698	
26.4744	2630.941		-40.23889	
26.52835	2628.756		-40.21752	
26.5823	2626.603		-40.19276	
26.63625	2624.482		-40.16452	
26.6902	2622.388		-40.13274	
26.74415	2620.311		-40.09747	
26.7981	2618.24		-40.05879	
26.85205	2616.163		-40.01686	
26.906	2614.078		-39.97188	
26.95995	2611.984		-39.92414	
27.0139	2609.882		-39.87397	
27.06785	2607.771		-39.82171	
27.1218	2605.647		-39.76773	
27.17575	2603.509		-39.71241	
27.2297	2601.348		-39.65612	
27.28365	2599.156		-39.59925	
27.3376	2596.929		-39.5422	
27.39155	2594.673		-39.48532	
27.4455	2592.397		-39.42897	
27.49945	2590.112		-39.37348	
27.5534	2587.822		-39.31909	
27.60735	2585.528		-39.26602	
27.6613	2583.229		-39.21439	
27.71525	2580.927		-39.1643	
27.7692	2578.627		-39.11571	
27.82315	2576.341		-39.06857	
27.8771	2574.082		-39.02273	
27.93105	2571.862		-38.97803	
27.985	2569.69		-38.93427	
28.03895	2567.573		-38.89127	
28.0929	2565.512		-38.8489	
28.14685	2563.503		-38.80703	
28.2008	2561.539		-38.76559	
28.25475	2559.614		-38.72455	
28.3087	2557.726		-38.68393	
28.36265	2555.873		-38.64375	
28.4166	2554.045		-38.60407	
28.47055	2552.232		-38.5649	
28.5245	2550.425		-38.52626	
28.57845	2548.615		-38.48815	
28.6324	2546.792		-38.45057	
28.68635	2544.947		-38.41352	
28.7403	2543.077		-38.37704	
28.79425	2541.179		-38.34118	
28.8482	2539.251		-38.30599	
28.90215	2537.293		-38.27159	
28.95609	2535.303		-38.23813	
29.01005	2533.285		-38.20578	
29.064	2531.246		-38.17476	
29.11794	2529.188		-38.14526	
29.17189	2527.117		-38.11752	
29.22585	2525.031		-38.09178	
29.27979	2522.92		-38.06829	
29.33374	2520.771		-38.04734	
29.38769	2518.583		-38.02918	
29.44164	2516.362		-38.01408	
29.49559	2514.114		-38.00225	
29.54954	2511.848		-37.99384	
29.60349	2509.58		-37.98886	
29.65744	2507.327		-37.98726	
29.71139	2505.1		-37.98889	
29.76534	2502.905		-37.99346	
29.81929	2500.744		-38.00058	
29.87324	2498.615		-38.0098	
29.92719	2496.521		-38.02059	
29.98114	2494.467		-38.03238	
30.03509	2492.455		-38.04461	
30.08904	2490.485		-38.05667	
30.14299	2488.544		-38.06806	
30.19694	2486.617		-38.07826	
30.25089	2484.689		-38.08685	
30.30484	2482.754		-38.09348	
30.35879	2480.806		-38.0979	
30.41274	2478.847		-38.09995	
30.46669	2476.881		-38.0995	
30.52064	2474.911		-38.09653	
30.57459	2472.937		-38.09105	
30.62854	2470.948		-38.08316	
30.68249	2468.933		-38.07298	
30.73644	2466.892		-38.06069	
30.79039	2464.829		-38.04652	
30.84434	2462.747		-38.03074	
30.89829	2460.645		-38.01363	
30.95224	2458.526		-37.99548	
31.00619	2456.396		-37.97658	
31.06014	2454.261		-37.95721	
31.11409	2452.123		-37.93761	
31.16804	2449.987		-37.91802	
31.22199	2447.85		-37.89867	
31.27594	2445.709		-37.87981	
31.32989	2443.568		-37.8617	
31.38384	2441.434		-37.8446	
31.43779	2439.314		-37.82881	
31.49174	2437.205		-37.81457	
31.54569	2435.105		-37.80215	
31.59964	2433.016		-37.79176	
31.65359	2430.946		-37.78356	
31.70754	2428.902		-37.77763	
31.76149	2426.888		-37.77397	
31.81544	2424.902		-37.77243	
31.86939	2422.936		-37.77282	
31.92334	2420.98		-37.77481	
31.97729	2419.028		-37.77802	
32.03123	2417.077		-37.78197	
32.08519	2415.131		-37.78616	
32.13913	2413.188		-37.79006	
32.19308	2411.245		-37.79316	
32.24704	2409.297		-37.79496	
32.30098	2407.339		-37.79503	
32.35493	2405.371		-37.79295	
32.40889	2403.396		-37.78838	
32.46283	2401.416		-37.78107	
32.51678	2399.434		-37.77083	
32.57073	2397.452		-37.75756	
32.62468	2395.467		-37.74124	
32.67863	2393.471		-37.72186	
32.73258	2391.462		-37.69948	
32.78653	2389.436		-37.67426	
32.84048	2387.39		-37.6464	
32.89443	2385.323		-37.61619	
32.94838	2383.243		-37.58392	
33.00233	2381.16		-37.5499	
33.05628	2379.086		-37.51443	
33.11023	2377.026		-37.47775	
33.16418	2374.983		-37.44007	
33.21813	2372.957		-37.4016	
33.27208	2370.945		-37.36255	
33.32603	2368.937		-37.32313	
33.37998	2366.919		-37.28358	
33.43393	2364.879		-37.24413	
33.48788	2362.81		-37.20501	
33.54183	2360.708		-37.16647	
33.59578	2358.575		-37.12878	
33.64973	2356.415		-37.09218	
33.70368	2354.24		-37.05689	
33.75763	2352.068		-37.02312	
33.81158	2349.909		-36.99106	
33.86553	2347.77		-36.96087	
33.91948	2345.651		-36.93268	
33.97343	2343.555		-36.90656	
34.02738	2341.486		-36.88252	
34.08133	2339.443		-36.86051	
34.13528	2337.419		-36.84046	
34.18923	2335.407		-36.82227	
34.24318	2333.399		-36.80581	
34.29713	2331.397		-36.79092	
34.35108	2329.405		-36.77738	
34.40503	2327.425		-36.76498	
34.45898	2325.461		-36.75348	
34.51293	2323.519		-36.74268	
34.56688	2321.607		-36.73237	
34.62083	2319.729		-36.72236	
34.67478	2317.878		-36.71246	
34.72873	2316.04		-36.70252	
34.78268	2314.206		-36.69239	
34.83663	2312.369		-36.68201	
34.89058	2310.526		-36.67134	
34.94453	2308.678		-36.6604	
34.99847	2306.826		-36.64921	
35.05243	2304.968		-36.6378	
35.10638	2303.104		-36.6262	
35.16032	2301.238		-36.61441	
35.21428	2299.38		-36.60243	
35.26823	2297.537		-36.59031	
35.32217	2295.709		-36.57809	
35.37613	2293.89		-36.56587	
35.43007	2292.069		-36.55371	
35.48402	2290.231		-36.5417	
35.53798	2288.367		-36.52994	
35.59192	2286.471		-36.51849	
35.64587	2284.542		-36.50739	
35.69982	2282.587		-36.49672	
35.75377	2280.613		-36.48652	
35.80772	2278.617		-36.4769	
35.86167	2276.598		-36.46794	
35.91562	2274.554		-36.45971	
35.96957	2272.494		-36.45229	
36.02352	2270.43		-36.44572	
36.07747	2268.369		-36.44003	
36.13142	2266.313		-36.43522	
36.18537	2264.26		-36.43126	
36.23932	2262.208		-36.42808	
36.29327	2260.151		-36.42559	
36.34722	2258.079		-36.42365	
36.40117	2255.981		-36.42208	
36.45512	2253.858		-36.42068	
36.50907	2251.717		-36.41925	
36.56302	2249.574		-36.41758	
36.61697	2247.449		-36.41549	
36.67092	2245.348		-36.41275	
36.72487	2243.273		-36.40916	
36.77882	2241.221		-36.40454	
36.83277	2239.191		-36.39875	
36.88672	2237.182		-36.39165	
36.94067	2235.191		-36.38311	
36.99462	2233.212		-36.373	
37.04857	2231.24		-36.36123	
37.10252	2229.271		-36.34766	
37.15647	2227.306		-36.33223	
37.21042	2225.349		-36.31482	
37.26437	2223.406		-36.29536	
37.31832	2221.48		-36.27384	
37.37227	2219.568		-36.25029	
37.42622	2217.666		-36.22478	
37.48017	2215.768		-36.19746	
37.53412	2213.868		-36.16849	
37.58807	2211.963		-36.1381	
37.64202	2210.051		-36.10656	
37.69596	2208.137		-36.07415	
37.74992	2206.228		-36.04121	
37.80387	2204.324		-36.00806	
37.85781	2202.424		-35.97502	
37.91177	2200.524		-35.94238	
37.96572	2198.623		-35.91039	
38.01966	2196.725		-35.87933	
38.07362	2194.829		-35.84939	
38.12756	2192.938		-35.82083	
38.18151	2191.057		-35.79385	
38.23547	2189.185		-35.76867	
38.28941	2187.32		-35.74546	
38.34336	2185.451		-35.72436	
38.39732	2183.573		-35.7055	
38.45126	2181.682		-35.68896	
38.50521	2179.778		-35.67485	
38.55916	2177.867		-35.66325	
38.61311	2175.957		-35.6542	
38.66706	2174.055		-35.64774	
38.72101	2172.165		-35.64387	
38.77496	2170.291		-35.64254	
38.82891	2168.436		-35.64368	
38.88286	2166.6		-35.64714	
38.93681	2164.775		-35.65277	
38.99076	2162.951		-35.66035	
39.04471	2161.109		-35.66967	
39.09866	2159.237		-35.68047	
39.15261	2157.328		-35.69244	
39.20656	2155.383		-35.70522	
39.26051	2153.411		-35.71839	
39.31446	2151.419		-35.73153	
39.36841	2149.413		-35.74419	
39.42236	2147.402		-35.75596	
39.47631	2145.395		-35.76643	
39.53026	2143.402		-35.77526	
39.58421	2141.429		-35.78214	
39.63816	2139.478		-35.78679	
39.69211	2137.55		-35.78902	
39.74606	2135.642		-35.78866	
39.80001	2133.749		-35.78555	
39.85396	2131.858		-35.77957	
39.90791	2129.96		-35.77058	
39.96186	2128.044		-35.75847	
40.01581	2126.104		-35.74315	
40.06976	2124.137		-35.72455	
40.12371	2122.147		-35.70263	
40.17766	2120.141		-35.67741	
40.23161	2118.129		-35.64893	
40.28556	2116.122		-35.6173	
40.33951	2114.127		-35.58263	
40.39346	2112.149		-35.54504	
40.44741	2110.189		-35.50473	
40.50136	2108.245		-35.46188	
40.55531	2106.312		-35.41674	
40.60926	2104.385		-35.36957	
40.66321	2102.458		-35.32064	
40.71716	2100.521		-35.27024	
40.77111	2098.562		-35.21864	
40.82506	2096.575		-35.16612	
40.87901	2094.559		-35.11298	
40.93296	2092.52		-35.05952	
40.9869	2090.464		-35.00607	
41.04086	2088.402		-34.95295	
41.09481	2086.346		-34.90047	
41.14875	2084.309		-34.84892	
41.20271	2082.3		-34.79852	
41.25666	2080.325		-34.74947	
41.3106	2078.39		-34.70188	
41.36456	2076.498		-34.65583	
41.4185	2074.651		-34.61134	
41.47245	2072.846		-34.5684	
41.52641	2071.07		-34.52695	
41.58035	2069.31		-34.4869	
41.6343	2067.552		-34.44815	
41.68826	2065.792		-34.4106	
41.7422	2064.024		-34.37414	
41.79615	2062.252		-34.33865	
41.8501	2060.477		-34.30406	
41.90405	2058.704		-34.27026	
41.958	2056.941		-34.23719	
42.01195	2055.191		-34.20481	
42.0659	2053.458		-34.17308	
42.11985	2051.744		-34.14203	
42.1738	2050.046		-34.11165	
42.22775	2048.363		-34.08197	
42.2817	2046.691		-34.05302	
42.33565	2045.023		-34.02478	
42.3896	2043.35		-33.99723	
42.44355	2041.663		-33.97036	
42.4975	2039.956		-33.9441	
42.55145	2038.229		-33.91843	
42.6054	2036.484		-33.89328	
42.65935	2034.725		-33.86858	
42.7133	2032.951		-33.84429	
42.76725	2031.162		-33.82037	
42.8212	2029.357		-33.7968	
42.87515	2027.54		-33.77364	
42.9291	2025.716		-33.75093	
42.98305	2023.888		-33.72873	
43.037	2022.058		-33.7071	
43.09095	2020.229		-33.68608	
43.1449	2018.398		-33.66571	
43.19885	2016.558		-33.64599	
43.2528	2014.701		-33.62688	
43.30675	2012.82		-33.60831	
43.3607	2010.914		-33.59015	
43.41465	2008.982		-33.57224	
43.4686	2007.023		-33.55438	
43.52255	2005.043		-33.53635	
43.5765	2003.048		-33.51792	
43.63045	2001.053		-33.49885	
43.6844	1999.07		-33.4789	
43.73835	1997.104		-33.45789	
43.7923	1995.165		-33.43563	
43.84624	1993.255		-33.41201	
43.9002	1991.378		-33.38696	
43.95415	1989.528		-33.36044	
44.00809	1987.701		-33.3325	
44.06205	1985.888		-33.30319	
44.116	1984.08		-33.27265	
44.16994	1982.272		-33.24105	
44.2239	1980.465		-33.20859	
44.27784	1978.656		-33.1755	
44.33179	1976.844		-33.14198	
44.38575	1975.027		-33.10827	
44.43969	1973.21		-33.07456	
44.49364	1971.397		-33.04106	
44.54759	1969.593		-33.00795	
44.60154	1967.801		-32.9754	
44.65549	1966.022		-32.94358	
44.70944	1964.259		-32.91263	
44.76339	1962.512		-32.88272	
44.81734	1960.778		-32.85403	
44.87129	1959.057		-32.82674	
44.92524	1957.348		-32.80104	
44.97919	1955.643		-32.77716	
45.03314	1953.935		-32.75529	
45.08709	1952.215		-32.73565	
45.14104	1950.484		-32.71843	
45.19499	1948.746		-32.7038	
45.24894	1947.013		-32.69192	
45.30289	1945.293		-32.68286	
45.35684	1943.589		-32.67668	
45.41079	1941.899		-32.6734	
45.46474	1940.218		-32.67298	
45.51869	1938.548		-32.67536	
45.57264	1936.895		-32.68047	
45.62659	1935.263		-32.68822	
45.68054	1933.651		-32.6985	
45.73449	1932.052		-32.71118	
45.78844	1930.461		-32.72614	
45.84239	1928.876		-32.74321	
45.89634	1927.292		-32.76223	
45.95029	1925.706		-32.78303	
46.00424	1924.114		-32.80541	
46.05819	1922.508		-32.82921	
46.11214	1920.88		-32.85426	
46.16609	1919.22		-32.88038	
46.22004	1917.524		-32.90746	
46.27399	1915.788		-32.93532	
46.32794	1914.013		-32.96382	
46.38189	1912.204		-32.99279	
46.43584	1910.37		-33.02204	
46.48979	1908.52		-33.05138	
46.54374	1906.659		-33.08057	
46.59769	1904.79		-33.10938	
46.65164	1902.912		-33.13753	
46.70559	1901.022		-33.16471	
46.75954	1899.116		-33.19063	
46.81349	1897.195		-33.21492	
46.86744	1895.263		-33.23726	
46.92139	1893.326		-33.25731	
46.97533	1891.387		-33.27477	
47.02929	1889.448		-33.28934	
47.08324	1887.507		-33.30075	
47.13718	1885.568		-33.30878	
47.19114	1883.638		-33.3132	
47.24509	1881.727		-33.31384	
47.29903	1879.837		-33.31057	
47.35299	1877.966		-33.3033	
47.40693	1876.108		-33.29198	
47.46088	1874.254		-33.2766	
47.51484	1872.401		-33.25714	
47.56878	1870.55		-33.23363	
47.62273	1868.701		-33.2061	
47.67669	1866.852		-33.17458	
47.73063	1865.003		-33.13915	
47.78458	1863.156		-33.09988	
47.83853	1861.313		-33.05683	
47.89248	1859.474		-33.01009	
47.94643	1857.643		-32.95976	
48.00038	1855.821		-32.90602	
48.05433	1854.01		-32.84907	
48.10828	1852.208		-32.7892	
48.16223	1850.406		-32.72673	
48.21618	1848.599		-32.66197	
48.27013	1846.782		-32.59529	
48.32408	1844.954		-32.52705	
48.37803	1843.12		-32.45767	
48.43198	1841.284		-32.38757	
48.48593	1839.452		-32.31714	
48.53988	1837.634		-32.24681	
48.59383	1835.84		-32.17697	
48.64778	1834.077		-32.10798	
48.70173	1832.348		-32.04018	
48.75568	1830.656		-31.97387	
48.80963	1828.998		-31.9093	
48.86358	1827.373		-31.84668	
48.91753	1825.776		-31.78618	
48.97148	1824.203		-31.72793	
49.02543	1822.644		-31.67205	
49.07938	1821.089		-31.61863	
49.13333	1819.529		-31.56773	
49.18728	1817.959		-31.51942	
49.24123	1816.379		-31.47375	
49.29518	1814.792		-31.43079	
49.34913	1813.203		-31.39062	
49.40308	1811.617		-31.35332	
49.45703	1810.037		-31.31897	
49.51098	1808.463		-31.28761	
49.56493	1806.894		-31.25925	
49.61888	1805.329		-31.23388	
49.67283	1803.763		-31.21144	
49.72678	1802.191		-31.19188	
49.78073	1800.608		-31.17509	
49.83467	1799.01		-31.16093	
49.88863	1797.389		-31.14923	
49.94258	1795.741		-31.13981	
49.99652	1794.07		-31.13246	
50.05048	1792.38		-31.127	
50.10443	1790.68		-31.12323	
50.15837	1788.98		-31.12092	
50.21233	1787.284		-31.11983	
50.26627	1785.595		-31.1197	
50.32022	1783.912		-31.1203	
50.37418	1782.233		-31.12138	
50.42812	1780.555		-31.1227	
50.48207	1778.876		-31.12401	
50.53603	1777.187		-31.12506	
50.58997	1775.484		-31.12558	
50.64392	1773.765		-31.1253	
50.69787	1772.033		-31.12394	
50.75182	1770.292		-31.12124	
50.80577	1768.55		-31.11694	
50.85972	1766.806		-31.11082	
50.91367	1765.062		-31.10267	
50.96762	1763.32		-31.09234	
51.02157	1761.582		-31.07968	
51.07552	1759.847		-31.06459	
51.12947	1758.114		-31.04703	
51.18342	1756.377		-31.02698	
51.23737	1754.635		-31.0045	
51.29132	1752.89		-30.97965	
51.34527	1751.144		-30.95257	
51.39922	1749.402		-30.92344	
51.45317	1747.663		-30.89246	
51.50712	1745.927		-30.85988	
51.56107	1744.189		-30.82595	
51.61502	1742.445		-30.79095	
51.66897	1740.695		-30.75521	
51.72292	1738.938		-30.71903	
51.77687	1737.179		-30.68275	
51.83082	1735.425		-30.6467	
51.88477	1733.678		-30.61123	
51.93872	1731.943		-30.57664	
51.99267	1730.224		-30.54325	
52.04662	1728.522		-30.51131	
52.10057	1726.84		-30.48104	
52.15452	1725.178		-30.4526	
52.20847	1723.533		-30.42607	
52.26242	1721.901		-30.40151	
52.31637	1720.282		-30.3789	
52.37032	1718.675		-30.3582	
52.42427	1717.084		-30.33926	
52.47822	1715.506		-30.3219	
52.53217	1713.934		-30.30586	
52.58612	1712.365		-30.29086	
52.64007	1710.795		-30.27657	
52.69402	1709.231		-30.26266	
52.74797	1707.683		-30.24883	
52.80192	1706.155		-30.23479	
52.85587	1704.648		-30.2203	
52.90982	1703.161		-30.20513	
52.96377	1701.698		-30.18912	
53.01772	1700.26		-30.17212	
53.07167	1698.843		-30.15404	
53.12561	1697.442		-30.13486	
53.17957	1696.042		-30.11458	
53.23352	1694.634		-30.09331	
53.28746	1693.203		-30.07117	
53.34142	1691.74		-30.04832	
53.39536	1690.238		-30.02497	
53.44931	1688.697		-30.00129	
53.50327	1687.124		-29.97754	
53.55721	1685.526		-29.95395	
53.61116	1683.914		-29.93079	
53.66512	1682.291		-29.90832	
53.71906	1680.659		-29.88683	
53.77301	1679.021		-29.86662	
53.82696	1677.371		-29.84798	
53.88091	1675.705		-29.83121	
53.93486	1674.021		-29.81661	
53.98881	1672.317		-29.80444	
54.04276	1670.589		-29.7949	
54.09671	1668.836		-29.78814	
54.15066	1667.061		-29.78419	
54.20461	1665.264		-29.78302	
54.25856	1663.448		-29.78452	
54.31251	1661.62		-29.78851	
54.36646	1659.788		-29.79471	
54.42041	1657.957		-29.8028	
54.47436	1656.129		-29.81235	
54.52831	1654.308		-29.82288	
54.58226	1652.495		-29.83382	
54.63621	1650.699		-29.84458	
54.69016	1648.935		-29.85452	
54.74411	1647.213		-29.86304	
54.79806	1645.536		-29.8695	
54.85201	1643.903		-29.87332	
54.90596	1642.307		-29.87395	
54.95991	1640.744		-29.87086	
55.01386	1639.215		-29.86363	
55.06781	1637.72		-29.85185	
55.12176	1636.256		-29.83525	
55.17571	1634.819		-29.81362	
55.22966	1633.404		-29.78691	
55.28361	1631.997		-29.75515	
55.33756	1630.585		-29.71845	
55.39151	1629.161		-29.67701	
55.44546	1627.721		-29.63107	
55.49941	1626.265		-29.58097	
55.55336	1624.792		-29.52708	
55.60731	1623.303		-29.46986	
55.66126	1621.801		-29.40981	
55.71521	1620.285		-29.34748	
55.76916	1618.752		-29.28346	
55.8231	1617.2		-29.21834	
55.87706	1615.632		-29.15272	
55.93101	1614.052		-29.08723	
55.98495	1612.459		-29.02251	
56.03891	1610.85		-28.95915	
56.09286	1609.218		-28.89776	
56.1468	1607.559		-28.83889	
56.20076	1605.873		-28.78304	
56.2547	1604.162		-28.73065	
56.30865	1602.435		-28.68207	
56.36261	1600.701		-28.63762	
56.41655	1598.972		-28.59751	
56.4705	1597.255		-28.56187	
56.52446	1595.552		-28.53076	
56.5784	1593.866		-28.50411	
56.63235	1592.207		-28.48174	
56.6863	1590.585		-28.46342	
56.74025	1589.013		-28.44883	
56.7942	1587.492		-28.43758	
56.84815	1586.018		-28.42921	
56.9021	1584.577		-28.42322	
56.95605	1583.155		-28.41906	
57.01	1581.741		-28.41614	
57.06395	1580.329		-28.41388	
57.1179	1578.924		-28.41173	
57.17185	1577.528		-28.40918	
57.2258	1576.141		-28.40579	
57.27975	1574.756		-28.40117	
57.3337	1573.365		-28.39497	
57.38765	1571.963		-28.38696	
57.4416	1570.548		-28.37694	
57.49555	1569.118		-28.36481	
57.5495	1567.674		-28.35052	
57.60345	1566.223		-28.33409	
57.6574	1564.77		-28.31555	
57.71135	1563.318		-28.29495	
57.7653	1561.861		-28.27235	
57.81925	1560.394		-28.24783	
57.8732	1558.91		-28.22144	
57.92715	1557.406		-28.19328	
57.9811	1555.881		-28.16347	
58.03505	1554.342		-28.13217	
58.089	1552.791		-28.09955	
58.14295	1551.229		-28.06582	
58.1969	1549.655		-28.03122	
58.25085	1548.067		-27.99597	
58.3048	1546.469		-27.9603	
58.35875	1544.869		-27.92443	
58.4127	1543.277		-27.88856	
58.46665	1541.695		-27.85286	
58.5206	1540.121		-27.81747	
58.57455	1538.548		-27.78244	
58.6285	1536.971		-27.74778	
58.68245	1535.388		-27.71345	
58.7364	1533.8		-27.67935	
58.79035	1532.21		-27.64534	
58.8443	1530.626		-27.61124	
58.89825	1529.053		-27.57681	
58.9522	1527.494		-27.54179	
59.00615	1525.943		-27.50588	
59.0601	1524.4		-27.46876	
59.11404	1522.863		-27.43012	
59.168	1521.337		-27.38968	
59.22195	1519.818		-27.34721	
59.27589	1518.3		-27.3025	
59.32985	1516.783		-27.25539	
59.3838	1515.269		-27.20577	
59.43774	1513.76		-27.15356	
59.4917	1512.257		-27.09878	
59.54564	1510.761		-27.04146	
59.59959	1509.272		-26.98171	
59.65355	1507.794		-26.91965	
59.70749	1506.333		-26.85542	
59.76144	1504.891		-26.78915	
59.81539	1503.47		-26.72101	
59.86934	1502.068		-26.65114	
59.92329	1500.679		-26.57972	
59.97724	1499.297		-26.50694	
60.03119	1497.92		-26.43298	
60.08514	1496.548		-26.35806	
60.13909	1495.18		-26.28241	
60.19304	1493.816		-26.20629	
60.24699	1492.458		-26.12995	
60.30094	1491.105		-26.05367	
60.35489	1489.752		-25.97774	
60.40884	1488.397		-25.90244	
60.46279	1487.039		-25.82808	
60.51674	1485.683		-25.75496	
60.57069	1484.332		-25.68335	
60.62464	1482.985		-25.61347	
60.67859	1481.639		-25.54551	
60.73254	1480.29		-25.47955	
60.78649	1478.932		-25.41564	
60.84044	1477.565		-25.35379	
60.89439	1476.188		-25.29394	
60.94834	1474.801		-25.23598	
61.00229	1473.409		-25.17975	
61.05624	1472.02		-25.12499	
61.11019	1470.645		-25.07142	
61.16414	1469.295		-25.0187	
61.21809	1467.971		-24.9665	
61.27204	1466.668		-24.91443	
61.32599	1465.38		-24.8621	
61.37994	1464.095		-24.80907	
61.43389	1462.809		-24.75489	
61.48784	1461.517		-24.6991	
61.54179	1460.213		-24.64123	
61.59574	1458.897		-24.58079	
61.64969	1457.574		-24.51731	
61.70364	1456.25		-24.45033	
61.75759	1454.927		-24.37935	
61.81154	1453.608		-24.30393	
61.86549	1452.294		-24.22362	
61.91944	1450.991		-24.13802	
61.97338	1449.7		-24.04677	
62.02734	1448.417		-23.94956	
62.08129	1447.135		-23.84612	
62.13523	1445.851		-23.73621	
62.18919	1444.562		-23.61966	
62.24313	1443.269		-23.49632	
62.29708	1441.968		-23.36609	
62.35104	1440.657		-23.22895	
62.40498	1439.333		-23.08488	
62.45893	1437.999		-22.93393	
62.51289	1436.657		-22.77618	
62.56683	1435.311		-22.61179	
62.62078	1433.961		-22.44089	
62.67473	1432.614		-22.26369	
62.72868	1431.27		-22.08034	
62.78263	1429.932		-21.89101	
62.83658	1428.6		-21.6959	
62.89053	1427.277		-21.49513	
62.94448	1425.959		-21.28886	
62.99843	1424.644		-21.07721	
63.05238	1423.324		-20.86021	
63.10633	1422		-20.63791	
63.16028	1420.675		-20.41025	
63.21423	1419.359		-20.17716	
63.26818	1418.062		-19.93852	
63.32213	1416.796		-19.69412	
63.37608	1415.564		-19.44378	
63.43003	1414.367		-19.18724	
63.48398	1413.203		-18.92418	
63.53793	1412.069		-18.65427	
63.59188	1410.964		-18.37711	
63.64583	1409.889		-18.09227	
63.69978	1408.847		-17.79931	
63.75373	1407.839		-17.4977	
63.80768	1406.863		-17.18691	
63.86163	1405.921		-16.86642	
63.91558	1405.018		-16.53561	
63.96953	1404.156		-16.194	
64.02348	1403.339		-15.84097	
64.07743	1402.563		-15.47612	
64.13138	1401.825		-15.09888	
64.18533	1401.126		-14.70875	
64.23928	1400.464		-14.3052	
64.29323	1399.833		-13.88785	
64.34718	1399.224		-13.45621	
64.40113	1398.63		-13.00978	
64.45508	1398.043		-12.54827	
64.50903	1397.453		-12.07123	
64.56298	1396.853		-11.57821	
64.61693	1396.239		-11.06901	
64.67088	1395.613		-10.54321	
64.72483	1394.979		-10.00041	
64.77878	1394.343		-9.440458	
64.83273	1393.709		-8.862919	
64.88667	1393.082		-8.267441	
64.94063	1392.465		-7.653544	
64.99458	1391.863		-7.020977	
65.04852	1391.278		-6.369182	
65.10248	1390.713		-5.69754	
65.15643	1390.167		-5.005667	
65.21037	1389.642		-4.292848	
65.26433	1389.141		-3.55829	
65.31828	1388.668		-2.801514	
65.37222	1388.221		-2.021618	
65.42618	1387.797		-1.217669	
65.48013	1387.393		-0.3890625	
65.53407	1387.015		0.465273	
65.58803	1386.669		1.346424	
65.64198	1386.365		2.25508	
65.69592	1386.109		3.192408	
65.74987	1385.904		4.159408	
65.80383	1385.753		5.157259	
65.85777	1385.661		6.186738	
65.91172	1385.631		7.249056	
65.96568	1385.665		8.34544	
66.01962	1385.766		9.476641	
66.07357	1385.933		10.64387	
66.12753	1386.166		11.84836	
66.18147	1386.464		13.09076	
66.23542	1386.827		14.37232	
66.28938	1387.253		15.69425	
66.34332	1387.739		17.0571	
66.39727	1388.292		18.46204	
66.45122	1388.914		19.90991	
66.50517	1389.612		21.40175	
66.55912	1390.385		22.93789	
66.61307	1391.234		24.51923	
66.66702	1392.166		26.14663	
66.72097	1393.191		27.82019	
66.77492	1394.316		29.54066	
66.82887	1395.547		31.30876	
66.88282	1396.885		33.12447	
66.93677	1398.327		34.9885	
66.99072	1399.871		36.90158	
67.04467	1401.513		38.86363	
67.09862	1403.247		40.87535	
67.15257	1405.067		42.93746	
67.20652	1406.969		45.04976	
67.26047	1408.958		47.21288	
67.31441	1411.044		49.42713	
67.36837	1413.234		51.69316	
67.42232	1415.538		54.01063	
67.47626	1417.967		56.38012	
67.53022	1420.532		58.80226	
67.58417	1423.241		61.27657	
67.63811	1426.098		63.80359	
67.69207	1429.102		66.38384	
67.74602	1432.251		69.01673	
67.79996	1435.545		71.7027	
67.85392	1438.981		74.44217	
67.90787	1442.556		77.2344	
67.96181	1446.269		80.0797	
68.01577	1450.124		82.97835	
68.06972	1454.125		85.92933	
68.12366	1458.278		88.93275	
68.17761	1462.59		91.98827	
68.23157	1467.068		95.09594	
68.28551	1471.713		98.25442	
68.33946	1476.532		101.4636	
68.39342	1481.533		104.7234	
68.44736	1486.717		108.0321	
68.50131	1492.083		111.3894	
68.55527	1497.627		114.7951	
68.60921	1503.347		118.2471	
68.66316	1509.246		121.7449	
68.71712	1515.331		125.2878	
68.77106	1521.608		128.8737	
68.82501	1528.087		132.5018	
68.87896	1534.773		136.1708	
68.93291	1541.667		139.88	
68.98686	1548.771		143.627	
69.04081	1556.09		147.4111	
69.09476	1563.633		151.2313	
69.14871	1571.402		155.0854	
69.20266	1579.403		158.9724	
69.25661	1587.641		162.8913	
69.31056	1596.116		166.8394	
69.36451	1604.83		170.8154	
69.41846	1613.788		174.818	
69.47241	1622.997		178.8441	
69.52636	1632.464		182.8918	
69.58031	1642.196		186.9592	
69.63426	1652.193		191.0425	
69.68821	1662.458		195.1393	
69.74216	1672.989		199.2463	
69.79611	1683.777		203.3606	
69.85006	1694.808		207.4771	
69.90401	1706.077		211.5923	
69.95796	1717.591		215.7022	
70.01191	1729.35		219.8007	
70.06586	1741.356		223.8831	
70.11981	1753.611		227.944	
70.17376	1766.113		231.9762	
70.22771	1778.871		235.9736	
70.28166	1791.893		239.9297	
70.33561	1805.182		243.836	
70.38956	1818.741		247.6852	
70.44351	1832.569		251.4698	
70.49746	1846.651		255.1802	
70.55141	1860.974		258.8083	
70.60535	1875.519		262.3452	
70.65931	1890.271		265.7823	
70.71326	1905.223		269.1095	
70.7672	1920.381		272.3181	
70.82116	1935.756		275.3993	
70.87511	1951.351		278.3434	
70.92905	1967.177		281.1419	
70.98301	1983.239		283.7866	
71.03696	1999.539		286.2684	
71.0909	2016.08		288.58	
71.14486	2032.861		290.7139	
71.19881	2049.861		292.6628	
71.25275	2067.069		294.4202	
71.3067	2084.473		295.9805	
71.36066	2102.074		297.3383	
71.4146	2119.868		298.4885	
71.46855	2137.864		299.4274	
71.52251	2156.07		300.1517	
71.57645	2174.487		300.6583	
71.6304	2193.127		300.9455	
71.68436	2212		301.0118	
71.7383	2231.096		300.8565	
71.79225	2250.397		300.4797	
71.84621	2269.871		299.8817	
71.90015	2289.479		299.0641	
71.9541	2309.188		298.0285	
72.00806	2328.967		296.7771	
72.062	2348.771		295.3134	
72.11595	2368.565		293.6407	
72.1699	2388.311		291.763	
72.22385	2407.983		289.6846	
72.2778	2427.552		287.4108	
72.33175	2446.992		284.9466	
72.3857	2466.277		282.2972	
72.43965	2485.38		279.4689	
72.4936	2504.275		276.4673	
72.54755	2522.925		273.2981	
72.6015	2541.272		269.9683	
72.65545	2559.258		266.4841	
72.7094	2576.827		262.8513	
72.76335	2593.921		259.0777	
72.8173	2610.491		255.1695	
72.87125	2626.5		251.1332	
72.9252	2641.919		246.977	
72.97915	2656.743		242.7077	
73.0331	2670.976		238.3325	
73.08705	2684.642		233.8584	
73.141	2697.758		229.2944	
73.19495	2710.343		224.6478	
73.2489	2722.41		219.9258	
73.30285	2733.969		215.1379	
73.3568	2745.036		210.2919	
73.41075	2755.624		205.3957	
73.4647	2765.731		200.4593	
73.51865	2775.356		195.4909	
73.5726	2784.496		190.4989	
73.62655	2793.152		185.4939	
73.6805	2801.338		180.4844	
73.73444	2809.081		175.48	
73.7884	2816.42		170.4892	
73.84235	2823.387		165.5228	
73.89629	2830.015		160.5891	
73.95025	2836.333		155.6967	
74.0042	2842.374		150.8557	
74.05814	2848.162		146.0743	
74.1121	2853.719		141.3601	
74.16605	2859.06		136.7228	
74.21999	2864.199		132.1695	
74.27395	2869.141		127.707	
74.3279	2873.879		123.3437	
74.38184	2878.411		119.0856	
74.4358	2882.742		114.9379	
74.48975	2886.887		110.9073	
74.54369	2890.87		106.9977	
74.59764	2894.727		103.2132	
74.6516	2898.491		99.55637	
74.70554	2902.19		96.03053	
74.75949	2905.841		92.6367	
74.81345	2909.451		89.37519	
74.86739	2913.019		86.24691	
74.92134	2916.546		83.25068	
74.9753	2920.022		80.38471	
75.02924	2923.44		77.6478	
75.08319	2926.792		75.03689	
75.13715	2930.069		72.5485	
75.19109	2933.257		70.17966	
75.24504	2936.342		67.92594	
75.29899	2939.323		65.78285	
75.35294	2942.205		63.74534	
75.40689	2945.001		61.80899	
75.46084	2947.723		59.9683	
75.51479	2950.381		58.21778	
75.56874	2952.972		56.55262	
75.62269	2955.487		54.96735	
75.67664	2957.919		53.45663	
75.73059	2960.268		52.01596	
75.78454	2962.531		50.64038	
75.83849	2964.709		49.32515	
75.89244	2966.795		48.06634	
75.94639	2968.792		46.8597	
76.00034	2970.701		45.70129	
76.05429	2972.537		44.58799	
76.10824	2974.316		43.51644	
76.16219	2976.067		42.48382	
76.21614	2977.816		41.48748	
76.27009	2979.593		40.5255	
76.32404	2981.418		39.5959	
76.37799	2983.303		38.69704	
76.43194	2985.24		37.82795	
76.48589	2987.218		36.98752	
76.53984	2989.227		36.17486	
76.59379	2991.261		35.38952	
76.64774	2993.313		34.6308	
76.70169	2995.377		33.89806	
76.75564	2997.445		33.19098	
76.80959	2999.504		32.50893	
76.86354	3001.543		31.85127	
76.91749	3003.551		31.21762	
76.97144	3005.519		30.60724	
77.02538	3007.436		30.01944	
77.07934	3009.297		29.45335	
77.13329	3011.094		28.90826	
77.18723	3012.81		28.38314	
77.24119	3014.43		27.87686	
77.29514	3015.946		27.38848	
77.34908	3017.358		26.91673	
77.40304	3018.675		26.46034	
77.45699	3019.915		26.01814	
77.51093	3021.087		25.58879	
77.56489	3022.2		25.17092	
77.61884	3023.256		24.76336	
77.67278	3024.25		24.36481	
77.72673	3025.178		23.97411	
77.78069	3026.039		23.5901	
77.83463	3026.833		23.2119	
77.88858	3027.569		22.83858	
77.94254	3028.256		22.46932	
77.99648	3028.908		22.10366	
78.05043	3029.538		21.74117	
78.10439	3030.162		21.38162	
78.15833	3030.799		21.02514	
78.21228	3031.464		20.67188	
78.26624	3032.175		20.32216	
78.32018	3032.942		19.97664	
78.37413	3033.77		19.636	
78.42809	3034.657		19.3011	
78.48203	3035.593		18.97309	
78.53598	3036.569		18.65309	
78.58993	3037.573		18.3423	
78.64388	3038.591		18.04198	
78.69783	3039.619		17.75351	
78.75178	3040.654		17.47815	
78.80573	3041.698		17.21717	
78.85968	3042.758		16.97188	
78.91363	3043.84		16.74343	
78.96758	3044.949		16.53291	
79.02153	3046.092		16.34136	
79.07548	3047.264		16.16959	
79.12943	3048.454		16.01826	
79.18338	3049.639		15.88788	
79.23733	3050.799		15.77873	
79.29128	3051.911		15.69087	
79.34523	3052.955		15.62422	
79.39918	3053.918		15.57849	
79.45313	3054.801		15.55323	
79.50708	3055.612		15.54783	
79.56103	3056.371		15.56154	
79.61497	3057.102		15.59345	
79.66893	3057.823		15.64255	
79.72288	3058.546		15.70773	
79.77682	3059.272		15.78779	
79.83078	3059.991		15.88151	
79.88473	3060.69		15.98752	
79.93867	3061.359		16.10448	
79.99263	3061.989		16.23104	
80.04658	3062.565		16.36584	
80.10052	3063.086		16.50762	
80.15447	3063.551		16.65518	
80.20843	3063.967		16.80744	
80.26237	3064.343		16.96334	
80.31632	3064.7		17.12198	
80.37028	3065.057		17.28254	
80.42422	3065.435		17.44423	
80.47817	3065.853		17.60644	
80.53213	3066.328		17.76863	
80.58607	3066.873		17.93032	
80.64002	3067.494		18.09113	
80.69398	3068.184		18.25076	
80.74792	3068.927		18.4089	
80.80187	3069.702		18.56535	
80.85583	3070.496		18.71994	
80.90977	3071.299		18.87252	
80.96372	3072.116		19.02303	
81.01767	3072.958		19.17141	
81.07162	3073.842		19.31765	
81.12557	3074.782		19.46164	
81.17952	3075.794		19.60329	
81.23347	3076.887		19.74247	
81.28742	3078.07		19.87894	
81.34137	3079.346		20.01247	
81.39532	3080.715		20.14279	
81.44927	3082.168		20.26954	
81.50322	3083.697		20.39238	
81.55717	3085.29		20.51091	
81.61112	3086.935		20.62466	
81.66507	3088.621		20.73318	
81.71902	3090.335		20.83596	
81.77297	3092.053		20.9324	
81.82692	3093.754		21.02185	
81.88087	3095.422		21.10354	
81.93482	3097.053		21.17662	
81.98877	3098.649		21.24005	
82.04272	3100.217		21.29274	
82.09667	3101.762		21.33353	
82.15062	3103.291		21.3612	
82.20457	3104.808		21.37454	
82.25852	3106.321		21.37237	
82.31247	3107.834		21.3535	
82.36642	3109.35		21.31679	
82.42037	3110.86		21.26111	
82.47432	3112.346		21.18543	
82.52827	3113.786		21.08875	
82.58221	3115.161		20.97018	
82.63617	3116.458		20.82887	
82.69012	3117.675		20.66415	
82.74406	3118.815		20.47536	
82.79802	3119.886		20.26196	
82.85197	3120.899		20.02354	
82.90591	3121.859		19.75977	
82.95987	3122.779		19.47036	
83.01382	3123.674		19.15524	
83.06776	3124.563		18.81426	
83.12172	3125.461		18.44732	
83.17567	3126.379		18.05456	
83.22961	3127.313		17.63604	
83.28357	3128.26		17.1919	
83.33752	3129.201		16.72262	
83.39146	3130.12		16.22856	
83.44541	3130.999		15.71027	
83.49937	3131.831		15.16831	
83.55331	3132.62		14.60354	
83.60726	3133.381		14.01666	
83.66122	3134.126		13.40845	
83.71516	3134.865		12.77998	
83.76911	3135.603		12.13208	
83.82307	3136.353		11.46556	
83.87701	3137.126		10.78144	
83.93096	3137.936		10.08041	
83.98492	3138.784		9.363062	
84.03886	3139.662		8.630239	
84.09281	3140.552		7.882433	
84.14676	3141.434		7.120214	
84.20071	3142.287		6.344012	
84.25466	3143.094		5.554595	
84.30861	3143.842		4.752398	
84.36256	3144.522		3.937842	
84.41651	3145.129		3.111671	
84.47046	3145.663		2.27427	
84.52441	3146.123		1.426012	
84.57836	3146.511		0.5676393	
84.63231	3146.833		-0.30046	
84.68626	3147.098		-1.17788	
84.74021	3147.316		-2.063826	
84.79416	3147.491		-2.957849	
84.84811	3147.618		-3.859483	
84.90206	3147.681		-4.76783	
84.95601	3147.661		-5.682346	
85.00996	3147.548		-6.602321	
85.06391	3147.337		-7.527163	
85.11786	3147.028		-8.455862	
85.17181	3146.622		-9.387781	
85.22576	3146.125		-10.32225	
85.27971	3145.54		-11.25817	
85.33366	3144.872		-12.19481	
85.38761	3144.127		-13.13137	
85.44156	3143.311		-14.06662	
85.49551	3142.432		-14.99968	
85.54946	3141.495		-15.9296	
85.60341	3140.494		-16.85499	
85.65736	3139.419		-17.77482	
85.71131	3138.259		-18.68799	
85.76526	3137.009		-19.59296	
85.81921	3135.671		-20.48859	
85.87315	3134.253		-21.37364	
85.92711	3132.769		-22.24702	
85.98106	3131.23		-23.10739	
86.035	3129.643		-23.95381	
86.08896	3128.004		-24.78545	
86.14291	3126.311		-25.60114	
86.19685	3124.561		-26.40018	
86.25081	3122.76		-27.18189	
86.30476	3120.91		-27.94536	
86.3587	3119.013		-28.69011	
86.41266	3117.062		-29.41573	
86.46661	3115.051		-30.1216	
86.52055	3112.974		-30.80748	
86.5745	3110.84		-31.47312	
86.62846	3108.657		-32.11846	
86.6824	3106.447		-32.74331	
86.73635	3104.223		-33.34788	
86.79031	3101.998		-33.93249	
86.84425	3099.782		-34.49732	
86.8982	3097.583		-35.04287	
86.95216	3095.396		-35.56973	
87.0061	3093.224		-36.07833	
87.06005	3091.06		-36.5694	
87.11401	3088.904		-37.04372	
87.16795	3086.744		-37.50193	
87.2219	3084.57		-37.945	
87.27586	3082.371		-38.37391	
87.3298	3080.146		-38.78955	
87.38375	3077.896		-39.19304	
87.4377	3075.632		-39.58541	
87.49165	3073.369		-39.96781	
87.5456	3071.118		-40.34117	
87.59955	3068.883		-40.7066	
87.6535	3066.665		-41.06516	
87.70745	3064.463		-41.4177	
87.7614	3062.272		-41.76513	
87.81535	3060.081		-42.10831	
87.8693	3057.876		-42.44787	
87.92325	3055.644		-42.78452	
87.9772	3053.383		-43.11892	
88.03115	3051.096		-43.45148	
88.0851	3048.794		-43.78269	
88.13905	3046.485		-44.11297	
88.193	3044.177		-44.44256	
88.24695	3041.879		-44.77182	
88.3009	3039.603		-45.10108	
88.35485	3037.352		-45.43069	
88.4088	3035.122		-45.76083	
88.46275	3032.896		-46.09179	
88.5167	3030.658		-46.42378	
88.57065	3028.393		-46.75682	
88.6246	3026.097		-47.091	
88.67855	3023.766		-47.42636	
88.7325	3021.399		-47.76276	
88.78645	3018.998		-48.10015	
88.8404	3016.562		-48.43841	
88.89435	3014.099		-48.77719	
88.9483	3011.615		-49.11621	
89.00224	3009.121		-49.45514	
89.0562	3006.619		-49.79363	
89.11015	3004.109		-50.13123	
89.16409	3001.581		-50.46758	
89.21805	2999.017		-50.80235	
89.272	2996.4		-51.13499	
89.32594	2993.714		-51.46504	
89.3799	2990.948		-51.792	
89.43385	2988.103		-52.11515	
89.48779	2985.177		-52.43387	
89.54175	2982.172		-52.74751	
89.5957	2979.092		-53.05524	
89.64964	2975.951		-53.35642	
89.7036	2972.763		-53.65036	
89.75755	2969.547		-53.93629	
89.81149	2966.315		-54.21358	
89.86544	2963.081		-54.48162	
89.9194	2959.844		-54.73984	
89.97334	2956.607		-54.98757	
90.02729	2953.372		-55.22427	
90.08125	2950.138		-55.44938	
90.13519	2946.894		-55.66231	
90.18914	2943.635		-55.86261	
90.2431	2940.355		-56.04994	
90.29704	2937.059		-56.22398	
90.35099	2933.749		-56.38461	
90.40495	2930.435		-56.53181	
90.45889	2927.117		-56.66565	
90.51284	2923.801		-56.78638	
90.5668	2920.492		-56.89437	
90.62074	2917.204		-56.99009	
90.67469	2913.941		-57.07411	
90.72864	2910.705		-57.14712	
90.78259	2907.483		-57.20986	
90.83654	2904.264		-57.26311	
90.89049	2901.035		-57.30769	
90.94444	2897.794		-57.3444	
90.99839	2894.541		-57.37408	
91.05234	2891.281		-57.39761	
91.10629	2888.02		-57.41587	
91.16024	2884.764		-57.42978	
91.21419	2881.512		-57.4403	
91.26814	2878.262		-57.4483	
91.32209	2875.013		-57.45465	
91.37604	2871.764		-57.46014	
91.42999	2868.521		-57.46554	
91.48394	2865.295		-57.47151	
91.53789	2862.087		-57.47866	
91.59184	2858.902		-57.48746	
91.64579	2855.742		-57.49832	
91.69974	2852.61		-57.51154	
91.75368	2849.512		-57.52732	
91.80764	2846.454		-57.54583	
91.86159	2843.442		-57.56716	
91.91553	2840.482		-57.59137	
91.96949	2837.58		-57.6185	
92.02344	2834.738		-57.64857	
92.07738	2831.95		-57.68157	
92.13134	2829.214		-57.71749	
92.18529	2826.522		-57.75628	
92.23923	2823.861		-57.7979	
92.29318	2821.217		-57.8423	
92.34714	2818.574		-57.88943	
92.40108	2815.92		-57.93923	
92.45503	2813.238		-58.06188	
92.50899	2810.516		-58.17958	
92.56293	2807.754		-58.29258	
92.61688	2804.959		-58.40155	
92.67084	2802.139		-58.50739	
92.72478	2799.297		-58.61094	
92.77873	2796.422		-58.71303	
92.83269	2793.506		-58.81438	
92.88663	2790.535		-58.91555	
92.94058	2787.503		-59.01704	
92.99453	2784.406		-59.11926	
93.04848	2781.242		-59.22252	
93.10243	2778.005		-59.32705	
93.15638	2774.699		-59.43306	
93.21033	2771.327		-59.54072	
93.26428	2767.896		-59.65011	
93.31823	2764.405		-59.76132	
93.37218	2760.867		-59.87442	
93.42613	2757.299		-59.98941	
93.48008	2753.723		-60.1063	
93.53403	2750.151		-60.22511	
93.58798	2746.593		-60.34577	
93.64193	2743.058		-60.46826	
93.69588	2739.544		-60.59254	
93.74983	2736.042		-60.71851	
93.80378	2732.549		-60.84612	
93.85773	2729.065		-60.97526	
93.91168	2725.591		-61.10588	
93.96563	2722.126		-61.23784	
94.01958	2718.669		-61.37107	
94.07353	2715.329		-61.50548	
94.12748	2712.057		-61.64095	
94.18143	2708.826		-61.77739	
94.23538	2705.618		-61.91473	
94.28933	2702.424		-62.05285	
94.34328	2699.24		-62.19168	
94.39723	2696.062		-62.33116	
94.45118	2692.89		-62.47116	
94.50513	2689.721		-62.61163	
94.55908	2686.557		-62.75251	
94.61303	2683.396		-62.8937	
94.66698	2680.239		-63.03515	
94.72092	2677.086		-63.17681	
94.77488	2673.938		-63.31864	
94.82883	2670.797		-63.46054	
94.88277	2667.661		-63.60251	
94.93673	2664.532		-63.74451	
94.99068	2661.412		-63.88648	
