T[Â°C]	330nm [counts / mm]	S.D.
20.00055	4695.708	54.30056
20.05466	4696.921	56.16872
20.10877	4698.375	50.44575
20.16287	4691.854	47.28653
20.21698	4681.771	53.61688
20.27109	4678.731	55.74389
20.3252	4679.1	58.13635
20.3793	4671.353	60.69983
20.43341	4668.347	61.36407
20.48752	4667.832	63.14557
20.54163	4666.534	63.50303
20.59574	4660.797	56.55045
20.64984	4653.479	55.33368
20.70395	4649.323	60.18835
20.75806	4648.69	57.56372
20.81217	4648.331	63.19294
20.86627	4640.594	56.66633
20.92038	4634.828	55.71038
20.97449	4635.24	58.0455
21.02859	4630.267	56.65344
21.0827	4627.349	50.14863
21.13681	4626.176	52.78455
21.19092	4623.538	54.9338
21.24503	4618.575	58.54535
21.29913	4611.008	57.69488
21.35324	4606.886	53.79316
21.40735	4608.718	50.53333
21.46146	4608.226	53.1197
21.51556	4608.529	57.72962
21.56967	4601.236	56.03015
21.62378	4598.011	59.68313
21.67789	4592.615	67.60882
21.73199	4593.008	59.15417
21.7861	4589.49	65.02474
21.84021	4588.352	50.22182
21.89432	4581.709	48.64415
21.94843	4576.394	54.17457
22.00253	4570.613	57.54735
22.05664	4567.819	54.67106
22.11075	4566.349	62.40327
22.16486	4557.468	59.34472
22.21896	4557.201	59.48806
22.27307	4546.669	61.03789
22.32718	4550.438	57.59079
22.38129	4546.919	56.83638
22.43539	4541.701	53.87411
22.4895	4537.291	60.07191
22.54361	4530.279	59.10243
22.59772	4536.991	53.50467
22.65182	4530.759	52.59603
22.70593	4527.868	55.91953
22.76004	4525.633	53.74042
22.81415	4525.587	57.44455
22.86825	4521.473	58.39471
22.92236	4511.25	54.84425
22.97647	4509.028	57.23114
23.03058	4498.92	51.93487
23.08468	4497.171	56.43576
23.13879	4500.421	53.33996
23.1929	4500.431	58.69169
23.24701	4498.963	60.57899
23.30112	4492.947	58.56918
23.35522	4488.728	63.59296
23.40933	4485.428	59.05968
23.46344	4482.816	58.59915
23.51755	4476.834	56.43984
23.57165	4480.597	59.05922
23.62576	4470.351	56.93975
23.67987	4462.619	55.4231
23.73398	4458.759	53.20531
23.78808	4460.624	58.51652
23.84219	4450.95	59.55259
23.8963	4451.628	65.8258
23.95041	4449.674	61.25195
24.00451	4445.918	54.30917
24.05862	4440.851	54.63342
24.11273	4439.758	55.38065
24.16684	4434.925	58.75339
24.22095	4425.824	58.10413
24.27505	4422.714	55.00356
24.32916	4423.069	57.48532
24.38327	4422.436	57.72154
24.43737	4419.695	53.34397
24.49148	4415.345	54.58916
24.54559	4408.929	59.41097
24.5997	4406.739	58.75564
24.6538	4402.976	54.85114
24.70791	4401.266	56.41754
24.76202	4403.084	56.15016
24.81613	4396.286	51.91684
24.87024	4392.822	55.76407
24.92434	4390.592	51.06981
24.97845	4384.501	43.81601
25.03256	4377.713	47.1427
25.08667	4374.814	54.21037
25.14077	4372.861	54.1217
25.19488	4370.444	54.70636
25.24899	4369.381	54.9277
25.3031	4366.845	60.457
25.3572	4365.243	55.68393
25.41131	4362.428	56.7506
25.46542	4353.309	58.77288
25.51953	4352.352	58.94029
25.57364	4346.156	60.33863
25.62774	4340.984	55.04173
25.68185	4341.855	59.65364
25.73596	4339.918	61.17451
25.79007	4334.853	51.14798
25.84417	4334.562	55.76179
25.89828	4328.06	48.22385
25.95239	4326.189	50.37351
26.0065	4318	51.85047
26.0606	4317.616	48.48911
26.11471	4310.333	48.70049
26.16882	4308.605	50.93607
26.22293	4311.673	58.72901
26.27703	4306.967	59.89503
26.33114	4302.239	60.85633
26.38525	4299.15	53.15586
26.43936	4294.137	58.16009
26.49346	4292.446	53.1382
26.54757	4287.097	54.20032
26.60168	4282.143	52.9563
26.65579	4280.146	50.6312
26.70989	4276.049	49.18966
26.764	4276.85	58.27019
26.81811	4275.464	56.48153
26.87222	4273.951	57.57769
26.92632	4270.893	56.94563
26.98043	4264.296	58.3555
27.03454	4258.46	52.94744
27.08865	4257.104	51.91584
27.14276	4255.741	48.85555
27.19686	4254.571	54.32522
27.25097	4247.48	56.37671
27.30508	4242.146	57.49469
27.35919	4239.666	54.10872
27.41329	4234.729	54.24931
27.4674	4234.408	55.87985
27.52151	4226.874	54.1428
27.57562	4225.993	57.82202
27.62972	4219.41	52.01173
27.68383	4217.322	54.94735
27.73794	4212.333	51.29546
27.79205	4210.689	44.58394
27.84616	4206.456	45.72471
27.90026	4205.083	45.32435
27.95437	4204.579	47.50733
28.00848	4201.43	47.8936
28.06258	4193.245	44.8409
28.11669	4191.187	48.3568
28.1708	4186.571	49.35178
28.22491	4184.327	54.604
28.27901	4183.545	55.83998
28.33312	4184.135	50.27944
28.38723	4178.184	46.77045
28.44134	4175.521	49.67647
28.49545	4172.891	49.08272
28.54955	4170.609	45.95105
28.60366	4164.492	47.18126
28.65777	4158.516	46.8231
28.71188	4158.963	48.8437
28.76598	4154.247	50.42395
28.82009	4152.39	46.02345
28.8742	4153.122	45.07467
28.92831	4147.957	45.93946
28.98241	4141.526	45.41416
29.03652	4132.116	49.95216
29.09063	4128.462	47.61552
29.14474	4132.195	48.89335
29.19884	4131.665	57.56931
29.25295	4132.318	59.71813
29.30706	4124.182	53.2345
29.36117	4121.281	52.54831
29.41528	4113.291	49.58792
29.46938	4107.026	46.06699
29.52349	4109.356	49.09857
29.5776	4108.258	48.88915
29.63171	4103.533	54.83347
29.68581	4099.097	51.19297
29.73992	4091.126	56.18442
29.79403	4087.979	51.60144
29.84813	4092.209	52.63421
29.90224	4091.719	43.70087
29.95635	4088.494	50.59476
30.01046	4082.401	48.72101
30.06457	4076.225	49.04845
30.11867	4073.078	42.86496
30.17278	4071.672	52.45123
30.22689	4071.588	50.75301
30.281	4060.948	47.91663
30.3351	4061.153	40.3303
30.38921	4063.096	54.53188
30.44332	4058.321	57.2869
30.49743	4052.327	50.11998
30.55153	4056.109	51.31629
30.60564	4048.13	46.9758
30.65975	4048.956	49.32637
30.71386	4041.067	48.82903
30.76797	4036.591	51.0132
30.82207	4036.497	52.25661
30.87618	4028.311	56.00744
30.93029	4026.837	59.73061
30.9844	4028.022	56.54324
31.0385	4023.899	56.4782
31.09261	4016.586	54.20356
31.14672	4012.404	52.81569
31.20083	4008.781	48.42963
31.25493	4005.626	50.36634
31.30904	4003.262	51.02699
31.36315	3997.53	46.47934
31.41726	3995.842	50.89355
31.47136	3996.006	47.64176
31.52547	3996.51	44.63469
31.57958	3990.529	45.52155
31.63369	3988.631	45.10072
31.68779	3988.69	53.25714
31.7419	3979.989	50.79858
31.79601	3980.708	48.95142
31.85012	3980.88	47.91511
31.90422	3968.289	44.19472
31.95833	3968.252	42.8932
32.01244	3963.614	52.46447
32.06655	3958.639	50.66726
32.12066	3955.335	45.48105
32.17476	3953.546	45.74056
32.22887	3951.895	46.27466
32.28298	3949.865	47.24065
32.33709	3948.565	45.11234
32.39119	3945.377	46.26252
32.4453	3939.876	48.25485
32.49941	3935.993	51.61267
32.55352	3933.57	55.72646
32.60762	3930.956	52.98059
32.66173	3929.435	51.2359
32.71584	3927.533	47.01158
32.76995	3924.217	45.96417
32.82405	3919.066	49.43165
32.87816	3919.032	52.91872
32.93227	3912.606	49.2659
32.98638	3913.919	46.01824
33.04049	3905.774	45.06898
33.09459	3903.825	53.32735
33.1487	3898.513	53.82099
33.20281	3894.763	48.05776
33.25692	3897.021	42.48681
33.31102	3886.671	40.31885
33.36513	3889.289	43.31362
33.41924	3889.008	39.10063
33.47335	3882.99	47.97854
33.52745	3880.675	52.97105
33.58156	3875.312	53.47441
33.63567	3872.117	47.10482
33.68978	3871.613	46.3797
33.74389	3867.508	47.41758
33.79799	3861.235	53.34947
33.8521	3862.45	46.39135
33.90621	3857.209	50.51598
33.96032	3856.453	50.4092
34.01442	3851.34	52.73908
34.06853	3853.734	52.1272
34.12263	3844.437	43.70544
34.17674	3842.633	46.30651
34.23085	3840.455	48.85549
34.28496	3838.608	52.05779
34.33907	3832.935	54.61911
34.39317	3832.503	51.98457
34.44728	3824.492	46.68705
34.50139	3822.291	52.25689
34.5555	3819.067	49.00496
34.6096	3816.476	44.9799
34.66371	3813.982	43.12934
34.71782	3812.327	51.43757
34.77193	3809.873	49.05779
34.82603	3813.015	47.86797
34.88014	3801.578	49.23909
34.93425	3799.258	51.15893
34.98836	3796.676	47.87265
35.04247	3792.248	45.22136
35.09657	3787.208	46.87634
35.15068	3783.377	44.50449
35.20479	3784.437	51.45289
35.2589	3788.191	50.54331
35.313	3780.326	41.61438
35.36711	3778.717	42.41556
35.42122	3770.277	43.56704
35.47533	3770.117	40.28603
35.52943	3759.683	43.27226
35.58354	3760.172	48.57788
35.63765	3763.643	43.4853
35.69176	3757.851	46.19697
35.74586	3755.726	49.67246
35.79997	3753.306	50.30084
35.85408	3747.623	48.85342
35.90819	3746.793	46.68209
35.9623	3739.994	48.75064
36.0164	3739.494	49.1783
36.07051	3738.003	51.82386
36.12462	3735.591	53.1664
36.17873	3730.659	48.99573
36.23283	3727.784	48.44847
36.28694	3721.573	47.45219
36.34105	3717.494	46.2043
36.39516	3720.017	47.49764
36.44926	3720.114	44.72346
36.50337	3715.874	41.33103
36.55748	3713.824	43.07526
36.61159	3710.933	42.38268
36.6657	3706.392	45.80365
36.7198	3701.374	52.29481
36.77391	3695.059	56.01522
36.82802	3694.039	50.73803
36.88213	3691.825	46.35543
36.93623	3688.703	43.89381
36.99034	3686.313	48.44365
37.04445	3682.548	48.75806
37.09856	3683.466	48.05182
37.15266	3683.632	48.76981
37.20677	3671.219	45.44796
37.26088	3674.193	50.85834
37.31499	3669.939	48.71328
37.36909	3671.942	51.2323
37.4232	3664.884	44.79618
37.47731	3666.19	48.63953
37.53142	3657.642	48.59311
37.58552	3659.551	43.65366
37.63963	3652.953	48.51434
37.69374	3651.334	42.08496
37.74784	3644.529	51.8787
37.80195	3641.367	46.90951
37.85606	3634.066	51.97017
37.91017	3635.076	48.05077
37.96428	3627.576	53.61585
38.01838	3629.694	48.21309
38.07249	3626.854	49.82336
38.1266	3627.264	43.36508
38.18071	3623.326	46.5449
38.23481	3627.927	47.76159
38.28892	3619.081	44.76024
38.34303	3620.065	49.4528
38.39714	3607.104	45.9896
38.45124	3606.596	47.5902
38.50535	3605.858	46.39644
38.55946	3605.416	40.9742
38.61357	3599.046	41.48015
38.66768	3599.293	41.15386
38.72178	3593.525	42.71507
38.77589	3593.3	46.1017
38.83	3585.697	47.35329
38.88411	3586.42	43.76735
38.93821	3578.559	47.31201
38.99232	3581.094	47.6468
39.04643	3575.413	43.03366
39.10054	3577.259	40.21814
39.15464	3573.763	47.81151
39.20875	3569.195	47.2782
39.26286	3565.684	45.02503
39.31697	3563.653	42.10107
39.37107	3555.758	35.04609
39.42518	3556.083	38.68076
39.47929	3556.338	49.30156
39.5334	3552.446	45.14686
39.58751	3545.312	43.07209
39.64161	3545.01	45.14568
39.69572	3539.726	45.55064
39.74983	3538.879	45.38165
39.80394	3534.478	45.48071
39.85804	3532.41	49.56184
39.91215	3529.658	53.69964
39.96626	3526.62	51.34351
40.02037	3527.324	50.38688
40.07447	3525.901	48.42677
40.12858	3522.734	45.80991
40.18269	3520.932	43.15582
40.2368	3519.243	38.31876
40.2909	3514.423	45.91474
40.34501	3509.778	45.66623
40.39912	3503.714	45.28545
40.45323	3503.679	37.11984
40.50734	3500.648	41.78521
40.56144	3498.427	45.03289
40.61555	3493.549	40.87986
40.66966	3496.392	41.02782
40.72377	3488.07	38.18889
40.77787	3491.571	40.37307
40.83198	3485.676	44.82206
40.88609	3481.406	47.47006
40.9402	3481.654	44.06139
40.9943	3480.865	42.37079
41.04841	3468.283	50.44642
41.10252	3468.493	40.6325
41.15662	3464.719	50.31504
41.21073	3466.92	43.56294
41.26484	3460.588	50.44708
41.31895	3459.873	46.27229
41.37305	3452.817	44.6535
41.42716	3452.72	45.12094
41.48127	3451.529	43.68545
41.53538	3448.887	41.5679
41.58949	3440.952	42.13908
41.64359	3444.58	41.45568
41.6977	3430.503	35.70021
41.75181	3431.73	40.32311
41.80592	3431.206	46.72625
41.86002	3433.004	44.40971
41.91413	3425.87	46.48035
41.96824	3426.9	43.86064
42.02235	3419.093	41.25098
42.07645	3421.621	41.75415
42.13056	3414.175	38.88316
42.18467	3417.16	38.88718
42.23878	3412.853	39.95986
42.29288	3409.47	39.60033
42.34699	3402.94	41.09575
42.4011	3401.243	41.84902
42.45521	3395.947	38.62122
42.50932	3395.758	41.85404
42.56342	3393.9	42.51969
42.61753	3392.844	41.27039
42.67164	3392.376	40.61468
42.72575	3388.598	43.20244
42.77985	3380.959	42.94461
42.83396	3378.73	37.88004
42.88807	3376.603	40.4152
42.94218	3372.413	44.35232
42.99628	3372.303	43.69661
43.05039	3371.444	41.97218
43.1045	3369.243	40.00023
43.15861	3363.556	39.85014
43.21272	3362.185	40.8792
43.26682	3357.356	43.68364
43.32093	3358.194	44.38882
43.37504	3350.89	42.95385
43.42915	3347.696	43.87271
43.48325	3347.596	46.53972
43.53736	3347.936	41.11076
43.59147	3343.912	40.34453
43.64558	3342.234	43.07495
43.69968	3333.597	40.8687
43.75379	3332.088	40.01535
43.8079	3331.022	43.82061
43.86201	3334.386	43.62954
43.91611	3325.352	48.09779
43.97022	3324.629	47.40287
44.02433	3318.182	40.13879
44.07844	3315.594	41.39261
44.13255	3312.205	41.43106
44.18665	3316.33	40.63386
44.24076	3309.938	43.85131
44.29487	3312.154	38.48206
44.34898	3307.721	40.7575
44.40308	3305.011	44.41648
44.45719	3298.992	41.24987
44.5113	3302.048	43.27288
44.56541	3293.88	39.23566
44.61951	3293.985	39.37301
44.67362	3293.054	46.92157
44.72773	3292.463	39.08526
44.78183	3283.877	42.2794
44.83594	3282.467	39.92088
44.89005	3274.371	45.63294
44.94416	3275.724	45.0229
44.99826	3267.937	42.96239
45.05237	3270.748	44.98302
45.10648	3264.468	42.2037
45.16059	3264.522	36.98125
45.21469	3262.092	42.10423
45.2688	3262.116	38.70821
45.32291	3248.92	46.04912
45.37702	3254.301	44.12438
45.43113	3248.275	44.83013
45.48523	3249.659	42.44839
45.53934	3243.383	43.96929
45.59345	3245.134	42.34982
45.64756	3238.684	41.51355
45.70166	3237.602	37.55003
45.75577	3232.75	42.03469
45.80988	3234.233	37.08604
45.86399	3226.985	38.78224
45.91809	3229.376	33.65921
45.9722	3224.507	41.65437
46.02631	3221.119	37.51683
46.08042	3219.177	41.4423
46.13453	3215.14	41.63186
46.18863	3211.297	40.82017
46.24274	3218.039	41.84372
46.29685	3206.172	37.26738
46.35096	3206.302	41.8971
46.40506	3203.873	41.4777
46.45917	3203.122	37.97269
46.51328	3191.665	47.45573
46.56739	3191.285	44.56354
46.62149	3189.999	39.96889
46.6756	3192.047	41.36823
46.72971	3189.267	38.19768
46.78382	3186.979	40.75124
46.83792	3176.416	37.30729
46.89203	3178.197	34.61466
46.94614	3173.283	40.52411
47.00025	3174.505	40.6908
47.05436	3171.66	39.45767
47.10846	3170.408	41.42257
47.16257	3165.593	42.56639
47.21668	3168.161	40.49689
47.27079	3161.535	41.95064
47.32489	3159.116	40.10541
47.379	3155.774	38.88052
47.43311	3153.825	37.94224
47.48722	3151.584	39.49413
47.54132	3150.282	41.44562
47.59543	3150.213	41.67656
47.64954	3146.402	39.99699
47.70365	3139.612	41.12949
47.75776	3137.88	45.34939
47.81186	3135.438	45.05196
47.86597	3129.364	41.65346
47.92008	3128.358	41.22562
47.97419	3126.82	42.63903
48.02829	3126.544	42.14281
48.0824	3124.269	40.31891
48.13651	3123.252	38.83211
48.19061	3117.054	41.409
48.24472	3114.048	44.56881
48.29883	3112.804	40.19077
48.35294	3116.87	39.38773
48.40704	3108.578	41.66352
48.46115	3107.536	38.65057
48.51526	3103.443	40.93583
48.56937	3104.95	40.21135
48.62347	3097.955	42.08464
48.67758	3095.699	41.98006
48.73169	3088.822	43.96765
48.7858	3090.476	44.47473
48.8399	3086.018	40.98048
48.89401	3087.483	38.79173
48.94812	3079.877	40.19505
49.00223	3082.927	39.04161
49.05634	3074.326	34.91399
49.11044	3080.618	38.79162
49.16455	3072.549	37.33503
49.21866	3072.861	40.01102
49.27277	3065.741	41.85409
49.32687	3069.94	36.66668
49.38098	3063.303	40.22854
49.43509	3065.789	37.83996
49.4892	3057.509	38.61985
49.5433	3059.907	36.33935
49.59741	3050.071	38.19497
49.65152	3055.93	36.01335
49.70563	3042.172	38.41711
49.75974	3047.734	38.69489
49.81384	3041.825	35.25512
49.86795	3043.101	30.84525
49.92206	3035.826	37.80035
49.97617	3040.313	36.37654
50.03027	3029.555	29.63639
50.08438	3031.658	37.60236
50.13849	3026.238	38.28207
50.1926	3022.372	38.84967
50.2467	3022.567	36.6212
50.30081	3023.385	31.88885
50.35492	3015.146	42.64066
50.40903	3018.764	42.69164
50.46313	3009.509	41.53297
50.51724	3014.369	35.92862
50.57135	3002.579	43.8756
50.62546	3006.771	35.48439
50.67957	2999.347	42.72827
50.73367	3001.012	38.98551
50.78778	2995.62	45.07613
50.84189	2998.32	39.57264
50.896	2994.117	36.74055
50.9501	2992.734	34.1458
51.00421	2980.917	41.60677
51.05832	2984.668	35.27026
51.11243	2977.169	38.92661
51.16653	2983.017	36.87234
51.22064	2976.142	38.23933
51.27475	2974.432	34.15325
51.32886	2971.702	41.65574
51.38297	2971.841	40.70492
51.43707	2960.108	33.74494
51.49118	2962.977	32.8165
51.54529	2959.901	39.7178
51.5994	2961.016	36.06047
51.6535	2960.702	40.45895
51.70761	2961.248	40.18286
51.76171	2953.504	35.82597
51.81582	2951.646	33.97271
51.86993	2950.788	37.63796
51.92404	2949.642	36.332
51.97815	2942.033	35.07606
52.03225	2938.375	35.80705
52.08636	2935.317	38.06839
52.14047	2933.367	37.93579
52.19458	2931.481	38.05411
52.24868	2931.131	40.09518
52.30279	2930.779	41.6035
52.3569	2925.699	40.23808
52.41101	2923.836	38.54223
52.46511	2917.577	44.19788
52.51922	2921.688	39.49142
52.57333	2918.145	37.20714
52.62744	2921.7	34.85172
52.68155	2911.262	38.87247
52.73565	2910.565	36.29456
52.78976	2904.857	41.58914
52.84387	2909.014	40.64949
52.89798	2900.906	38.23255
52.95208	2902.583	40.6615
53.00619	2896.211	37.97792
53.0603	2899.033	35.14521
53.11441	2893.048	38.09499
53.16851	2894.037	36.02314
53.22262	2886.666	38.03027
53.27673	2886.55	37.28576
53.33084	2881.29	40.85396
53.38494	2881.77	36.43144
53.43905	2874.567	39.74012
53.49316	2873.28	38.05212
53.54727	2871.394	32.96259
53.60138	2871.174	35.41488
53.65548	2865.437	38.57699
53.70959	2870.202	34.26149
53.7637	2862.506	38.07016
53.81781	2860.661	34.20065
53.87191	2856.868	37.6844
53.92602	2857.206	40.67145
53.98013	2849.464	37.4468
54.03424	2849.394	37.13554
54.08834	2847.015	33.39923
54.14245	2846.682	32.34411
54.19656	2846.93	34.28009
54.25067	2840.807	33.42051
54.30478	2838.255	34.08195
54.35888	2836.668	37.85559
54.41299	2841.129	39.00245
54.4671	2831.792	37.44635
54.52121	2835.53	33.31969
54.57531	2827.029	34.40476
54.62942	2825.392	38.98069
54.68353	2822.125	38.08873
54.73764	2824.191	30.52384
54.79174	2819.525	37.94637
54.84585	2819.563	34.11144
54.89996	2811	36.72697
54.95407	2810.344	34.99234
55.00817	2809.758	32.27211
55.06228	2810.938	30.42768
55.11639	2803.087	34.45097
55.17049	2809.195	33.95423
55.2246	2799.306	32.38871
55.27871	2801.36	39.93393
55.33282	2793.265	36.73366
55.38692	2796.885	37.49252
55.44103	2792.208	39.29889
55.49514	2794.305	38.97868
55.54925	2785.85	36.12384
55.60336	2786.481	28.63145
55.65746	2779.122	39.7774
55.71157	2781.296	36.36126
55.76568	2775.171	39.2055
55.81979	2781.095	38.84887
55.87389	2765.639	39.19397
55.928	2770.556	36.60434
55.98211	2762.658	36.34933
56.03622	2765.931	33.2501
56.09032	2757.868	30.74534
56.14443	2756.186	30.33968
56.19854	2751.942	28.3917
56.25265	2754.322	28.68393
56.30676	2751.507	33.69005
56.36086	2750.925	35.24895
56.41497	2747.713	36.05762
56.46908	2747.613	36.17475
56.52319	2748.58	35.68915
56.57729	2741.787	36.60453
56.6314	2743.291	36.90305
56.68551	2740.783	31.15188
56.73962	2739.933	31.09909
56.79372	2731.67	35.35474
56.84783	2736.626	31.70004
56.90194	2726.259	33.98536
56.95605	2730.159	30.47531
57.01015	2720.786	32.39332
57.06426	2724.289	22.43571
57.11837	2718.443	34.64789
57.17248	2719.69	27.14882
57.22659	2715.335	33.20543
57.28069	2716.422	30.4285
57.3348	2707.977	35.99916
57.38891	2713.078	37.54047
57.44302	2705.44	36.10833
57.49712	2707.504	34.88732
57.55123	2700.493	29.48749
57.60534	2705.537	33.38721
57.65945	2697.017	39.81216
57.71355	2699.278	33.69943
57.76766	2689.303	34.21799
57.82177	2689.689	32.79085
57.87588	2683.183	33.09259
57.92999	2688.958	31.38119
57.98409	2681.259	35.7604
58.0382	2684.219	29.89677
58.09231	2679.973	33.7471
58.14642	2677.863	31.71409
58.20052	2669.514	36.54028
58.25463	2671.37	30.95329
58.30874	2666.212	33.59116
58.36285	2669.367	35.61793
58.41695	2666.948	38.09191
58.47106	2667.581	35.15556
58.52517	2661.74	36.48635
58.57928	2660.273	36.97013
58.63338	2653.89	37.54995
58.68749	2652.486	36.10605
58.7416	2650.046	36.32866
58.7957	2648.55	36.57416
58.84981	2647.422	34.1119
58.90392	2646.93	34.85589
58.95803	2641.889	34.93919
59.01213	2644.292	31.23946
59.06624	2645.373	31.39529
59.12035	2640.583	36.4986
59.17446	2635.929	37.10859
59.22857	2633.647	34.34314
59.28267	2633.272	34.30851
59.33678	2631.48	36.93951
59.39089	2632.059	38.35171
59.445	2623.867	36.56712
59.4991	2622.84	36.38508
59.55321	2618.571	33.92462
59.60732	2619.635	29.7539
59.66143	2615.158	33.59261
59.71553	2616.167	30.71673
59.76964	2609.807	36.50056
59.82375	2609.933	32.63902
59.87786	2606.896	33.62223
59.93196	2608.285	32.68079
59.98607	2602.88	32.2904
60.04018	2604.719	32.29589
60.09429	2598.319	30.56373
60.1484	2602.92	28.8775
60.2025	2594.858	29.61279
60.25661	2598.831	31.62082
60.31072	2591.2	36.35206
60.36483	2591.173	39.72559
60.41893	2585.272	39.39251
60.47304	2589.036	38.69113
60.52715	2579.587	35.10577
60.58126	2585.885	35.339
60.63536	2580.377	30.85019
60.68947	2583.634	27.48333
60.74358	2574.216	33.22561
60.79769	2576.271	23.48636
60.8518	2567.941	30.54693
60.9059	2570.22	26.99061
60.96001	2563.465	28.49473
61.01412	2564.787	26.81737
61.06823	2555.116	29.18341
61.12233	2558.454	26.66848
61.17644	2551.923	31.96417
61.23055	2557.125	32.16151
61.28466	2551.121	29.54975
61.33876	2555.687	32.4074
61.39287	2546.663	37.78773
61.44698	2549.915	32.94535
61.50109	2542.595	32.68575
61.55519	2544.517	33.18861
61.6093	2537.986	34.80276
61.66341	2542.554	32.1095
61.71752	2536.304	32.10432
61.77163	2537.853	35.36898
61.82573	2528.949	37.98032
61.87984	2534.26	34.7313
61.93395	2527.192	29.24302
61.98806	2530.001	28.52495
62.04216	2521.475	32.11974
62.09627	2522.746	34.30108
62.15038	2515.38	39.3833
62.20448	2518.376	31.63816
62.25859	2516.806	29.72587
62.3127	2518.071	30.30136
62.36681	2511.254	32.13325
62.42091	2512.71	30.50084
62.47502	2509.715	30.85841
62.52913	2509.902	31.32507
62.58324	2503.101	31.77469
62.63734	2504.973	33.84724
62.69145	2495.647	33.54902
62.74556	2496.879	31.25463
62.79967	2496.09	28.9746
62.85378	2497.326	30.58017
62.90788	2491.632	29.95536
62.96199	2492.885	32.72661
63.0161	2488.64	33.13361
63.07021	2486.632	30.9819
63.12431	2484.55	34.32833
63.17842	2481.918	34.26851
63.23253	2483.829	34.68863
63.28664	2484.206	35.84184
63.34074	2482.868	33.35519
63.39485	2476.621	31.35229
63.44896	2479.405	30.78333
63.50307	2473.669	31.21111
63.55717	2476.757	28.88743
63.61128	2467.294	29.98869
63.66539	2470.688	30.48962
63.7195	2463.032	31.62469
63.77361	2465.423	36.17447
63.82771	2461.734	29.41966
63.88182	2463.824	29.57635
63.93593	2455.839	31.41327
63.99004	2460.029	35.67819
64.04414	2456.009	33.92965
64.09825	2462.695	29.95408
64.15236	2450.054	35.51228
64.20647	2458.076	31.66042
64.26057	2446.94	35.6035
64.31468	2449.677	34.99741
64.36879	2442.019	36.88924
64.4229	2445.926	30.06814
64.47701	2440.19	33.06395
64.53111	2445.559	27.19464
64.58522	2438.786	35.09991
64.63933	2446.27	29.60856
64.69344	2434.573	32.98273
64.74754	2439.433	28.30193
64.80165	2431.917	26.84116
64.85576	2435.678	27.16539
64.90987	2429.716	27.03599
64.96397	2432.652	28.78663
65.01808	2427.143	35.4175
65.07219	2433.363	35.56953
65.1263	2425.699	27.64627
65.1804	2434.574	28.53088
65.23451	2423.703	35.66643
65.28862	2423.477	32.879
65.34273	2419.316	32.29491
65.39684	2422.844	36.28572
65.45094	2418.441	34.0602
65.50505	2420.124	33.41628
65.55916	2419.32	34.27723
65.61327	2421.682	32.84026
65.66737	2424.706	31.63672
65.72148	2420.495	29.06608
65.77559	2425.72	28.79564
65.8297	2424.292	32.67324
65.8838	2426.241	33.5833
65.93791	2419.647	34.61396
65.99202	2425.344	32.17683
66.04613	2421.165	31.68734
66.10023	2424.161	33.11937
66.15434	2421.404	37.55822
66.20845	2428.765	35.17833
66.26256	2422.543	33.67553
66.31667	2428.398	31.90136
66.37077	2424.884	36.37087
66.42488	2428.24	37.9366
66.47899	2426.027	32.54223
66.5331	2432.973	34.88369
66.5872	2427.244	34.9795
66.64131	2433.335	32.33184
66.69542	2429.578	34.31294
66.74953	2440.156	34.66877
66.80363	2428.276	38.269
66.85774	2441.247	36.63501
66.91185	2433.314	36.44207
66.96596	2445.963	37.15209
67.02007	2439.552	35.04066
67.07417	2447.627	34.04221
67.12828	2445.389	33.37396
67.18239	2454.131	34.12438
67.2365	2456.685	39.30252
67.2906	2458.066	33.33785
67.34471	2456.682	36.95097
67.39882	2463.15	40.7717
67.45293	2468.656	37.78288
67.50703	2472.808	37.26719
67.56113	2480.622	38.88754
67.61524	2483.617	37.83725
67.66935	2490.831	36.67826
67.72346	2489.004	37.75101
67.77757	2496.857	39.2667
67.83167	2500.076	41.91144
67.88578	2513.144	43.04568
67.93989	2514.314	38.01043
67.994	2527.587	34.94369
68.0481	2523.073	37.87165
68.10221	2537.595	37.37634
68.15632	2536.884	42.87391
68.21043	2553.583	41.02549
68.26453	2550.263	42.7457
68.31864	2564.853	43.75651
68.37275	2564.483	38.06693
68.42686	2581.234	40.6664
68.48096	2580.485	42.31563
68.53507	2597.853	40.88638
68.58918	2597.357	43.51404
68.64329	2613.88	38.8844
68.6974	2615.715	40.88126
68.7515	2633.94	39.59178
68.80561	2637.298	47.15398
68.85972	2657.434	41.36386
68.91383	2664.369	43.26741
68.96793	2674.927	47.44448
69.02204	2686.804	45.82701
69.07615	2703.179	44.96349
69.13026	2713.141	46.57853
69.18436	2727.979	47.09856
69.23847	2744.696	44.13688
69.29258	2756.251	44.00261
69.34669	2772.195	48.56783
69.40079	2781.561	51.03108
69.4549	2804.102	51.4267
69.50901	2815.907	56.06316
69.56312	2834.8	54.91233
69.61723	2846.466	49.17838
69.67133	2872.9	47.90993
69.72544	2881.183	49.84293
69.77955	2908.468	49.84938
69.83366	2912.553	57.42074
69.88776	2938.332	53.1246
69.94187	2952.579	54.44101
69.99598	2978.935	53.68022
70.05009	2989.73	56.47771
70.10419	3019.646	46.51707
70.1583	3036.009	58.28642
70.21241	3062.669	50.40878
70.26652	3077.736	61.80248
70.32063	3109.306	56.05563
70.37473	3123.909	63.20414
70.42884	3156.536	62.27334
70.48295	3170.938	63.49112
70.53706	3202.441	61.32951
70.59116	3213.845	62.09602
70.64527	3251.554	60.05579
70.69938	3268.754	64.56754
70.75349	3305.481	59.8243
70.80759	3324.546	62.09306
70.8617	3356.372	64.73359
70.91581	3382.427	62.80979
70.96992	3416.252	62.67324
71.02402	3440.843	63.54649
71.07813	3474.303	60.51308
71.13224	3500.513	59.83116
71.18635	3535.016	59.35277
71.24046	3568.01	61.53923
71.29456	3590.154	65.37273
71.34867	3627.589	65.75726
71.40278	3657.968	72.08675
71.45689	3698.635	66.7094
71.51099	3723.491	76.55056
71.5651	3758.637	70.41068
71.61921	3780.932	71.06592
71.67332	3825.332	61.68318
71.72742	3849.794	74.06614
71.78153	3895.888	69.52679
71.83564	3924.823	72.52449
71.88975	3967.687	63.08761
71.94386	3994.968	68.70264
71.99796	4040.544	76.1405
72.05207	4059.727	74.38724
72.10618	4113.306	69.7179
72.16029	4143.466	68.05206
72.21439	4192.076	69.55659
72.2685	4219.706	68.56153
72.32261	4267.765	72.00965
72.37672	4286.252	75.04511
72.43082	4344.878	72.50563
72.48493	4365.037	70.97967
72.53904	4413.411	70.64106
72.59315	4436.876	72.65321
72.64725	4475.926	75.93213
72.70136	4500.945	75.46217
72.75547	4538.55	75.40717
72.80958	4570.017	70.57566
72.86369	4603.364	66.66621
72.91779	4631.815	72.20879
72.9719	4656.986	72.47529
73.02601	4682.839	67.26148
73.08012	4704.118	66.59709
73.13422	4739.625	66.08803
73.18833	4744.831	67.0941
73.24244	4782.293	65.57698
73.29655	4789.149	60.88125
73.35065	4828.665	54.72846
73.40476	4825.851	68.99329
73.45887	4860.804	64.26688
73.51298	4860.091	67.79177
73.56709	4889.382	64.81481
73.62119	4890.444	64.09525
73.6753	4921.189	65.84135
73.72941	4918.4	60.74937
73.78352	4948.766	55.10008
73.83762	4937.017	60.52447
73.89173	4957.471	61.11633
73.94584	4959.85	60.09554
73.99995	4983.376	56.98074
74.05405	4972.722	64.27163
74.10816	4998.915	60.46284
74.16227	4988.462	66.03505
74.21638	5017.868	63.21135
74.27048	5012.458	62.99461
74.32459	5035.156	59.79623
74.3787	5028.177	66.20811
74.43281	5050.039	60.75457
74.48692	5038.479	69.70132
74.54102	5060.516	57.46949
74.59512	5056.673	64.33897
74.64923	5075.818	56.58926
74.70334	5062.26	60.34385
74.75745	5078.852	59.05833
74.81155	5079.932	55.75985
74.86566	5093.228	55.58976
74.91977	5098.134	58.43435
74.97388	5096.373	62.25824
75.02798	5104.387	64.39771
75.08209	5103.715	62.01936
75.1362	5123.058	56.97972
75.19031	5120.349	61.60255
75.24442	5131.937	63.63052
75.29852	5119.494	67.16708
75.35263	5142.599	69.51808
75.40674	5133.736	59.60888
75.46085	5148.211	57.44731
75.51495	5130.48	61.49582
75.56906	5157.568	53.40492
75.62317	5144.35	60.22847
75.67728	5176.338	60.51317
75.73138	5156.852	63.53088
75.78549	5174.361	68.3008
75.8396	5150.876	65.30006
75.89371	5182.909	57.2906
75.94781	5171.176	62.20891
76.00192	5188.229	59.41906
76.05603	5170.311	64.38272
76.11014	5192.004	58.81295
76.16425	5172.612	68.22567
76.21835	5194.113	56.52022
76.27246	5176.566	61.99457
76.32657	5195.542	61.48546
76.38068	5188.214	66.32713
76.43478	5201.771	61.78281
76.48889	5188.463	61.20752
76.543	5205.351	62.43557
76.59711	5203.03	68.46738
76.65121	5205.256	71.34788
76.70532	5207.315	70.2677
76.75943	5208.827	64.39218
76.81354	5216.193	57.76004
76.86765	5211.476	61.44765
76.92175	5228.146	66.00198
76.97586	5217.428	59.70798
77.02997	5233.181	55.31873
77.08408	5219.938	58.98315
77.13818	5243.274	62.83823
77.19229	5221.322	61.9284
77.2464	5242.686	63.27365
77.30051	5220.049	61.29581
77.35461	5236.532	65.67858
77.40872	5232.404	60.9983
77.46283	5258.644	59.78301
77.51694	5232.766	60.86978
77.57104	5249.358	60.61217
77.62515	5234.317	65.01773
77.67926	5260.148	58.03849
77.73337	5234.698	61.42668
77.78748	5263.757	54.27542
77.84158	5232.869	65.1048
77.89569	5254.814	60.98579
77.9498	5235.763	61.28146
78.00391	5249.838	58.41835
78.05801	5226.562	63.6943
78.11212	5251.634	56.2906
78.16623	5237.843	60.29237
78.22034	5251.226	60.23571
78.27444	5246.866	62.74921
78.32855	5264.3	60.74483
78.38266	5247.593	71.51236
78.43677	5261.017	70.13961
78.49088	5251.6	64.43078
78.54498	5259.236	60.7991
78.59909	5259.998	63.58165
78.6532	5260.321	66.72238
78.70731	5266.777	63.69989
78.76141	5264.662	65.0274
78.81552	5275.716	66.52612
78.86963	5261.653	59.06497
78.92374	5272.268	59.29207
78.97784	5260.971	60.33303
79.03195	5284.451	60.82245
79.08606	5256.708	66.68935
79.14017	5277.521	67.18358
79.19427	5254.111	63.55025
79.24838	5283.474	65.56631
79.30249	5252.681	52.21605
79.3566	5274.467	56.77534
79.41071	5252.055	66.79655
79.46481	5271.152	58.92389
79.51892	5253.028	48.69729
79.57303	5274.204	49.48713
79.62714	5248.908	60.33578
79.68124	5270.515	53.74352
79.73535	5255.335	52.89286
79.78946	5269.952	46.06569
79.84357	5244.079	57.61584
79.89767	5266.194	48.77552
79.95178	5246.356	53.48331
80.00589	5269.281	40.34851
80.06	5238.36	51.20123
80.11411	5264.174	48.51615
80.16821	5246.052	43.2023
80.22232	5266.216	42.60451
80.27643	5251.751	44.98806
80.33054	5271.993	37.80827
80.38464	5248.94	53.15003
80.43875	5267.298	44.36055
80.49286	5246.535	47.93199
80.54697	5268.686	48.53186
80.60107	5243.214	50.57197
80.65518	5269.399	43.08285
80.70929	5254.579	44.10806
80.7634	5275.733	43.14156
80.8175	5254.554	48.87673
80.87161	5274.438	44.61839
80.92572	5259.948	45.6372
80.97983	5273.717	41.50328
81.03394	5259.918	43.10273
81.08804	5277.134	45.77166
81.14215	5267.014	50.58566
81.19626	5279.688	47.81565
81.25037	5271.013	43.22895
81.30447	5275.618	43.90006
81.35858	5273.997	57.95588
81.41269	5281.792	56.25531
81.4668	5281.251	48.2171
81.5209	5287.12	51.4316
81.575	5289.841	53.36549
81.62911	5288.924	51.92464
81.68322	5292.305	54.50563
81.73733	5294.449	56.23682
81.79144	5309.285	53.77888
81.84554	5300.001	52.52917
81.89965	5305.566	49.4758
81.95376	5296.371	44.15675
82.00787	5307.359	43.27505
82.06197	5300.799	44.1142
82.11608	5317.729	52.90924
82.17019	5304.852	48.71236
82.2243	5314.291	41.11623
82.2784	5304.009	46.90628
82.33251	5328.007	48.77863
82.38662	5313.788	44.71202
82.44073	5333.879	45.21128
82.49483	5312.216	47.74757
82.54894	5331.927	41.35242
82.60305	5320.203	47.95416
82.65716	5344.568	38.4423
82.71127	5324.905	50.40626
82.76537	5349.482	44.27196
82.81948	5326.223	44.38992
82.87359	5354.66	39.4313
82.9277	5328.425	43.92983
82.9818	5350.868	38.51561
83.03591	5324.089	41.88812
83.09002	5350.388	33.73228
83.14413	5330.178	42.62246
83.19823	5352.38	45.17257
83.25234	5326.671	46.59152
83.30645	5349.157	43.75877
83.36056	5335.593	51.27132
83.41467	5363.162	48.21613
83.46877	5334.767	43.72792
83.52288	5357.911	43.16368
83.57699	5341.209	46.62263
83.6311	5366.939	46.44069
83.6852	5341.184	46.67277
83.73931	5367.284	43.84167
83.79342	5342.516	42.65005
83.84753	5364.248	40.68098
83.90163	5339.967	40.87453
83.95574	5361.036	31.50599
84.00985	5337.532	48.43217
84.06396	5374.329	41.96249
84.11806	5347.72	45.77577
84.17217	5367.58	39.76685
84.22628	5345.732	41.69347
84.28039	5370.895	37.94287
84.3345	5335.538	46.76149
84.3886	5362.339	43.79008
84.44271	5350.765	41.11099
84.49682	5366.992	33.93265
84.55093	5342.969	41.66016
84.60503	5364.366	37.47369
84.65914	5341.078	46.89501
84.71325	5366.328	44.3001
84.76736	5343.19	44.56351
84.82146	5366.876	41.2951
84.87557	5334.95	39.82151
84.92968	5362.658	38.24649
84.98379	5342.953	39.8543
85.0379	5358.523	40.35903
85.092	5339.982	39.42274
85.14611	5351.736	31.81621
85.20022	5342.323	36.37691
85.25433	5356.979	33.06893
85.30843	5335.782	33.46654
85.36254	5346.749	33.51621
85.41665	5334.349	32.54782
85.47076	5340.711	34.2121
85.52486	5332.085	38.04948
85.57897	5338.235	33.51396
85.63308	5329.472	37.72375
85.68719	5338.404	35.64389
85.74129	5332.777	33.99164
85.7954	5337.724	37.69339
85.84951	5332.359	36.16835
85.90362	5322.989	30.54617
85.95773	5319.841	28.54989
86.01183	5318.937	34.54838
86.06594	5325.025	36.50615
86.12005	5312.911	27.52047
86.17416	5319.921	22.95803
86.22826	5303.79	30.83266
86.28237	5314.627	33.41656
86.33648	5295.129	31.40074
86.39059	5305.273	33.18159
86.44469	5282.819	40.43523
86.4988	5298.668	35.78312
86.55291	5280.024	36.54495
86.60702	5296.149	25.97277
86.66113	5271.735	34.14528
86.71523	5297.028	33.7768
86.76934	5268.592	31.71632
86.82345	5292.422	25.95747
86.87756	5261.331	31.11922
86.93166	5289.209	27.246
86.98577	5251.739	28.58544
87.03988	5279.385	23.26006
87.09399	5247.438	31.14797
87.14809	5266.425	28.46951
87.2022	5234.657	35.60909
87.25631	5256.031	22.7614
87.31042	5227.048	31.45553
87.36452	5258.052	21.664
87.41863	5221.809	28.13881
87.47274	5242.428	20.71714
87.52685	5215.622	24.53689
87.58096	5235.746	22.48618
87.63506	5198.607	26.07393
87.68917	5221.962	25.49145
87.74328	5193.672	25.39676
87.79739	5212.733	16.83118
87.85149	5181.901	27.15553
87.9056	5201.492	18.86564
87.95971	5181.411	30.70326
88.01382	5202.427	26.79388
88.06792	5159.956	22.39644
88.12203	5183.642	15.53943
88.17614	5154.546	21.88004
88.23025	5175.658	15.2997
88.28436	5142.738	20.96247
88.33846	5172.702	8.07907
88.39257	5132.894	23.36905
88.44668	5155.341	15.58807
88.50079	5121.996	17.52748
88.55489	5139.739	14.98662
88.60899	5117.16	17.10682
88.6631	5139.765	19.7483
88.71721	5108.232	27.2308
88.77132	5131.227	17.17282
88.82542	5097.835	19.57206
88.87953	5118.576	15.92928
88.93364	5090.162	15.06138
88.98775	5113.737	10.64293
89.04185	5074.922	16.39298
89.09596	5097.538	9.028669
89.15007	5074.108	21.78198
89.20418	5091.924	14.37209
89.25829	5055.81	13.51668
89.31239	5076.882	13.58706
89.3665	5056.752	19.08949
89.42061	5069.197	20.34775
89.47472	5040.428	16.78761
89.52882	5053.767	14.86607
89.58293	5039.574	19.55754
89.63704	5047.841	14.46727
89.69115	5038.309	11.64186
89.74525	5041.473	16.38087
89.79936	5025.715	16.10793
89.85347	5028.277	12.33749
89.90758	5021.29	11.78181
89.96169	5012.94	9.690629
90.01579	5009.486	11.24988
90.0699	5005.291	12.60528
90.12401	5004.012	11.75735
90.17812	5002.492	9.730674
90.23222	4994.759	14.17451
90.28633	4983.062	15.78807
90.34044	4982.628	9.451449
90.39455	4973.075	8.643806
90.44865	4974.376	6.886205
90.50276	4962.169	7.406017
90.55687	4973.378	5.105694
90.61098	4946.598	6.552056
90.66508	4961.36	7.037693
90.71919	4937.16	7.300171
90.7733	4955.472	1.231872
90.82741	4927.708	4.75733
90.88152	4941.564	6.545219
90.93562	4918.325	7.78899
90.98973	4930.153	4.868743
91.04384	4907.107	11.10032
91.09795	4926.453	11.90145
91.15205	4892.795	7.256658
91.20616	4916.199	9.92289
91.26027	4883.785	6.441669
91.31438	4910.564	4.758402
91.36848	4876.546	8.674601
91.42259	4900.114	7.317077
91.4767	4861.896	4.336582
91.53081	4874.722	6.876817
91.58492	4837.695	7.479883
91.63902	4859.201	4.144935
91.69313	4831.225	10.02755
91.74724	4853.158	8.232261
91.80135	4823.833	12.10646
91.85545	4846.472	4.594616
91.90956	4809.483	11.24494
91.96367	4839.777	3.391624
92.01778	4803.101	7.420517
92.07188	4822.265	9.605749
92.12599	4792.385	11.89131
92.1801	4800.776	9.316895
92.23421	4775.97	6.952976
92.28831	4795.123	0.9045305
92.34242	4768.434	7.64474
92.39653	4785.85	3.728949
92.45064	4750.872	3.83605
92.50475	4775.692	5.785083
92.55885	4739.887	5.46639
92.61296	4758.991	1.643977
92.66707	4730.844	4.947337
92.72118	4755.995	10.07616
92.77528	4715.352	5.112013
92.82939	4741.573	9.066743
92.8835	4705.845	9.895295
92.93761	4728.494	8.150588
92.99171	4696.925	9.777865
93.04582	4719.446	5.629953
93.09993	4686.688	4.136814
93.15404	4709.595	6.542821
93.20815	4677.101	14.71384
93.26225	4696.69	5.927015
93.31636	4661.923	8.085813
93.37047	4678.422	4.631878
93.42458	4652.862	1.925693
93.47868	4670.673	7.439099
93.53279	4636.355	10.89544
93.5869	4659.906	6.651643
93.64101	4632.463	1.614738
93.69511	4640.524	9.38871
93.74922	4621.211	6.279056
93.80333	4625.833	8.501052
93.85744	4610.631	6.527804
93.91154	4621.393	11.37505
93.96565	4598.659	7.645785
94.01976	4605.859	9.106406
94.07387	4590.989	9.665449
94.12798	4598.699	8.79214
94.18208	4565.551	1.949936
94.23619	4591.502	2.354291
94.2903	4563.532	10.15907
94.34441	4584.409	10.73807
94.39851	4558.869	8.179963
94.45262	4576.142	2.944854
94.50673	4555.498	8.009823
94.56084	4540.568	4.992208
94.61494	4559.428	15.02004
94.66905	4545.321	9.107892
94.72316	4525.209	6.315032
94.77727	4513.508	9.789467
94.83138	4502.58	5.374806
94.88548	4499.331	13.51496
94.93959	4516.958	14.45529
94.9937	4528.534	19.49343
