T[Â°C]	350nm [counts / mm]	S.D.
20.00055	4103.307	49.21627
20.05466	4103.438	40.02441
20.10877	4099.82	43.41681
20.16287	4096.073	43.58941
20.21698	4088.453	46.56065
20.27109	4088.155	46.98432
20.3252	4087.094	48.52847
20.3793	4077.647	47.01789
20.43341	4074.6	47.55688
20.48752	4076.019	42.8785
20.54163	4068.336	41.76006
20.59574	4067.558	47.66711
20.64984	4063.296	44.12862
20.70395	4060.927	43.27213
20.75806	4057.339	42.03876
20.81217	4055.476	44.51928
20.86627	4051.306	43.73336
20.92038	4045.645	41.8732
20.97449	4045.418	45.71663
21.02859	4039.358	41.16286
21.0827	4037.089	42.98598
21.13681	4033.584	39.50412
21.19092	4034.527	45.04458
21.24503	4029.863	45.41408
21.29913	4023.529	42.44441
21.35324	4023.566	43.78303
21.40735	4016.892	42.20296
21.46146	4017.484	41.16466
21.51556	4019.549	43.73172
21.56967	4014.949	42.76421
21.62378	4016.891	42.68684
21.67789	4008.34	52.54396
21.73199	4002.957	46.98863
21.7861	4000.438	49.21926
21.84021	3996.423	48.59438
21.89432	3994.619	41.0157
21.94843	3992.674	42.30592
22.00253	3982.912	42.49734
22.05664	3978.471	45.45093
22.11075	3978.557	46.72718
22.16486	3976.402	40.12082
22.21896	3970.823	43.14782
22.27307	3965.594	44.04145
22.32718	3966.548	41.92811
22.38129	3961.666	44.80598
22.43539	3959.829	42.04178
22.4895	3961.028	49.71658
22.54361	3951.664	44.34431
22.59772	3954.734	43.36116
22.65182	3949.744	41.38932
22.70593	3950.149	44.31096
22.76004	3944.041	44.75842
22.81415	3940.447	39.10658
22.86825	3937.351	43.33783
22.92236	3931.994	42.76062
22.97647	3929.393	40.75666
23.03058	3929.195	39.5392
23.08468	3925.388	43.19513
23.13879	3927.151	43.6282
23.1929	3919.678	44.66441
23.24701	3915.872	45.61869
23.30112	3912.051	44.80598
23.35522	3910.484	47.29169
23.40933	3909.356	45.40327
23.46344	3902.862	47.31204
23.51755	3902.604	47.34626
23.57165	3900.661	45.21658
23.62576	3892.337	43.52992
23.67987	3888.059	41.33544
23.73398	3883.661	41.61643
23.78808	3883.059	40.14961
23.84219	3883.064	40.72646
23.8963	3879.879	47.19635
23.95041	3875.651	43.66217
24.00451	3870.542	40.73779
24.05862	3866.146	43.62532
24.11273	3866.368	48.02113
24.16684	3861.07	45.23804
24.22095	3857.935	44.61556
24.27505	3855.608	41.84658
24.32916	3851.404	43.04058
24.38327	3848.094	42.32097
24.43737	3846.287	38.60905
24.49148	3842.656	39.78814
24.54559	3839.608	42.34297
24.5997	3840.377	43.68135
24.6538	3837.728	43.30513
24.70791	3832.181	40.55375
24.76202	3829.895	39.88144
24.81613	3828.276	39.37445
24.87024	3823.959	38.37255
24.92434	3819.525	38.18018
24.97845	3815.483	35.00353
25.03256	3813.643	37.49651
25.08667	3812.134	42.50749
25.14077	3808.631	43.80655
25.19488	3801.276	36.31956
25.24899	3802.283	40.67294
25.3031	3795.888	44.17505
25.3572	3800.859	38.57743
25.41131	3797.257	39.31945
25.46542	3790.967	40.13799
25.51953	3784.816	32.81576
25.57364	3784.989	42.27166
25.62774	3782.358	40.89816
25.68185	3777.208	44.68056
25.73596	3772.699	47.23349
25.79007	3773.365	38.90231
25.84417	3771.281	43.62236
25.89828	3767.069	39.31557
25.95239	3763.036	42.87364
26.0065	3757.752	40.35353
26.0606	3758.669	36.37819
26.11471	3748.125	35.4047
26.16882	3751.846	38.59026
26.22293	3747.57	42.26856
26.27703	3742.478	41.27053
26.33114	3744.81	42.02244
26.38525	3736.164	39.98825
26.43936	3734.518	40.36051
26.49346	3731.636	40.23293
26.54757	3732.006	37.7275
26.60168	3728.121	43.24811
26.65579	3722.617	43.16289
26.70989	3720.5	37.87375
26.764	3717.624	41.77805
26.81811	3711.833	35.61505
26.87222	3710.812	42.87679
26.92632	3711.111	42.79062
26.98043	3705.795	42.36556
27.03454	3704.741	41.22131
27.08865	3694.854	33.05825
27.14276	3696.769	38.75486
27.19686	3699.311	41.77266
27.25097	3689.072	40.74048
27.30508	3688.219	45.6817
27.35919	3686.388	42.51272
27.41329	3676.926	36.56833
27.4674	3676.346	39.27062
27.52151	3674.93	44.35695
27.57562	3668.862	42.94587
27.62972	3665.032	43.03586
27.68383	3662.894	42.09828
27.73794	3660.921	38.13434
27.79205	3657.92	39.00095
27.84616	3657.37	45.10911
27.90026	3653.655	42.20985
27.95437	3649.626	36.31182
28.00848	3646.795	37.78176
28.06258	3641.261	37.40195
28.11669	3642.027	39.21374
28.1708	3643.145	37.95758
28.22491	3637.413	39.87326
28.27901	3635.848	37.1996
28.33312	3633.896	36.05981
28.38723	3628.118	37.22803
28.44134	3624.259	37.72847
28.49545	3622.332	39.59527
28.54955	3619.704	37.12122
28.60366	3613.599	37.89952
28.65777	3611.707	40.89235
28.71188	3611.056	38.26587
28.76598	3607.844	36.11139
28.82009	3607.588	33.00713
28.8742	3603.875	32.25988
28.92831	3598.943	33.98114
28.98241	3595.913	33.61189
29.03652	3588.956	34.71806
29.09063	3584.689	35.72364
29.14474	3583.69	37.93994
29.19884	3581.792	37.47892
29.25295	3578.483	39.35835
29.30706	3579.651	38.64162
29.36117	3575.408	37.16333
29.41528	3571.151	36.33167
29.46938	3574.261	41.46472
29.52349	3563.697	36.21331
29.5776	3563.606	38.2655
29.63171	3561.177	41.16271
29.68581	3557.444	39.0139
29.73992	3553.082	39.54005
29.79403	3548.187	42.45562
29.84813	3549.389	40.42534
29.90224	3549.259	33.71178
29.95635	3545.209	35.38422
30.01046	3542.599	40.49358
30.06457	3531.719	38.66402
30.11867	3528.545	38.67376
30.17278	3528.094	36.93412
30.22689	3524.663	41.68734
30.281	3526.079	35.49968
30.3351	3523.046	37.79126
30.38921	3517.706	39.90012
30.44332	3520.951	45.1142
30.49743	3514.391	36.82005
30.55153	3514.137	38.5492
30.60564	3512.814	40.16559
30.65975	3512.761	38.62368
30.71386	3503.293	36.10702
30.76797	3497.444	33.24562
30.82207	3490.359	35.70716
30.87618	3485.653	32.982
30.93029	3485.602	42.55471
30.9844	3484.802	35.08733
31.0385	3481.528	43.2838
31.09261	3478.556	38.54126
31.14672	3475.328	34.89893
31.20083	3470.49	34.18408
31.25493	3471.777	35.88233
31.30904	3468.819	38.82012
31.36315	3464.525	40.60736
31.41726	3463.152	41.77245
31.47136	3463.455	35.06662
31.52547	3461.534	39.15976
31.57958	3454.601	32.66455
31.63369	3452.804	34.43091
31.68779	3453.862	35.6113
31.7419	3451.666	33.86453
31.79601	3444.162	39.61232
31.85012	3440.781	37.48973
31.90422	3437.63	35.4802
31.95833	3432.68	30.53065
32.01244	3429.934	38.59546
32.06655	3428.153	34.48102
32.12066	3425.634	34.60095
32.17476	3421.926	36.07172
32.22887	3417.688	34.78891
32.28298	3415.367	36.14813
32.33709	3412.918	32.79912
32.39119	3412.24	35.39373
32.4453	3409.928	38.9142
32.49941	3405.849	38.09308
32.55352	3403.424	39.82285
32.60762	3401.147	37.84041
32.66173	3398.48	36.46006
32.71584	3392.851	36.61043
32.76995	3390.401	34.32633
32.82405	3387.848	31.31147
32.87816	3388.683	33.8569
32.93227	3384.63	38.30259
32.98638	3381.469	36.93963
33.04049	3375.159	35.3248
33.09459	3375.834	39.7697
33.1487	3369.486	41.41132
33.20281	3369.538	32.99298
33.25692	3365.266	34.74512
33.31102	3364.57	29.22174
33.36513	3358.486	34.58439
33.41924	3353.13	36.01229
33.47335	3353.385	33.5707
33.52745	3354.439	38.15146
33.58156	3351.855	33.82747
33.63567	3345.085	35.3514
33.68978	3341.309	36.51353
33.74389	3339.91	36.44134
33.79799	3334.557	39.22211
33.8521	3332.685	35.20446
33.90621	3327.484	38.97224
33.96032	3328.346	40.76835
34.01442	3327.432	33.80124
34.06853	3329.453	35.19526
34.12263	3319.75	33.79703
34.17674	3319.957	35.07891
34.23085	3313.506	32.40675
34.28496	3312.514	38.833
34.33907	3304.042	35.98468
34.39317	3305.849	34.15196
34.44728	3302.517	37.51141
34.50139	3300.491	32.14389
34.5555	3295.443	38.57414
34.6096	3295.131	36.57144
34.66371	3285.642	37.04292
34.71782	3287.385	36.09641
34.77193	3283.531	38.36172
34.82603	3284.265	36.95287
34.88014	3283.669	29.86027
34.93425	3282.042	34.92168
34.98836	3277.536	37.74844
35.04247	3275.579	39.54611
35.09657	3262.462	33.01734
35.15068	3263.427	36.61908
35.20479	3263.97	34.43697
35.2589	3261.5	32.63184
35.313	3255.695	27.82071
35.36711	3257.109	29.14549
35.42122	3246.312	29.94897
35.47533	3247.279	29.72832
35.52943	3241.073	34.91658
35.58354	3240.52	34.06813
35.63765	3244.103	37.10511
35.69176	3238.919	35.3526
35.74586	3235.586	36.57188
35.79997	3231.323	33.36681
35.85408	3224.65	33.37056
35.90819	3225.143	34.55383
35.9623	3224.34	39.72448
36.0164	3223.029	37.451
36.07051	3221.775	33.4204
36.12462	3219.24	33.32845
36.17873	3215.271	33.10831
36.23283	3208.675	32.15784
36.28694	3205.213	34.27068
36.34105	3206.515	34.40074
36.39516	3204.072	33.84969
36.44926	3197.628	32.28331
36.50337	3195.636	31.70461
36.55748	3199.594	36.06316
36.61159	3196.078	33.83168
36.6657	3187.111	29.5694
36.7198	3187.002	34.50728
36.77391	3182.295	36.6729
36.82802	3177.314	33.41936
36.88213	3176.167	34.24336
36.93623	3171.756	36.00131
36.99034	3167.698	32.07382
37.04445	3167.606	33.03375
37.09856	3164.673	36.32358
37.15266	3164.741	35.41668
37.20677	3162.576	33.60253
37.26088	3164.924	36.69246
37.31499	3153.424	37.11471
37.36909	3158.449	38.38328
37.4232	3151.563	30.64001
37.47731	3149.316	32.64637
37.53142	3144.679	33.26682
37.58552	3146.823	29.75814
37.63963	3131.771	29.6158
37.69374	3135.778	35.39034
37.74784	3129.231	33.5785
37.80195	3128.289	32.29881
37.85606	3128.202	36.31672
37.91017	3125.013	34.93947
37.96428	3118.133	34.86876
38.01838	3118.485	33.53165
38.07249	3112.372	36.32747
38.1266	3114.51	33.91162
38.18071	3105.295	29.71064
38.23481	3107.623	32.4332
38.28892	3105.412	31.77894
38.34303	3106.117	30.65801
38.39714	3094.738	37.05871
38.45124	3095.101	33.04039
38.50535	3091.997	37.53885
38.55946	3093.075	32.49122
38.61357	3089.934	31.9006
38.66768	3089.36	31.3793
38.72178	3083.487	27.96861
38.77589	3085.19	32.76319
38.83	3073.957	28.69415
38.88411	3074.43	30.89222
38.93821	3068.081	34.88033
38.99232	3070.622	25.88231
39.04643	3064.722	26.28835
39.10054	3065.284	26.15184
39.15464	3059.082	33.63966
39.20875	3060.58	31.44109
39.26286	3058.407	28.27681
39.31697	3057.771	30.25097
39.37107	3046.061	28.17167
39.42518	3046.424	28.02904
39.47929	3043.897	32.27303
39.5334	3042.567	29.98254
39.58751	3038.123	29.3773
39.64161	3038.876	32.19018
39.69572	3032.238	31.07666
39.74983	3030.813	28.12473
39.80394	3025.317	28.58068
39.85804	3024.922	29.72737
39.91215	3024.971	34.53623
39.96626	3020.765	35.33419
40.02037	3017.379	34.09219
40.07447	3016.883	31.21517
40.12858	3015.337	29.18419
40.18269	3009.402	30.75854
40.2368	3007.984	27.5592
40.2909	3005.801	30.4062
40.34501	3003.99	31.25196
40.39912	2999.185	31.38285
40.45323	2999.947	34.41106
40.50734	2995.236	24.22175
40.56144	2997.694	24.7605
40.61555	2984.603	30.96712
40.66966	2987.648	31.37836
40.72377	2982.483	28.26854
40.77787	2986.209	30.16538
40.83198	2980.719	30.77127
40.88609	2978.798	30.86472
40.9402	2974.096	29.16763
40.9943	2972.054	27.24257
41.04841	2967.019	32.38254
41.10252	2967.087	27.55007
41.15662	2962.991	33.37614
41.21073	2962.472	29.0904
41.26484	2953.833	37.74984
41.31895	2954.53	35.06955
41.37305	2948.105	31.25107
41.42716	2948.726	29.88033
41.48127	2948.384	27.31827
41.53538	2944.72	30.17393
41.58949	2934.56	29.57771
41.64359	2942.184	26.98557
41.6977	2935.322	26.8407
41.75181	2932.701	29.66994
41.80592	2928.108	32.33727
41.86002	2931.956	34.07497
41.91413	2922.45	31.92936
41.96824	2920.664	30.92448
42.02235	2919.373	32.96379
42.07645	2919.898	33.4202
42.13056	2911.316	30.65205
42.18467	2910.774	28.67302
42.23878	2910.053	31.87812
42.29288	2909.571	30.01118
42.34699	2903.004	28.52599
42.4011	2897.895	30.19183
42.45521	2897.643	29.08352
42.50932	2897.302	28.25612
42.56342	2893.448	26.79691
42.61753	2894.719	27.46543
42.67164	2893.983	25.92887
42.72575	2889.256	27.08167
42.77985	2883.499	30.36889
42.83396	2880.13	29.49016
42.88807	2877.585	31.36056
42.94218	2874.437	34.10991
42.99628	2873.608	31.96942
43.05039	2872.626	30.03656
43.1045	2872.56	28.60502
43.15861	2866.773	27.14011
43.21272	2864.747	29.52402
43.26682	2859.962	28.63749
43.32093	2855.975	30.54777
43.37504	2853.612	30.06322
43.42915	2850.09	27.43215
43.48325	2849.009	30.27252
43.53736	2845.69	27.40852
43.59147	2842.485	26.58931
43.64558	2843.656	27.22736
43.69968	2837.18	27.47239
43.75379	2837.319	29.55194
43.8079	2831.398	29.9023
43.86201	2831.286	29.96855
43.91611	2827.826	30.40917
43.97022	2826.702	30.28165
44.02433	2822.589	29.87835
44.07844	2816.844	26.02691
44.13255	2817.81	28.53412
44.18665	2820.214	28.01187
44.24076	2811.336	33.99994
44.29487	2818.784	33.11433
44.34898	2810.259	32.85376
44.40308	2814.274	31.47693
44.45719	2803.213	34.49939
44.5113	2804.32	33.25753
44.56541	2799.667	24.34326
44.61951	2797.656	26.48237
44.67362	2791.276	31.76919
44.72773	2790.411	26.8643
44.78183	2786.91	34.49488
44.83594	2790.239	30.88313
44.89005	2781.009	34.12199
44.94416	2782.462	28.04006
44.99826	2773.395	30.06848
45.05237	2774.529	30.69834
45.10648	2771.602	28.25179
45.16059	2770.792	25.72712
45.21469	2767.272	28.01282
45.2688	2770.624	29.51905
45.32291	2763.704	29.88194
45.37702	2763.403	28.10302
45.43113	2757.136	32.07434
45.48523	2757.545	30.45362
45.53934	2749.219	27.0007
45.59345	2751.774	26.54247
45.64756	2744.804	27.53549
45.70166	2746.7	26.30812
45.75577	2744.323	24.32203
45.80988	2744.519	23.4496
45.86399	2734.808	28.26322
45.91809	2737.926	24.56758
45.9722	2730.339	28.53115
46.02631	2731.083	26.91885
46.08042	2725.144	29.57038
46.13453	2728.449	27.42935
46.18863	2720.395	29.99129
46.24274	2724.281	26.14738
46.29685	2719.978	22.58175
46.35096	2717.672	29.05511
46.40506	2710.548	27.88722
46.45917	2711.342	28.02342
46.51328	2706.575	29.62964
46.56739	2706.398	31.74058
46.62149	2699.849	26.20551
46.6756	2701.229	29.0122
46.72971	2695.314	20.68352
46.78382	2695.843	25.65385
46.83792	2687.746	28.5095
46.89203	2689.245	24.02277
46.94614	2683.823	23.12938
47.00025	2684.723	28.16227
47.05436	2681.428	29.66419
47.10846	2678.552	26.82467
47.16257	2675.764	31.8312
47.21668	2677.076	31.14168
47.27079	2674.07	28.94697
47.32489	2670.713	23.81867
47.379	2664.545	25.46536
47.43311	2663.36	28.26077
47.48722	2664.183	25.84526
47.54132	2663.168	27.09049
47.59543	2660.409	28.57344
47.64954	2656.252	31.00106
47.70365	2652.387	28.23207
47.75776	2648.531	24.95411
47.81186	2644.727	28.07283
47.86597	2643.927	24.01642
47.92008	2643.217	22.53659
47.97419	2641.712	24.9071
48.02829	2640.418	25.61804
48.0824	2636.811	26.56177
48.13651	2637.258	23.3673
48.19061	2631.549	27.8557
48.24472	2629.336	30.84549
48.29883	2626.098	27.02608
48.35294	2627.901	25.34435
48.40704	2619.82	24.25684
48.46115	2622.342	25.28545
48.51526	2615.022	27.41644
48.56937	2612.01	28.19619
48.62347	2610.784	32.84583
48.67758	2607.346	29.67426
48.73169	2603.549	30.25903
48.7858	2605.166	29.14891
48.8399	2599.282	26.78513
48.89401	2600.134	26.41776
48.94812	2592.336	29.22729
49.00223	2593.228	27.94283
49.05634	2592.928	26.4201
49.11044	2594.366	27.49756
49.16455	2586.082	29.37349
49.21866	2588.396	29.90367
49.27277	2580.078	26.06134
49.32687	2582.672	22.00624
49.38098	2579.165	25.74921
49.43509	2579.218	23.50289
49.4892	2574.834	23.54962
49.5433	2573.275	27.7782
49.59741	2568.673	23.53746
49.65152	2569.56	18.70348
49.70563	2558.82	27.35348
49.75974	2561.965	23.27761
49.81384	2553.977	23.63166
49.86795	2553.786	22.36006
49.92206	2553.175	25.75863
49.97617	2553.253	25.31896
50.03027	2545.846	23.49535
50.08438	2546.238	24.80834
50.13849	2541.688	25.41711
50.1926	2541.721	25.32
50.2467	2539.708	25.19189
50.30081	2540.142	22.86814
50.35492	2531.831	28.53115
50.40903	2531.008	27.47091
50.46313	2524.726	21.11347
50.51724	2528.548	22.91878
50.57135	2521.464	27.6613
50.62546	2526.375	28.76987
50.67957	2517.018	26.47738
50.73367	2518.847	23.27014
50.78778	2512.969	28.94245
50.84189	2514.523	25.97597
50.896	2505.79	26.18568
50.9501	2506.593	21.47131
51.00421	2502.904	25.61916
51.05832	2503.002	23.74679
51.11243	2495.653	23.83306
51.16653	2497.316	25.75935
51.22064	2490.84	23.331
51.27475	2491.23	26.96826
51.32886	2486.97	27.0735
51.38297	2490.042	24.81025
51.43707	2485.653	26.9566
51.49118	2485.293	27.44082
51.54529	2481.467	26.85491
51.5994	2482.963	24.52611
51.6535	2474.48	22.06901
51.70761	2477.669	24.73059
51.76171	2474.196	23.86799
51.81582	2473.713	25.08628
51.86993	2470.255	26.20034
51.92404	2466.407	23.53663
51.97815	2462.817	25.46395
52.03225	2459.219	23.76075
52.08636	2455.582	21.08848
52.14047	2456.972	23.27475
52.19458	2453.192	26.40666
52.24868	2449.974	26.58076
52.30279	2449.349	27.07283
52.3569	2444.134	28.54
52.41101	2443.309	27.71688
52.46511	2439.766	28.20346
52.51922	2441.941	26.98289
52.57333	2436.21	26.82434
52.62744	2439.671	24.40183
52.68155	2431.898	23.02649
52.73565	2435.047	21.90648
52.78976	2429.121	24.95236
52.84387	2430.966	23.60867
52.89798	2423.284	21.08481
52.95208	2425.358	19.00668
53.00619	2414.898	24.52928
53.0603	2418.613	22.62939
53.11441	2414.177	22.10856
53.16851	2415.583	22.32543
53.22262	2405.879	24.22769
53.27673	2411.25	21.66457
53.33084	2404.198	19.35894
53.38494	2407.853	19.26272
53.43905	2397.429	25.24112
53.49316	2398.343	21.51648
53.54727	2393.923	23.32987
53.60138	2393.634	25.38994
53.65548	2386.723	25.47424
53.70959	2390.2	26.3306
53.7637	2385.835	20.75937
53.81781	2383.775	23.93006
53.87191	2377.534	23.08793
53.92602	2377.615	20.7929
53.98013	2374.709	25.9204
54.03424	2376.323	28.95199
54.08834	2373.117	25.46892
54.14245	2371.734	23.4473
54.19656	2369.925	24.9163
54.25067	2362.072	22.81974
54.30478	2363.272	21.89072
54.35888	2360.319	27.51673
54.41299	2362.986	27.3772
54.4671	2356.794	24.30021
54.52121	2359.656	23.66999
54.57531	2352.574	21.34341
54.62942	2354.669	19.18057
54.68353	2347.936	21.82644
54.73764	2347.869	20.30136
54.79174	2343.795	27.7126
54.84585	2345.405	28.5228
54.89996	2338.716	24.46556
54.95407	2340.351	21.19247
55.00817	2338.001	21.97096
55.06228	2340.144	19.84409
55.11639	2329.905	23.78827
55.17049	2333.759	17.69265
55.2246	2320.699	21.92406
55.27871	2323.051	18.66766
55.33282	2322.582	25.9515
55.38692	2326.322	28.75672
55.44103	2318.302	30.09204
55.49514	2319.423	29.23381
55.54925	2313.341	26.57729
55.60336	2313.728	24.26704
55.65746	2306.476	23.80816
55.71157	2310.215	20.7562
55.76568	2303.391	27.3393
55.81979	2306.216	27.15631
55.87389	2295.922	24.93217
55.928	2299.288	24.53756
55.98211	2288.028	26.28968
56.03622	2292.263	24.30603
56.09032	2285.131	21.83406
56.14443	2287.361	21.09019
56.19854	2281.223	22.8054
56.25265	2284.593	21.51846
56.30676	2281.542	22.15434
56.36086	2281.992	23.84532
56.41497	2277.118	24.99632
56.46908	2274.867	24.67003
56.52319	2275.936	23.3352
56.57729	2271.772	21.13701
56.6314	2274.584	21.97766
56.68551	2266.088	23.47085
56.73962	2269.026	21.32129
56.79372	2262.072	19.50411
56.84783	2267.243	21.96027
56.90194	2258.931	17.46855
56.95605	2261.603	15.91647
57.01015	2256.123	20.96951
57.06426	2254.538	18.03311
57.11837	2249.427	18.16595
57.17248	2252.835	15.20587
57.22659	2244.732	20.2152
57.28069	2245.203	19.6071
57.3348	2236.816	19.49945
57.38891	2241.904	25.26739
57.44302	2234.151	20.78157
57.49712	2239.758	23.37798
57.55123	2230.67	26.27588
57.60534	2233.063	22.57987
57.65945	2228.011	24.25626
57.71355	2228.72	22.76544
57.76766	2223.402	23.31219
57.82177	2227.65	21.21091
57.87588	2216.275	24.49582
57.92999	2222.206	23.6359
57.98409	2213.892	18.38676
58.0382	2215.271	20.87669
58.09231	2210.655	24.74004
58.14642	2209.954	23.5648
58.20052	2202.016	24.87553
58.25463	2206.362	20.36308
58.30874	2200.516	25.262
58.36285	2197.857	27.28434
58.41695	2194.563	21.73495
58.47106	2197.723	17.67851
58.52517	2195.074	20.73395
58.57928	2192.842	21.19213
58.63338	2189.139	22.92527
58.68749	2187.876	23.74716
58.7416	2184.484	24.96355
58.7957	2183.55	22.49551
58.84981	2182.402	20.61709
58.90392	2182.052	21.46198
58.95803	2179.364	22.03372
59.01213	2177.764	22.22693
59.06624	2176.044	21.21603
59.12035	2174.906	19.30719
59.17446	2172.143	20.29508
59.22857	2167.749	21.54932
59.28267	2165.684	21.1709
59.33678	2163.327	23.19731
59.39089	2162.804	23.65948
59.445	2160.461	19.7432
59.4991	2160.011	20.25725
59.55321	2154.241	21.99461
59.60732	2155.52	22.48043
59.66143	2149.339	24.24217
59.71553	2149.037	22.98009
59.76964	2146.139	24.13177
59.82375	2149.231	20.88314
59.87786	2141.739	20.54865
59.93196	2144.484	19.92135
59.98607	2138.803	19.90049
60.04018	2139.075	15.10039
60.09429	2132.182	18.26909
60.1484	2133.694	18.08061
60.2025	2129.855	18.7649
60.25661	2132.803	20.00043
60.31072	2126.421	23.71087
60.36483	2128.742	24.33147
60.41893	2117.973	20.41589
60.47304	2122.629	21.78365
60.52715	2116.435	23.19022
60.58126	2118.798	20.22089
60.63536	2115.962	18.47078
60.68947	2121.938	13.71802
60.74358	2110.815	17.96208
60.79769	2112.564	17.13136
60.8518	2102.168	20.53676
60.9059	2104.981	16.48451
60.96001	2099.863	19.77649
61.01412	2100.019	19.8049
61.06823	2094.362	19.78434
61.12233	2097.851	22.12993
61.17644	2088.922	20.35874
61.23055	2092.806	22.11611
61.28466	2091.681	23.0092
61.33876	2093.675	25.4378
61.39287	2084.49	20.34799
61.44698	2088.779	17.92681
61.50109	2082.149	21.4373
61.55519	2084.174	25.67428
61.6093	2077.097	20.40491
61.66341	2082.591	22.22037
61.71752	2072.136	22.50261
61.77163	2077.829	21.23074
61.82573	2068.753	17.48264
61.87984	2071.507	18.03904
61.93395	2066.993	22.47762
61.98806	2068.948	18.04737
62.04216	2059.896	25.93956
62.09627	2063.624	21.87379
62.15038	2060.22	22.84174
62.20448	2062.193	20.81686
62.25859	2053.525	19.79683
62.3127	2056.505	18.10759
62.36681	2049.553	19.62849
62.42091	2053.148	20.12129
62.47502	2047.278	23.30781
62.52913	2049.948	21.00114
62.58324	2049.515	18.86979
62.63734	2045.219	20.8351
62.69145	2037.639	16.68181
62.74556	2038.906	21.04506
62.79967	2034.532	22.03884
62.85378	2035.793	20.24681
62.90788	2033.229	20.35037
62.96199	2032.156	19.53473
63.0161	2028.661	19.33062
63.07021	2029.262	20.93439
63.12431	2027.607	20.69483
63.17842	2025.502	20.74987
63.23253	2026.363	23.74465
63.28664	2025.087	22.33366
63.34074	2023.492	19.52326
63.39485	2017.159	19.14005
63.44896	2019.023	18.63501
63.50307	2016.961	18.16885
63.55717	2017.226	17.3025
63.61128	2010.693	21.2803
63.66539	2014.944	24.03206
63.7195	2005.66	19.56082
63.77361	2009.988	19.16137
63.82771	2003.631	19.86654
63.88182	2006.464	17.42013
63.93593	2001.081	18.38628
63.99004	2006.629	23.00153
64.04414	1999.321	20.91271
64.09825	2004.938	21.2255
64.15236	1994.196	23.24726
64.20647	2001.402	20.65299
64.26057	1991.246	22.74589
64.31468	1999.369	25.25939
64.36879	1992.098	21.10452
64.4229	1997.121	19.36522
64.47701	1986.137	20.96745
64.53111	1990.352	19.36411
64.58522	1985.179	19.41665
64.63933	1989.285	17.28813
64.69344	1981.51	17.24286
64.74754	1986.919	15.41738
64.80165	1981.458	20.01077
64.85576	1983.572	16.48629
64.90987	1975.468	18.15984
64.96397	1979.335	17.94048
65.01808	1973.46	22.92218
65.07219	1978.86	20.82914
65.1263	1967.281	24.52217
65.1804	1973.638	21.05048
65.23451	1969.375	20.98813
65.28862	1971.976	19.44982
65.34273	1968.64	17.57754
65.39684	1969.55	20.20144
65.45094	1965.661	19.61867
65.50505	1968.355	18.5077
65.55916	1968.54	17.89944
65.61327	1969.841	18.19899
65.66737	1971.354	19.37896
65.72148	1967.875	16.16467
65.77559	1970.55	16.05664
65.8297	1965.647	20.30713
65.8838	1970.371	22.88947
65.93791	1966.624	18.85474
65.99202	1970.571	12.80126
66.04613	1966.734	24.5344
66.10023	1970.659	23.16586
66.15434	1968.238	24.0413
66.20845	1973.079	20.57493
66.26256	1971.026	21.6646
66.31667	1976.354	19.62597
66.37077	1968.056	19.74407
66.42488	1972.478	18.30028
66.47899	1969.775	22.70318
66.5331	1975.416	19.82512
66.5872	1970.843	21.9343
66.64131	1975.84	21.75535
66.69542	1973.379	22.82776
66.74953	1982.662	18.48757
66.80363	1974.28	19.46097
66.85774	1984.462	22.15032
66.91185	1982.297	20.08302
66.96596	1988.465	24.52579
67.02007	1983.727	28.0898
67.07417	1992.165	23.44399
67.12828	1990.328	24.59567
67.18239	1999.392	22.43029
67.2365	1996.143	24.4847
67.2906	1999.197	23.92741
67.34471	1999.192	25.57936
67.39882	2005.328	25.98125
67.45293	2009.111	24.00179
67.50703	2011.69	23.81173
67.56113	2019.114	26.06286
67.61524	2018.453	26.81055
67.66935	2025.658	26.09207
67.72346	2023.869	24.37445
67.77757	2029.271	25.0283
67.83167	2033.195	27.87256
67.88578	2043.224	29.1806
67.93989	2047.559	28.70921
67.994	2058.851	25.54019
68.0481	2053.564	23.83234
68.10221	2067.049	24.16682
68.15632	2064.441	26.37005
68.21043	2078.73	27.97128
68.26453	2077.431	28.65286
68.31864	2088.878	29.38458
68.37275	2089.226	29.13311
68.42686	2101.207	28.5245
68.48096	2103.131	28.62509
68.53507	2117.539	29.52779
68.58918	2112.365	27.7724
68.64329	2129.86	25.18565
68.6974	2134.45	31.29672
68.7515	2150.135	26.3843
68.80561	2150.469	32.53418
68.85972	2166.988	27.89282
68.91383	2173.44	26.59265
68.96793	2182.217	28.7982
69.02204	2192.345	29.06194
69.07615	2206.701	29.72166
69.13026	2216.371	31.43601
69.18436	2226.498	31.62311
69.23847	2239.002	31.09909
69.29258	2250.062	29.36692
69.34669	2262.414	29.05053
69.40079	2270.989	33.45495
69.4549	2288.164	31.03064
69.50901	2298.777	35.04792
69.56312	2314.805	36.37547
69.61723	2325.174	37.7868
69.67133	2347.286	39.40995
69.72544	2354.188	37.06855
69.77955	2374.697	36.14099
69.83366	2380.421	41.51992
69.88776	2403.819	35.19373
69.94187	2416.521	37.89545
69.99598	2439.6	32.12689
70.05009	2446.72	41.17279
70.10419	2469.651	39.30037
70.1583	2481.153	42.42901
70.21241	2507.172	43.13356
70.26652	2517.204	39.06855
70.32063	2542.367	34.69946
70.37473	2553.532	41.81718
70.42884	2578.296	43.88153
70.48295	2596.623	47.71175
70.53706	2623.115	48.35949
70.59116	2634.544	48.69516
70.64527	2662.729	42.43211
70.69938	2674.89	53.19952
70.75349	2707.053	49.36055
70.80759	2718.544	47.92577
70.8617	2749.383	45.75
70.91581	2766.034	46.10278
70.96992	2793.747	46.66212
71.02402	2811.72	46.33424
71.07813	2839.724	46.8058
71.13224	2862.224	46.42426
71.18635	2887.295	43.5626
71.24046	2914.052	43.46558
71.29456	2937.691	49.27824
71.34867	2969.674	51.59139
71.40278	2986.716	48.82457
71.45689	3019.025	49.55414
71.51099	3041.773	53.54401
71.5651	3073.985	50.59641
71.61921	3087.853	51.15521
71.67332	3123.363	46.07144
71.72742	3141.729	51.1165
71.78153	3178.906	51.06201
71.83564	3199.743	51.41636
71.88975	3237.806	47.27827
71.94386	3254.169	52.71593
71.99796	3288.688	52.67588
72.05207	3306.318	55.08577
72.10618	3347.532	54.10647
72.16029	3361.651	50.14146
72.21439	3406.414	48.42341
72.2685	3425.639	55.2842
72.32261	3462.343	56.61639
72.37672	3482.71	57.84684
72.43082	3526.316	52.70525
72.48493	3539.641	49.83131
72.53904	3576.343	51.26949
72.59315	3593.141	56.85471
72.64725	3623.915	57.07472
72.70136	3645.578	53.49981
72.75547	3673.782	54.08786
72.80958	3694.627	53.34295
72.86369	3720.757	50.79739
72.91779	3741.732	52.03995
72.9719	3762.899	52.65792
73.02601	3787.261	51.98415
73.08012	3802.66	49.68822
73.13422	3830.351	47.30628
73.18833	3831.364	51.77572
73.24244	3861.614	49.36347
73.29655	3862.533	50.94271
73.35065	3891.175	46.02504
73.40476	3893.346	51.63605
73.45887	3914.579	50.2769
73.51298	3921.663	48.55651
73.56709	3942.647	44.02845
73.62119	3945.107	48.79691
73.6753	3965.896	46.89745
73.72941	3965.801	39.67472
73.78352	3984.244	43.31506
73.83762	3985.18	39.1115
73.89173	4006.966	45.57006
73.94584	3999.665	50.49637
73.99995	4018.518	47.73355
74.05405	4004.449	51.62381
74.10816	4030.524	43.46349
74.16227	4022.34	48.12992
74.21638	4042.834	46.30948
74.27048	4037.208	47.31775
74.32459	4056.996	43.30768
74.3787	4044.273	50.60025
74.43281	4071.045	49.99561
74.48692	4059.604	44.52011
74.54102	4081.59	47.4705
74.59512	4066.845	45.25964
74.64923	4089.341	43.65718
74.70334	4084.601	48.47192
74.75745	4097.082	46.2187
74.81155	4101.305	42.95232
74.86566	4111.849	43.66603
74.91977	4114.367	44.46577
74.97388	4112.627	45.31181
75.02798	4118.549	49.00366
75.08209	4119.786	47.31536
75.1362	4136.917	39.64695
75.19031	4132.801	44.51379
75.24442	4144.434	44.6213
75.29852	4133.164	47.74624
75.35263	4151.452	45.86526
75.40674	4141.089	45.71404
75.46085	4156.68	44.41347
75.51495	4144.122	43.9307
75.56906	4164.039	37.78273
75.62317	4161.989	44.85972
75.67728	4181.013	46.43707
75.73138	4162.806	47.72198
75.78549	4183.784	47.8152
75.8396	4167.244	51.55206
75.89371	4191.216	48.35297
75.94781	4177.288	45.73402
76.00192	4197.734	41.52367
76.05603	4180.361	52.16776
76.11014	4194.946	46.7545
76.16425	4180.048	51.1771
76.21835	4200.892	40.98858
76.27246	4191.876	49.15813
76.32657	4204.704	46.90672
76.38068	4191.557	55.71135
76.43478	4204.604	46.09634
76.48889	4196.534	43.19392
76.543	4213.005	46.48512
76.59711	4211.697	47.25156
76.65121	4213.047	47.01472
76.70532	4215.799	48.82511
76.75943	4219.972	47.51468
76.81354	4229.454	43.95598
76.86765	4222.788	44.0863
76.92175	4230.946	46.74805
76.97586	4228.223	50.91751
77.02997	4240.42	49.71125
77.08408	4228.754	48.9099
77.13818	4248.706	50.87008
77.19229	4234.823	45.70402
77.2464	4252.674	43.9072
77.30051	4234.441	48.83944
77.35461	4253.052	47.87335
77.40872	4245.529	46.55303
77.46283	4258.892	48.90273
77.51694	4243.575	47.52234
77.57104	4257.358	45.96407
77.62515	4247.992	48.27617
77.67926	4270.555	42.77477
77.73337	4246.457	46.65963
77.78748	4267.411	43.50439
77.84158	4248.324	50.27046
77.89569	4270.707	41.8665
77.9498	4247.248	38.19511
78.00391	4268.202	39.17897
78.05801	4248.994	53.35277
78.11212	4269.267	45.82283
78.16623	4254.694	49.74056
78.22034	4269.177	47.15168
78.27444	4262.181	47.51188
78.32855	4274.749	49.50192
78.38266	4265.396	54.99105
78.43677	4277.086	52.5025
78.49088	4270.839	51.68662
78.54498	4277.729	51.18084
78.59909	4279.392	48.96117
78.6532	4282.911	48.15591
78.70731	4291.082	49.77836
78.76141	4284.674	51.66896
78.81552	4287.04	49.78524
78.86963	4281.579	46.69651
78.92374	4299.272	44.01622
78.97784	4282.81	39.92401
79.03195	4303.886	49.71531
79.08606	4284.682	49.41145
79.14017	4301.428	49.72169
79.19427	4284.643	52.35838
79.24838	4301.829	42.78037
79.30249	4283.396	43.35079
79.3566	4300.545	42.72583
79.41071	4283.335	46.83855
79.46481	4301.962	44.46684
79.51892	4287.66	43.05875
79.57303	4303.172	41.38578
79.62714	4283.613	40.70222
79.68124	4302.313	37.21
79.73535	4288.513	36.93382
79.78946	4302.923	36.69567
79.84357	4287.999	31.3313
79.89767	4302.439	28.03619
79.95178	4292.409	42.13742
80.00589	4305.327	35.73663
80.06	4288.951	43.62123
80.11411	4308.807	36.74346
80.16821	4291.032	34.80974
80.22232	4310.482	33.29393
80.27643	4294.078	37.19672
80.33054	4311.862	36.32484
80.38464	4296.534	37.35035
80.43875	4315.703	34.5476
80.49286	4296.11	27.17295
80.54697	4314.634	28.55213
80.60107	4302.959	32.75546
80.65518	4322.429	32.53026
80.70929	4303.81	37.91401
80.7634	4325.497	35.62413
80.8175	4308.558	35.93973
80.87161	4328.108	32.77921
80.92572	4314.854	32.1067
80.97983	4329.022	35.0558
81.03394	4317.827	36.22245
81.08804	4332	31.88497
81.14215	4327.925	35.84297
81.19626	4337.833	35.1651
81.25037	4333.213	37.79084
81.30447	4343.351	39.38646
81.35858	4337.536	39.32831
81.41269	4344.144	36.4528
81.4668	4346.076	35.11479
81.5209	4348.283	37.66461
81.575	4349.261	42.53077
81.62911	4351.798	40.27814
81.68322	4359.465	37.95224
81.73733	4363.321	40.90556
81.79144	4373.939	37.82587
81.84554	4364.125	35.35247
81.89965	4369.436	32.93809
81.95376	4368.708	33.97807
82.00787	4381.185	36.38743
82.06197	4374.515	38.1224
82.11608	4390.396	37.11878
82.17019	4377.994	36.44829
82.2243	4389.867	33.17223
82.2784	4380.589	34.77422
82.33251	4394.673	36.744
82.38662	4386.405	37.98484
82.44073	4406.367	34.09604
82.49483	4392.718	36.75225
82.54894	4413.102	33.58313
82.60305	4397.453	40.34059
82.65716	4416.567	31.49646
82.71127	4405.811	32.64737
82.76537	4423.056	30.48117
82.81948	4403.392	33.91495
82.87359	4430	27.80684
82.9277	4411.499	35.01612
82.9818	4434.095	32.12826
83.03591	4412.792	32.40265
83.09002	4436.871	25.92805
83.14413	4421.002	32.68824
83.19823	4441.799	33.53478
83.25234	4419.974	38.74535
83.30645	4439.975	41.35135
83.36056	4429.995	36.50472
83.41467	4453.95	29.8408
83.46877	4435.929	33.14684
83.52288	4452.026	35.79459
83.57699	4436.823	38.72855
83.6311	4456.548	37.01
83.6852	4437.813	33.71932
83.73931	4457.337	32.40951
83.79342	4444.191	35.61954
83.84753	4465.782	30.34477
83.90163	4445.527	37.79305
83.95574	4465.667	33.30895
84.00985	4440.591	41.21251
84.06396	4471.52	30.398
84.11806	4450.419	29.61772
84.17217	4471.648	34.21711
84.22628	4454.384	36.25044
84.28039	4476.476	30.80945
84.3345	4443.354	29.13765
84.3886	4468.294	30.03692
84.44271	4450.94	35.88438
84.49682	4471.51	29.34199
84.55093	4459.045	41.68396
84.60503	4476.896	33.27745
84.65914	4450.565	33.5451
84.71325	4471.075	31.56758
84.76736	4460.395	37.86343
84.82146	4481.052	29.91375
84.87557	4458.728	31.54487
84.92968	4478.982	26.98123
84.98379	4461.65	26.7623
85.0379	4476.977	25.49169
85.092	4458.203	27.3824
85.14611	4470.343	27.18101
85.20022	4452.971	20.58219
85.25433	4470.626	17.57802
85.30843	4456.37	25.20655
85.36254	4468.972	23.16362
85.41665	4461.282	22.24765
85.47076	4462.129	26.45391
85.52486	4456.117	32.58825
85.57897	4466.641	29.28976
85.63308	4458.346	26.35229
85.68719	4459.399	28.72031
85.74129	4458.53	30.60901
85.7954	4464.614	27.74671
85.84951	4459.57	26.00309
85.90362	4459.015	27.85348
85.95773	4456.406	23.90829
86.01183	4450.218	22.23454
86.06594	4457.257	22.71827
86.12005	4450.27	18.21422
86.17416	4452.379	24.78718
86.22826	4435.438	27.38372
86.28237	4446.638	25.10782
86.33648	4433.112	32.07658
86.39059	4441.803	31.50359
86.44469	4429.143	28.67708
86.4988	4441.094	25.12183
86.55291	4423.557	28.86652
86.60702	4439.416	25.6831
86.66113	4415.921	26.66729
86.71523	4432.951	20.39735
86.76934	4411.046	21.92283
86.82345	4431.388	21.28068
86.87756	4404.188	26.1869
86.93166	4426.136	22.80467
86.98577	4401.293	22.00216
87.03988	4417.305	20.89985
87.09399	4392.202	25.65578
87.14809	4409.018	14.6782
87.2022	4387.431	28.11598
87.25631	4400.048	22.33585
87.31042	4380.997	24.68869
87.36452	4407.162	15.71941
87.41863	4377.31	20.17738
87.47274	4397.146	18.91419
87.52685	4367.141	19.33223
87.58096	4389.705	17.79319
87.63506	4363.301	16.43984
87.68917	4380.112	13.37267
87.74328	4354.945	18.93703
87.79739	4371.588	13.97088
87.85149	4347.122	16.15149
87.9056	4362.044	17.1907
87.95971	4340.436	24.11281
88.01382	4358.103	14.89805
88.06792	4326.952	17.70662
88.12203	4344.955	10.69806
88.17614	4317.966	17.0329
88.23025	4338.192	15.96309
88.28436	4314.704	15.9223
88.33846	4339.408	9.829488
88.39257	4302.444	22.19618
88.44668	4326.415	10.30536
88.50079	4297.888	12.74809
88.55489	4314.053	12.36077
88.60899	4292.794	18.84075
88.6631	4310.41	15.02427
88.71721	4290.41	14.85924
88.77132	4307.139	8.294117
88.82542	4279.146	14.62364
88.87953	4292.116	10.36109
88.93364	4269.55	23.0648
88.98775	4285.157	7.986946
89.04185	4260.342	17.11199
89.09596	4278.476	8.523617
89.15007	4255.094	17.00624
89.20418	4266.672	7.392882
89.25829	4243.739	7.552203
89.31239	4260.987	10.61722
89.3665	4240.624	12.99353
89.42061	4250.993	11.88411
89.47472	4230.373	9.716612
89.52882	4243.327	9.954957
89.58293	4225.808	10.07773
89.63704	4234.448	9.060565
89.69115	4229.912	10.04225
89.74525	4233.915	8.271383
89.79936	4222.376	9.774169
89.85347	4221.795	7.436321
89.90758	4215.233	6.840424
89.96169	4212.725	5.706667
90.01579	4207.412	4.688034
90.0699	4205.607	4.752409
90.12401	4207.362	5.94157
90.17812	4200.672	10.42554
90.23222	4192.335	10.5591
90.28633	4185.705	5.479983
90.34044	4188.46	5.946614
90.39455	4177.366	5.945522
90.44865	4176.543	3.976812
90.50276	4166.694	3.522546
90.55687	4174.812	1.358072
90.61098	4162.605	9.251043
90.66508	4171.885	8.920034
90.71919	4150.388	2.023675
90.7733	4166.376	1.568035
90.82741	4140.333	4.7821
90.88152	4152.633	4.919773
90.93562	4135.161	3.981333
90.98973	4149.121	3.499901
91.04384	4126.805	6.240739
91.09795	4144.107	0.7523129
91.15205	4113.668	5.197972
91.20616	4135.467	9.304509
91.26027	4107.262	5.154512
91.31438	4127.343	6.851167
91.36848	4097.628	5.915502
91.42259	4122.024	1.441034
91.4767	4092.803	2.896762
91.53081	4106.111	10.95885
91.58492	4077.24	5.081975
91.63902	4091.184	6.60476
91.69313	4065.647	5.495428
91.74724	4081.189	1.292408
91.80135	4058.75	11.6562
91.85545	4078.053	7.688308
91.90956	4051.337	3.845501
91.96367	4072.411	3.468465
92.01778	4043.602	5.523449
92.07188	4062.372	5.310723
92.12599	4031.484	1.600066
92.1801	4045.674	2.750751
92.23421	4016.116	8.316362
92.28831	4033.004	6.350993
92.34242	4010.288	4.481207
92.39653	4032.87	6.417577
92.45064	4004.477	4.706993
92.50475	4021.36	3.537398
92.55885	3989.389	5.247647
92.61296	4011.358	2.261051
92.66707	3982.65	5.434782
92.72118	4005.42	7.849038
92.77528	3975.958	1.803088
92.82939	3996.904	5.877419
92.8835	3966.883	3.965497
92.93761	3987	13.15626
92.99171	3959.04	2.82535
93.04582	3978.121	6.215526
93.09993	3945.956	3.922912
93.15404	3964.246	2.360066
93.20815	3938.336	7.631278
93.26225	3957.921	9.103312
93.31636	3930.934	5.5398
93.37047	3943.745	1.029247
93.42458	3922.159	4.615491
93.47868	3937.197	7.48017
93.53279	3904.81	4.878504
93.5869	3925	5.854863
93.64101	3904.542	9.675633
93.69511	3915.489	10.86031
93.74922	3896.469	6.997675
93.80333	3900.859	7.429615
93.85744	3887.248	2.604175
93.91154	3895.65	8.318597
93.96565	3875.791	5.981328
94.01976	3884.959	7.389212
94.07387	3871.412	11.24191
94.12798	3882.855	9.872354
94.18208	3850.342	5.034724
94.23619	3876.672	8.60404
94.2903	3853.007	15.38496
94.34441	3866.412	16.26797
94.39851	3846.233	7.761296
94.45262	3862.112	7.421638
94.50673	3849.617	10.3126
94.56084	3828.658	8.690628
94.61494	3846.773	8.253488
94.66905	3836.262	8.669115
94.72316	3819.49	9.390055
94.77727	3806.626	9.487439
94.83138	3800.472	9.626747
94.88548	3799.632	8.206181
94.93959	3814.935	9.42438
94.9937	3829.337	15.96494
