T[Â°C]	330nm [counts / mm]	S.D.	First derivative	S.D. of first derivative
20.00045	4951.647		-67.27356	
20.05456	4947.734		-67.27158	
20.10866	4943.822		-67.26939	
20.16277	4939.911		-67.26698	
20.21688	4936.002		-67.26435	
20.27098	4932.096		-67.26148	
20.32509	4928.191		-67.25836	
20.3792	4924.29		-67.255	
20.4333	4920.394		-67.25136	
20.48741	4916.502		-67.24744	
20.54152	4912.619		-67.24323	
20.59562	4908.744		-67.23873	
20.64973	4904.879		-67.23392	
20.70384	4901.025		-67.22878	
20.75795	4897.183		-67.22331	
20.81205	4893.351		-67.21751	
20.86616	4889.526		-67.21134	
20.92027	4885.704		-67.20483	
20.97437	4882.048		-67.19793	
21.02848	4878.423		-67.19066	
21.08259	4874.825		-67.183	
21.13669	4871.246		-67.17494	
21.1908	4867.679		-67.16647	
21.24491	4864.122		-67.1576	
21.29901	4860.568		-67.14832	
21.35312	4857.012		-67.13862	
21.40723	4853.463		-67.1285	
21.46133	4849.928		-67.11797	
21.51544	4846.425		-67.10702	
21.56955	4842.958		-67.09566	
21.62365	4839.515		-67.08389	
21.67776	4836.08		-67.07173	
21.73187	4832.629		-67.0592	
21.78597	4829.133		-67.04633	
21.84008	4825.57		-67.03314	
21.89419	4821.942		-67.01968	
21.9483	4818.256		-67.00602	
22.0024	4814.524		-66.99222	
22.05651	4810.756		-66.97837	
22.11061	4806.959		-66.96456	
22.16472	4803.133		-66.95092	
22.21883	4799.277		-66.93756	
22.27294	4795.398		-66.92461	
22.32704	4791.506		-66.91218	
22.38115	4787.619		-66.90038	
22.43526	4783.757		-66.88926	
22.48936	4779.932		-66.87882	
22.54347	4776.152		-66.86897	
22.59758	4772.417		-66.85956	
22.65168	4768.719		-66.84639	
22.70579	4765.056		-66.83393	
22.7599	4761.428		-66.82194	
22.814	4757.831		-66.81013	
22.86811	4754.25		-66.79816	
22.92222	4750.668		-66.78568	
22.97632	4747.082		-66.77225	
23.03043	4743.493		-66.75744	
23.08454	4739.907		-66.74086	
23.13865	4736.336		-66.72213	
23.19275	4732.789		-66.70094	
23.24686	4729.27		-66.67698	
23.30096	4725.78		-66.65001	
23.35507	4722.324		-66.6198	
23.40918	4718.891		-66.58619	
23.46329	4715.475		-66.54907	
23.51739	4712.067		-66.50844	
23.5715	4708.651		-66.46434	
23.62561	4705.21		-66.41694	
23.67971	4701.734		-66.3665	
23.73382	4698.217		-66.31339	
23.78793	4694.665		-66.25805	
23.84203	4691.092		-66.20096	
23.89614	4687.511		-66.14264	
23.95025	4683.93		-66.08365	
24.00435	4680.351		-66.02461	
24.05846	4676.773		-65.96614	
24.11257	4673.195		-65.90886	
24.16667	4669.617		-65.85339	
24.22078	4666.034		-65.80025	
24.27489	4662.432		-65.74998	
24.32899	4658.8		-65.70298	
24.3831	4655.139		-65.65964	
24.43721	4651.451		-65.62029	
24.49131	4647.744		-65.58524	
24.54542	4644.026		-65.55472	
24.59953	4640.306		-65.52887	
24.65364	4636.599		-65.50773	
24.70774	4632.919		-65.49126	
24.76185	4629.271		-65.47935	
24.81596	4625.656		-65.47184	
24.87006	4622.073		-65.46846	
24.92417	4618.52		-65.46889	
24.97828	4614.996		-65.47272	
25.03238	4611.495		-65.47952	
25.08649	4608.014		-65.48877	
25.1406	4604.55		-65.49995	
25.1947	4601.093		-65.51257	
25.24881	4597.627		-65.5261	
25.30292	4594.141		-65.54008	
25.35702	4590.635		-65.55405	
25.41113	4587.126		-65.56757	
25.46524	4583.643		-65.5802	
25.51934	4580.217		-65.59159	
25.57345	4576.862		-65.60142	
25.62756	4573.571		-65.60941	
25.68166	4570.315		-65.61533	
25.73577	4567.059		-65.61894	
25.78988	4563.772		-65.62006	
25.84398	4560.429		-65.61851	
25.89809	4557.016		-65.61416	
25.9522	4553.534		-65.60696	
26.00631	4549.991		-65.59687	
26.06041	4546.401		-65.58389	
26.11452	4542.775		-65.56802	
26.16862	4539.126		-65.54919	
26.22273	4535.461		-65.52733	
26.27684	4531.783		-65.50237	
26.33095	4528.1		-65.47425	
26.38505	4524.422		-65.44299	
26.43916	4520.753		-65.40868	
26.49327	4517.092		-65.37141	
26.54737	4513.441		-65.33136	
26.60148	4509.804		-65.28868	
26.65559	4506.181		-65.24353	
26.70969	4502.577		-65.19604	
26.7638	4498.993		-65.14632	
26.81791	4495.43		-65.09454	
26.87201	4491.885		-65.04089	
26.92612	4488.348		-64.98561	
26.98023	4484.802		-64.92903	
27.03433	4481.23		-64.87153	
27.08844	4477.628		-64.81344	
27.14255	4474.008		-64.75514	
27.19666	4470.389		-64.69696	
27.25076	4466.787		-64.6392	
27.30487	4463.202		-64.5821	
27.35897	4459.625		-64.52579	
27.41308	4456.046		-64.47038	
27.46719	4452.461		-64.41586	
27.5213	4448.872		-64.36215	
27.5754	4445.278		-64.30917	
27.62951	4441.685		-64.25676	
27.68362	4438.095		-64.20479	
27.73772	4434.51		-64.15309	
27.79183	4430.926		-64.10151	
27.84594	4427.341		-64.04991	
27.90004	4423.753		-63.99818	
27.95415	4420.164		-63.94627	
28.00826	4416.584		-63.89413	
28.06236	4413.027		-63.84181	
28.11647	4409.51		-63.78931	
28.17058	4406.046		-63.73667	
28.22468	4402.642		-63.68388	
28.27879	4399.307		-63.63095	
28.3329	4396.051		-63.57788	
28.387	4392.872		-63.52466	
28.44111	4389.757		-63.47125	
28.49522	4386.694		-63.41759	
28.54932	4383.66		-63.36359	
28.60343	4380.625		-63.30914	
28.65754	4377.563		-63.25409	
28.71165	4374.461		-63.19827	
28.76575	4371.313		-63.14156	
28.81986	4368.123		-63.08385	
28.87397	4364.905		-63.02518	
28.92807	4361.667		-62.96567	
28.98218	4358.41		-62.90556	
29.03629	4355.13		-62.84518	
29.09039	4351.823		-62.78487	
29.1445	4348.485		-62.72508	
29.19861	4345.116		-62.66626	
29.25271	4341.719		-62.60884	
29.30682	4338.296		-62.55324	
29.36093	4334.84		-62.49984	
29.41503	4331.34		-62.44889	
29.46914	4327.792		-62.40059	
29.52325	4324.2		-62.35498	
29.57735	4320.572		-62.31202	
29.63146	4316.921		-62.27157	
29.68557	4313.262		-62.23348	
29.73967	4309.607		-62.19751	
29.79378	4305.97		-62.16341	
29.84789	4302.369		-62.13094	
29.90199	4298.819		-62.09988	
29.9561	4295.329		-62.07006	
30.01021	4291.906		-62.04139	
30.06432	4288.547		-62.01375	
30.11842	4285.239		-61.98704	
30.17253	4281.957		-61.96111	
30.22663	4278.679		-61.93579	
30.28074	4275.386		-61.91084	
30.33485	4272.07		-61.88602	
30.38896	4268.722		-61.86105	
30.44306	4265.344		-61.83562	
30.49717	4261.942		-61.8094	
30.55128	4258.524		-61.78201	
30.60538	4255.098		-61.75311	
30.65949	4251.679		-61.72233	
30.7136	4248.278		-61.68932	
30.7677	4244.9		-61.65376	
30.82181	4241.553		-61.61539	
30.87592	4238.245		-61.57403	
30.93002	4234.975		-61.52957	
30.98413	4231.735		-61.48197	
31.03824	4228.514		-61.43126	
31.09234	4225.302		-61.37759	
31.14645	4222.08		-61.32119	
31.20056	4218.836		-61.2624	
31.25467	4215.575		-61.20163	
31.30877	4212.3		-61.1394	
31.36288	4209.013		-61.07631	
31.41698	4205.712		-61.01299	
31.47109	4202.399		-60.95012	
31.5252	4199.084		-60.88834	
31.57931	4195.783		-60.8283	
31.63341	4192.511		-60.77063	
31.68752	4189.28		-60.71593	
31.74163	4186.09		-60.66473	
31.79573	4182.935		-60.61751	
31.84984	4179.804		-60.57464	
31.90395	4176.684		-60.5364	
31.95805	4173.559		-60.50295	
32.01216	4170.418		-60.47435	
32.06627	4167.254		-60.45053	
32.12037	4164.063		-60.43137	
32.17448	4160.843		-60.41666	
32.22859	4157.591		-60.40621	
32.2827	4154.312		-60.39981	
32.3368	4151.01		-60.39727	
32.39091	4147.691		-60.39844	
32.44501	4144.353		-60.40315	
32.49912	4140.998		-60.41125	
32.55323	4137.639		-60.42257	
32.60733	4134.292		-60.43693	
32.66144	4130.972		-60.45409	
32.71555	4127.683		-60.47372	
32.76966	4124.426		-60.49542	
32.82376	4121.191		-60.5187	
32.87787	4117.969		-60.54299	
32.93198	4114.745		-60.56763	
32.98608	4111.514		-60.59192	
33.04019	4108.274		-60.61513	
33.0943	4105.023		-60.63657	
33.1484	4101.752		-60.65557	
33.20251	4098.466		-60.67154	
33.25661	4095.174		-60.68392	
33.31072	4091.886		-60.6923	
33.36483	4088.614		-60.69635	
33.41894	4085.366		-60.69587	
33.47305	4082.148		-60.69076	
33.52715	4078.961		-60.68106	
33.58126	4075.798		-60.66692	
33.63536	4072.646		-60.64859	
33.68947	4069.489		-60.62643	
33.74358	4066.32		-60.60083	
33.79768	4063.132		-60.57218	
33.85179	4059.918		-60.54085	
33.9059	4056.667		-60.50714	
33.96001	4053.364		-60.4713	
34.01411	4049.997		-60.43351	
34.06822	4046.562		-60.39389	
34.12233	4043.061		-60.35257	
34.17643	4039.501		-60.30968	
34.23054	4035.903		-60.2654	
34.28465	4032.296		-60.21992	
34.33875	4028.717		-60.17348	
34.39286	4025.189		-60.12637	
34.44697	4021.717		-60.07889	
34.50107	4018.296		-60.03138	
34.55518	4014.916		-59.98416	
34.60929	4011.574		-59.93754	
34.66339	4008.266		-59.89178	
34.7175	4004.984		-59.84706	
34.77161	4001.714		-59.80351	
34.82571	3998.439		-59.76116	
34.87982	3995.151		-59.71999	
34.93393	3991.854		-59.6799	
34.98803	3988.558		-59.64074	
35.04214	3985.275		-59.6023	
35.09625	3982.021		-59.56438	
35.15036	3978.81		-59.52676	
35.20446	3975.66		-59.48923	
35.25857	3972.575		-59.45152	
35.31268	3969.559		-59.41341	
35.36678	3966.604		-59.37463	
35.42089	3963.691		-59.335	
35.47499	3960.802		-59.2943	
35.5291	3957.913		-59.25238	
35.58321	3954.996		-59.20918	
35.63732	3952.023		-59.16468	
35.69142	3948.979		-59.11893	
35.74553	3945.86		-59.07201	
35.79964	3942.684		-59.02407	
35.85374	3939.468		-58.97523	
35.90785	3936.237		-58.92563	
35.96196	3933.016		-58.87538	
36.01606	3929.827		-58.82459	
36.07017	3926.688		-58.77335	
36.12428	3923.604		-58.72173	
36.17838	3920.559		-58.66977	
36.23249	3917.53		-58.6175	
36.2866	3914.496		-58.56488	
36.34071	3911.438		-58.51192	
36.39481	3908.349		-58.45856	
36.44892	3905.22		-58.40472	
36.50303	3902.048		-58.35033	
36.55713	3898.829		-58.2953	
36.61124	3895.572		-58.23951	
36.66534	3892.292		-58.18287	
36.71945	3889.005		-58.12532	
36.77356	3885.713		-58.06681	
36.82767	3882.423		-58.00736	
36.88177	3879.149		-57.947	
36.93588	3875.901		-57.8858	
36.98999	3872.683		-57.82384	
37.04409	3869.491		-57.76118	
37.0982	3866.312		-57.69792	
37.15231	3863.137		-57.6341	
37.20641	3859.956		-57.56978	
37.26052	3856.765		-57.50497	
37.31463	3853.564		-57.43963	
37.36873	3850.353		-57.37368	
37.42284	3847.131		-57.307	
37.47695	3843.906		-57.23952	
37.53106	3840.685		-57.17116	
37.58516	3837.474		-57.10191	
37.63927	3834.275		-57.03176	
37.69337	3831.088		-56.96081	
37.74748	3827.914		-56.8892	
37.80159	3824.751		-56.81715	
37.85569	3821.593		-56.74493	
37.9098	3818.433		-56.67285	
37.96391	3815.27		-56.60126	
38.01802	3812.108		-56.53049	
38.07212	3808.958		-56.46083	
38.12623	3805.828		-56.39253	
38.18034	3802.716		-56.32581	
38.23444	3799.622		-56.26086	
38.28855	3796.548		-56.19783	
38.34266	3793.5		-56.13687	
38.39676	3790.49		-56.07815	
38.45087	3787.53		-56.02182	
38.50498	3784.625		-55.96803	
38.55908	3781.777		-55.91694	
38.61319	3778.989		-55.86872	
38.6673	3776.261		-55.82357	
38.72141	3773.581		-55.78165	
38.77551	3770.931		-55.74318	
38.82962	3768.287		-55.7083	
38.88372	3765.625		-55.67721	
38.93783	3762.927		-55.65006	
38.99194	3760.179		-55.62695	
39.04604	3757.372		-55.60796	
39.10015	3754.507		-55.59315	
39.15426	3751.591		-55.58249	
39.20837	3748.638		-55.57594	
39.26247	3745.666		-55.57329	
39.31658	3742.684		-55.57431	
39.37069	3739.701		-55.57869	
39.42479	3736.721		-55.58608	
39.4789	3733.746		-55.59613	
39.533	3730.774		-55.60844	
39.58711	3727.804		-55.62265	
39.64122	3724.825		-55.63837	
39.69533	3721.828		-55.65524	
39.74943	3718.808		-55.67294	
39.80354	3715.767		-55.69114	
39.85765	3712.71		-55.70951	
39.91175	3709.643		-55.72771	
39.96586	3706.568		-55.74533	
40.01997	3703.493		-55.76191	
40.07407	3700.429		-55.77698	
40.12818	3697.387		-55.79001	
40.18229	3694.365		-55.80048	
40.23639	3691.355		-55.80788	
40.2905	3688.347		-55.81173	
40.34461	3685.33		-55.81161	
40.39872	3682.298		-55.80717	
40.45282	3679.244		-55.79813	
40.50693	3676.16		-55.78427	
40.56104	3673.044		-55.76546	
40.61514	3669.893		-55.74165	
40.66925	3666.714		-55.71284	
40.72335	3663.52		-55.6791	
40.77746	3660.321		-55.64051	
40.83157	3657.124		-55.59721	
40.88568	3653.926		-55.5494	
40.93978	3650.722		-55.49736	
40.99389	3647.505		-55.44138	
41.048	3644.273		-55.38179	
41.1021	3641.022		-55.31894	
41.15621	3637.751		-55.25317	
41.21032	3634.463		-55.18478	
41.26442	3631.176		-55.11406	
41.31853	3627.907		-55.04126	
41.37264	3624.677		-54.96662	
41.42674	3621.505		-54.89037	
41.48085	3618.401		-54.81274	
41.53496	3615.37		-54.73402	
41.58907	3612.408		-54.6545	
41.64317	3609.504		-54.5745	
41.69728	3606.646		-54.49434	
41.75138	3603.818		-54.41429	
41.80549	3601.013		-54.33461	
41.8596	3598.223		-54.25549	
41.9137	3595.437		-54.17709	
41.96781	3592.643		-54.09958	
42.02192	3589.832		-54.02311	
42.07603	3587.009		-53.94786	
42.13013	3584.18		-53.87403	
42.18424	3581.361		-53.80186	
42.23835	3578.565		-53.73154	
42.29245	3575.802		-53.66332	
42.34656	3573.079		-53.59739	
42.40067	3570.399		-53.53389	
42.45477	3567.759		-53.47295	
42.50888	3565.156		-53.41462	
42.56299	3562.582		-53.35891	
42.61709	3560.018		-53.30581	
42.6712	3557.445		-53.25531	
42.72531	3554.847		-53.20744	
42.77942	3552.207		-53.16227	
42.83352	3549.513		-53.11991	
42.88763	3546.757		-53.08048	
42.94173	3543.945		-53.04417	
42.99584	3541.097		-53.01114	
43.04995	3538.23		-52.98154	
43.10405	3535.358		-52.95551	
43.15816	3532.489		-52.93314	
43.21227	3529.624		-52.91444	
43.26638	3526.759		-52.89936	
43.32048	3523.889		-52.88777	
43.37459	3521.017		-52.87941	
43.4287	3518.147		-52.87399	
43.4828	3515.281		-52.87113	
43.53691	3512.416		-52.87043	
43.59101	3509.545		-52.87146	
43.64512	3506.659		-52.87372	
43.69923	3503.751		-52.87665	
43.75334	3500.817		-52.87966	
43.80744	3497.863		-52.88218	
43.86155	3494.891		-52.88366	
43.91566	3491.905		-52.88364	
43.96976	3488.907		-52.88172	
44.02387	3485.899		-52.87761	
44.07798	3482.88		-52.87109	
44.13208	3479.85		-52.86197	
44.18619	3476.823		-52.85011	
44.2403	3473.815		-52.83538	
44.2944	3470.841		-52.8177	
44.34851	3467.904		-52.79698	
44.40262	3464.998		-52.77312	
44.45673	3462.11		-52.74602	
44.51083	3459.224		-52.71554	
44.56494	3456.316		-52.68155	
44.61905	3453.371		-52.64391	
44.67315	3450.384		-52.60255	
44.72726	3447.364		-52.55741	
44.78136	3444.325		-52.5085	
44.83547	3441.283		-52.45589	
44.88958	3438.251		-52.39971	
44.94369	3435.249		-52.34021	
44.99779	3432.293		-52.27769	
45.0519	3429.391		-52.2125	
45.10601	3426.55		-52.14501	
45.16011	3423.762		-52.07561	
45.21422	3421.016		-52.00466	
45.26833	3418.294		-51.93247	
45.32243	3415.574		-51.85929	
45.37654	3412.842		-51.78532	
45.43065	3410.093		-51.71067	
45.48475	3407.328		-51.6354	
45.53886	3404.554		-51.55954	
45.59297	3401.782		-51.48309	
45.64708	3399.023		-51.406	
45.70118	3396.285		-51.32821	
45.75529	3393.574		-51.24971	
45.80939	3390.898		-51.17051	
45.8635	3388.267		-51.0907	
45.91761	3385.688		-51.01043	
45.97171	3383.158		-50.9299	
46.02582	3380.655		-50.84938	
46.07993	3378.148		-50.76915	
46.13404	3375.612		-50.68948	
46.18814	3373.029		-50.61065	
46.24225	3370.39		-50.53294	
46.29636	3367.697		-50.45665	
46.35046	3364.957		-50.3821	
46.40457	3362.189		-50.30956	
46.45868	3359.415		-50.23933	
46.51278	3356.653		-50.17167	
46.56689	3353.918		-50.10681	
46.621	3351.22		-50.04493	
46.6751	3348.56		-49.98619	
46.72921	3345.932		-49.93076	
46.78332	3343.32		-49.87889	
46.83743	3340.701		-49.8308	
46.89153	3338.055		-49.78675	
46.94564	3335.373		-49.74695	
46.99974	3332.654		-49.71161	
47.05385	3329.903		-49.68085	
47.10796	3327.135		-49.65478	
47.16206	3324.361		-49.63342	
47.21617	3321.599		-49.61674	
47.27028	3318.852		-49.60471	
47.32439	3316.115		-49.59721	
47.37849	3313.383		-49.59409	
47.4326	3310.649		-49.59516	
47.48671	3307.904		-49.60017	
47.54081	3305.144		-49.60885	
47.59492	3302.376		-49.62086	
47.64902	3299.611		-49.63583	
47.70313	3296.86		-49.65333	
47.75724	3294.126		-49.67289	
47.81135	3291.416		-49.69402	
47.86545	3288.736		-49.71627	
47.91956	3286.086		-49.73917	
47.97367	3283.465		-49.76233	
48.02777	3280.863		-49.78539	
48.08188	3278.273		-49.80803	
48.13599	3275.684		-49.82995	
48.19009	3273.091		-49.85092	
48.2442	3270.495		-49.87072	
48.29831	3267.891		-49.88917	
48.35241	3265.28		-49.90611	
48.40652	3262.663		-49.92139	
48.46063	3260.04		-49.93488	
48.51474	3257.411		-49.94646	
48.56884	3254.776		-49.95599	
48.62295	3252.138		-49.96338	
48.67706	3249.51		-49.96859	
48.73116	3246.899		-49.97165	
48.78527	3244.303		-49.97265	
48.83937	3241.712		-49.97171	
48.89348	3239.115		-49.96891	
48.94759	3236.497		-49.96429	
49.0017	3233.838		-49.9579	
49.0558	3231.124		-49.94975	
49.10991	3228.351		-49.93987	
49.16402	3225.525		-49.92834	
49.21812	3222.656		-49.9153	
49.27223	3219.754		-49.90096	
49.32634	3216.838		-49.88559	
49.38044	3213.932		-49.8695	
49.43455	3211.059		-49.853	
49.48866	3208.23		-49.83642	
49.54276	3205.447		-49.82006	
49.59687	3202.698		-49.80416	
49.65098	3199.971		-49.78891	
49.70509	3197.247		-49.77447	
49.75919	3194.516		-49.76091	
49.8133	3191.778		-49.74827	
49.8674	3189.032		-49.73645	
49.92151	3186.281		-49.72531	
49.97562	3183.531		-49.71463	
50.02972	3180.786		-49.70414	
50.08383	3178.047		-49.69358	
50.13794	3175.314		-49.68266	
50.19205	3172.59		-49.67112	
50.24615	3169.875		-49.65868	
50.30026	3167.17		-49.64508	
50.35437	3164.477		-49.63	
50.40847	3161.792		-49.61312	
50.46258	3159.115		-49.59408	
50.51669	3156.439		-49.57248	
50.57079	3153.758		-49.54792	
50.6249	3151.068		-49.51995	
50.67901	3148.367		-49.4882	
50.73311	3145.662		-49.4523	
50.78722	3142.958		-49.41191	
50.84133	3140.267		-49.36674	
50.89544	3137.602		-49.31657	
50.94954	3134.967		-49.26127	
51.00365	3132.364		-49.20075	
51.05775	3129.792		-49.13503	
51.11186	3127.253		-49.06422	
51.16597	3124.744		-48.98853	
51.22007	3122.252		-48.90829	
51.27418	3119.76		-48.82387	
51.32829	3117.251		-48.73577	
51.3824	3114.72		-48.64449	
51.4365	3112.169		-48.55057	
51.49061	3109.606		-48.45456	
51.54472	3107.039		-48.35703	
51.59882	3104.475		-48.25858	
51.65293	3101.916		-48.15984	
51.70704	3099.351		-48.06145	
51.76114	3096.767		-47.96404	
51.81525	3094.15		-47.86818	
51.86936	3091.488		-47.77436	
51.92346	3088.774		-47.68304	
51.97757	3086.016		-47.59459	
52.03168	3083.228		-47.50935	
52.08578	3080.425		-47.42761	
52.13989	3077.619		-47.34961	
52.194	3074.819		-47.27549	
52.2481	3072.027		-47.20539	
52.30221	3069.245		-47.13931	
52.35632	3066.479		-47.07723	
52.41042	3063.736		-47.01902	
52.46453	3061.027		-46.96447	
52.51864	3058.357		-46.91331	
52.57275	3055.734		-46.86518	
52.62685	3053.155		-46.8197	
52.68096	3050.617		-46.7764	
52.73507	3048.117		-46.73481	
52.78917	3045.649		-46.69446	
52.84328	3043.212		-46.6549	
52.89738	3040.809		-46.61574	
52.95149	3038.442		-46.57663	
53.0056	3036.117		-46.53731	
53.05971	3033.837		-46.49754	
53.11381	3031.602		-46.45719	
53.16792	3029.405		-46.41616	
53.22203	3027.234		-46.37441	
53.27613	3025.075		-46.33195	
53.33024	3022.907		-46.28886	
53.38435	3020.709		-46.24522	
53.43845	3018.46		-46.20114	
53.49256	3016.145		-46.15679	
53.54667	3013.762		-46.11232	
53.60077	3011.323		-46.06794	
53.65488	3008.842		-46.02388	
53.70899	3006.338		-45.98039	
53.7631	3003.826		-45.93776	
53.8172	3001.316		-45.89631	
53.87131	2998.804		-45.8564	
53.92542	2996.284		-45.81844	
53.97952	2993.76		-45.78286	
54.03363	2991.233		-45.75006	
54.08773	2988.703		-45.72042	
54.14184	2986.167		-45.69421	
54.19595	2983.618		-45.67165	
54.25006	2981.048		-45.65279	
54.30416	2978.456		-45.63758	
54.35827	2975.842		-45.62583	
54.41238	2973.217		-45.61724	
54.46648	2970.588		-45.61142	
54.52059	2967.971		-45.60794	
54.5747	2965.374		-45.60628	
54.6288	2962.803		-45.6059	
54.68291	2960.26		-45.60624	
54.73702	2957.75		-45.60669	
54.79112	2955.275		-45.60667	
54.84523	2952.833		-45.60558	
54.89934	2950.42		-45.60287	
54.95345	2948.025		-45.59806	
55.00755	2945.637		-45.5907	
55.06166	2943.248		-45.58043	
55.11576	2940.85		-45.56686	
55.16987	2938.435		-45.54971	
55.22398	2936.003		-45.52869	
55.27808	2933.555		-45.50359	
55.33219	2931.09		-45.47427	
55.3863	2928.61		-45.44066	
55.44041	2926.114		-45.40279	
55.49451	2923.603		-45.36076	
55.54862	2921.082		-45.31475	
55.60273	2918.557		-45.26499	
55.65683	2916.035		-45.21181	
55.71094	2913.519		-45.15558	
55.76505	2911.011		-45.09672	
55.81915	2908.512		-45.03566	
55.87326	2906.02		-44.9729	
55.92737	2903.534		-44.90889	
55.98147	2901.056		-44.84409	
56.03558	2898.594		-44.77895	
56.08969	2896.149		-44.71388	
56.1438	2893.717		-44.64927	
56.1979	2891.29		-44.58545	
56.25201	2888.863		-44.52264	
56.30611	2886.428		-44.46099	
56.36022	2883.979		-44.40058	
56.41433	2881.51		-44.34142	
56.46843	2879.03		-44.2835	
56.52254	2876.551		-44.22679	
56.57665	2874.087		-44.17126	
56.63076	2871.652		-44.11686	
56.68486	2869.254		-44.06355	
56.73897	2866.9		-44.01125	
56.79308	2864.589		-43.95987	
56.84718	2862.325		-43.90938	
56.90129	2860.104		-43.85974	
56.95539	2857.912		-43.81091	
57.0095	2855.734		-43.76291	
57.06361	2853.554		-43.71573	
57.11772	2851.358		-43.66938	
57.17182	2849.136		-43.62385	
57.22593	2846.882		-43.57912	
57.28004	2844.59		-43.53519	
57.33414	2842.264		-43.49203	
57.38825	2839.91		-43.44968	
57.44236	2837.535		-43.40818	
57.49646	2835.146		-43.36764	
57.55057	2832.757		-43.32821	
57.60468	2830.382		-43.29006	
57.65878	2828.038		-43.25339	
57.71289	2825.734		-43.21837	
57.767	2823.476		-43.18518	
57.82111	2821.26		-43.15392	
57.87521	2819.068		-43.12468	
57.92932	2816.869		-43.09748	
57.98343	2814.638		-43.07233	
58.03753	2812.355		-43.04922	
58.09164	2810.008		-43.02811	
58.14574	2807.597		-43.00895	
58.19985	2805.129		-42.99166	
58.25396	2802.624		-42.97612	
58.30807	2800.104		-42.96217	
58.36217	2797.597		-42.94962	
58.41628	2795.125		-42.93824	
58.47039	2792.707		-42.92778	
58.52449	2790.348		-42.91801	
58.5786	2788.048		-42.90867	
58.63271	2785.797		-42.89951	
58.68681	2783.586		-42.89027	
58.74092	2781.398		-42.8807	
58.79503	2779.217		-42.87054	
58.84913	2777.033		-42.85955	
58.90324	2774.832		-42.84748	
58.95735	2772.603		-42.83409	
59.01146	2770.333		-42.81918	
59.06556	2768.021		-42.8026	
59.11967	2765.669		-42.78424	
59.17377	2763.285		-42.76403	
59.22788	2760.877		-42.74189	
59.28199	2758.459		-42.71777	
59.33609	2756.051		-42.69168	
59.3902	2753.663		-42.66358	
59.44431	2751.304		-42.6335	
59.49842	2748.975		-42.60147	
59.55252	2746.667		-42.56752	
59.60663	2744.361		-42.53166	
59.66074	2742.042		-42.49389	
59.71484	2739.699		-42.45414	
59.76895	2737.333		-42.41236	
59.82306	2734.957		-42.36845	
59.87716	2732.578		-42.32232	
59.93127	2730.206		-42.27391	
59.98538	2727.85		-42.22317	
60.03948	2725.514		-42.17012	
60.09359	2723.197		-42.11479	
60.1477	2720.902		-42.05727	
60.20181	2718.627		-41.99763	
60.25591	2716.369		-41.93597	
60.31002	2714.12		-41.87232	
60.36412	2711.882		-41.80667	
60.41823	2709.652		-41.73897	
60.47234	2707.428		-41.66907	
60.52644	2705.203		-41.59679	
60.58055	2702.971		-41.52187	
60.63466	2700.729		-41.44408	
60.68877	2698.478		-41.36312	
60.74287	2696.215		-41.27874	
60.79698	2693.945		-41.19066	
60.85109	2691.676		-41.09867	
60.90519	2689.417		-41.00263	
60.9593	2687.176		-40.90247	
61.0134	2684.955		-40.7982	
61.06751	2682.755		-40.68988	
61.12162	2680.571		-40.57766	
61.17573	2678.39		-40.46169	
61.22983	2676.206		-40.34222	
61.28394	2674.008		-40.21949	
61.33805	2671.792		-40.09379	
61.39215	2669.559		-39.96541	
61.44626	2667.316		-39.83466	
61.50037	2665.077		-39.70177	
61.55447	2662.851		-39.56696	
61.60858	2660.644		-39.43035	
61.66269	2658.461		-39.29203	
61.71679	2656.304		-39.15202	
61.7709	2654.175		-39.01025	
61.82501	2652.073		-38.86662	
61.87912	2649.998		-38.72099	
61.93322	2647.941		-38.57323	
61.98733	2645.891		-38.42315	
62.04144	2643.83		-38.27056	
62.09554	2641.748		-38.11527	
62.14965	2639.642		-37.95705	
62.20375	2637.518		-37.79567	
62.25786	2635.383		-37.63081	
62.31197	2633.248		-37.46215	
62.36608	2631.122		-37.28931	
62.42018	2629.015		-37.11187	
62.47429	2626.933		-36.92929	
62.5284	2624.875		-36.74102	
62.5825	2622.839		-36.54646	
62.63661	2620.828		-36.34496	
62.69072	2618.843		-36.1358	
62.74482	2616.884		-35.91829	
62.79893	2614.951		-35.69169	
62.85304	2613.042		-35.45529	
62.90714	2611.16		-35.20841	
62.96125	2609.302		-34.95032	
63.01536	2607.469		-34.68036	
63.06947	2605.661		-34.39787	
63.12357	2603.869		-34.10221	
63.17768	2602.085		-33.79278	
63.23178	2600.303		-33.46905	
63.28589	2598.519		-33.13058	
63.34	2596.728		-32.77697	
63.3941	2594.926		-32.4079	
63.44821	2593.109		-32.02301	
63.50232	2591.277		-31.62199	
63.55643	2589.436		-31.20452	
63.61053	2587.591		-30.7703	
63.66464	2585.747		-30.3189	
63.71875	2583.91		-29.84997	
63.77285	2582.086		-29.36306	
63.82696	2580.281		-28.85774	
63.88107	2578.5		-28.33344	
63.93517	2576.751		-27.78959	
63.98928	2575.029		-27.22556	
64.04339	2573.325		-26.64055	
64.0975	2571.63		-26.03378	
64.1516	2569.934		-25.40429	
64.2057	2568.23		-24.75117	
64.25981	2566.517		-24.0732	
64.31392	2564.8		-23.36937	
64.36803	2563.097		-22.63859	
64.42213	2561.433		-21.87974	
64.47624	2559.835		-21.09171	
64.53035	2558.318		-20.27331	
64.58446	2556.891		-19.42343	
64.63857	2555.559		-18.54087	
64.69267	2554.319		-17.62461	
64.74677	2553.169		-16.67321	
64.80088	2552.104		-15.6856	
64.85499	2551.114		-14.66057	
64.9091	2550.185		-13.59686	
64.9632	2549.306		-12.49316	
65.01731	2548.466		-11.34805	
65.07142	2547.653		-10.1602	
65.12553	2546.859		-8.92817	
65.17963	2546.084		-7.650742	
65.23373	2545.335		-6.3262	
65.28784	2544.634		-4.953443	
65.34195	2544.004		-3.531283	
65.39606	2543.458		-2.058623	
65.45016	2542.999		-0.5344618	
65.50427	2542.633		1.042242	
65.55838	2542.365		2.672351	
65.61249	2542.198		4.356801	
65.66659	2542.128		6.096264	
65.7207	2542.148		7.892195	
65.7748	2542.244		9.745374	
65.82891	2542.402		11.65688	
65.88302	2542.61		13.62785	
65.93713	2542.863		15.65951	
65.99123	2543.17		17.75325	
66.04534	2543.546		19.91039	
66.09944	2544.006		22.13211	
66.15355	2544.566		24.42055	
66.20766	2545.243		26.77696	
66.26176	2546.05		29.20297	
66.31587	2546.99		31.70022	
66.36998	2548.071		34.27036	
66.42409	2549.299		36.91521	
66.4782	2550.682		39.63641	
66.5323	2552.223		42.43581	
66.5864	2553.923		45.31476	
66.64051	2555.78		48.27585	
66.69462	2557.794		51.32038	
66.74873	2559.965		54.45	
66.80283	2562.294		57.66629	
66.85694	2564.782		60.97077	
66.91105	2567.432		64.36494	
66.96516	2570.25		67.85025	
67.01926	2573.248		71.42808	
67.07336	2576.435		75.09919	
67.12747	2579.818		78.86586	
67.18158	2583.395		82.72868	
67.23569	2587.167		86.68865	
67.28979	2591.14		90.7467	
67.3439	2595.316		94.90362	
67.39801	2599.7		99.16015	
67.45212	2604.298		103.517	
67.50623	2609.116		107.9747	
67.56033	2614.157		112.5333	
67.61443	2619.426		117.1945	
67.66854	2624.934		121.9581	
67.72265	2630.688		126.8245	
67.77676	2636.691		131.7942	
67.83086	2642.937		136.8673	
67.88497	2649.423		142.044	
67.93908	2656.156		147.3245	
67.99319	2663.144		152.7088	
68.04729	2670.399		158.1959	
68.10139	2677.939		163.7874	
68.1555	2685.783		169.482	
68.20961	2693.959		175.2796	
68.26372	2702.5		181.1798	
68.31783	2711.433		187.1819	
68.37193	2720.77		193.2856	
68.42604	2730.514		199.4901	
68.48015	2740.664		205.7949	
68.53425	2751.211		212.1983	
68.58836	2762.148		218.7013	
68.64246	2773.462		225.3022	
68.69657	2785.145		232	
68.75068	2797.197		238.7935	
68.80479	2809.621		245.6815	
68.85889	2822.415		252.6626	
68.913	2835.584		259.7352	
68.9671	2849.139		266.8964	
69.02121	2863.101		274.1461	
69.07532	2877.485		281.481	
69.12943	2892.303		288.8984	
69.18353	2907.562		296.3953	
69.23764	2923.259		303.9683	
69.29175	2939.387		311.6136	
69.34586	2955.938		319.3273	
69.39996	2972.917		327.105	
69.45406	2990.335		334.9407	
69.50817	3008.195		342.8315	
69.56228	3026.487		350.7704	
69.61639	3045.204		358.7512	
69.67049	3064.35		366.767	
69.7246	3083.934		374.8102	
69.77871	3103.972		382.8725	
69.83282	3124.488		390.9448	
69.88692	3145.508		399.0173	
69.94102	3167.055		407.078	
69.99513	3189.156		415.1176	
70.04924	3211.809		423.1224	
70.10335	3235.006		431.0794	
70.15746	3258.73		438.9746	
70.21156	3282.969		446.7934	
70.26567	3307.716		454.5206	
70.31978	3332.967		462.1404	
70.37389	3358.715		469.6365	
70.42799	3384.947		476.9913	
70.48209	3411.663		484.1899	
70.5362	3438.859		491.2139	
70.59031	3466.539		498.0458	
70.64442	3494.714		504.6682	
70.69852	3523.399		511.0634	
70.75263	3552.602		517.2138	
70.80674	3582.318		523.1022	
70.86085	3612.529		528.7114	
70.91495	3643.218		534.0241	
70.96906	3674.39		539.0256	
71.02316	3706.048		543.6996	
71.07727	3738.2		548.0313	
71.13138	3770.848		552.0066	
71.18549	3803.984		555.6125	
71.23959	3837.588		558.8371	
71.2937	3871.638		561.6694	
71.34781	3906.122		564.0999	
71.40191	3941.026		566.1197	
71.45602	3976.358		567.7222	
71.51012	4012.112		568.9014	
71.56423	4048.278		569.6524	
71.61834	4084.839		569.9722	
71.67245	4121.764		569.8588	
71.72655	4159.016		569.3115	
71.78066	4196.546		568.3309	
71.83476	4234.296		566.9192	
71.88887	4272.22		565.0789	
71.94298	4310.249		562.8141	
71.99709	4348.314		560.13	
72.05119	4386.345		557.0325	
72.1053	4424.268		553.5286	
72.15941	4461.999		549.6261	
72.21352	4499.455		545.3335	
72.26762	4536.549		540.6603	
72.32172	4573.189		535.6172	
72.37583	4609.296		530.2134	
72.42994	4644.784		524.4611	
72.48405	4679.571		518.3718	
72.53815	4713.59		511.9579	
72.59226	4746.785		505.2321	
72.64637	4779.123		498.2075	
72.70048	4810.581		490.8977	
72.75459	4841.139		483.3164	
72.80869	4870.772		475.4792	
72.86279	4899.453		467.3983	
72.9169	4927.147		459.0899	
72.97101	4953.828		450.5692	
73.02512	4979.477		441.8518	
73.07922	5004.083		432.954	
73.13333	5027.638		423.892	
73.18744	5050.125		414.6826	
73.24155	5071.542		405.3429	
73.29565	5091.907		395.8914	
73.34975	5111.257		386.3431	
73.40386	5129.628		376.7173	
73.45797	5147.06		367.032	
73.51208	5163.597		357.3055	
73.56618	5179.289		347.5561	
73.62029	5194.188		337.8022	
73.6744	5208.347		328.0623	
73.72851	5221.813		318.3547	
73.78261	5234.629		308.6991	
73.83672	5246.837		299.1106	
73.89082	5258.454		289.6082	
73.94493	5269.49		280.2092	
73.99904	5279.963		270.93	
74.05315	5289.896		261.7867	
74.10725	5299.322		252.7945	
74.16136	5308.282		243.9678	
74.21546	5316.83		235.3215	
74.26957	5325.024		226.8654	
74.32368	5332.919		218.6124	
74.37778	5340.569		210.5725	
74.43189	5348.018		202.7548	
74.486	5355.299		195.167	
74.54011	5362.424		187.8155	
74.59422	5369.394		180.7054	
74.64832	5376.202		173.8404	
74.70242	5382.845		167.2239	
74.75653	5389.32		160.8551	
74.81064	5395.618		154.7349	
74.86475	5401.728		148.8622	
74.91885	5407.645		143.2344	
74.97296	5413.365		137.8484	
75.02707	5418.895		132.6997	
75.08118	5424.248		127.7832	
75.13528	5429.433		123.0925	
75.18938	5434.451		118.6215	
75.24349	5439.312		114.3612	
75.2976	5444.029		110.3041	
75.35171	5448.62		106.4415	
75.40582	5453.096		102.7646	
75.45992	5457.459		99.26388	
75.51403	5461.709		95.93002	
75.56814	5465.843		92.7534	
75.62225	5469.857		89.7244	
75.67635	5473.741		86.83385	
75.73045	5477.497		84.07145	
75.78456	5481.132		81.42831	
75.83867	5484.664		78.89529	
75.89278	5488.104		76.46352	
75.94688	5491.476		74.12438	
76.00099	5494.796		71.86967	
76.0551	5498.076		69.69159	
76.10921	5501.327		67.58283	
76.16331	5504.548		65.5369	
76.21741	5507.725		63.547	
76.27152	5510.838		61.60781	
76.32563	5513.867		59.71423	
76.37974	5516.798		57.86168	
76.43385	5519.626		56.04612	
76.48795	5522.353		54.26402	
76.54206	5524.98		52.51227	
76.59617	5527.516		50.78819	
76.65027	5529.969		49.08974	
76.70438	5532.351		47.41456	
76.75848	5534.683		45.76138	
76.81259	5536.987		44.12907	
76.8667	5539.279		42.51686	
76.92081	5541.56		40.92433	
76.97491	5543.824		39.35141	
77.02902	5546.063		37.79839	
77.08312	5548.265		36.26609	
77.13723	5550.409		34.755	
77.19134	5552.474		33.26646	
77.24545	5554.439		31.80186	
77.29955	5556.292		30.36271	
77.35366	5558.027		28.95068	
77.40777	5559.649		27.56751	
77.46188	5561.17		26.21496	
77.51598	5562.606		24.89479	
77.57008	5563.976		23.60888	
77.62419	5565.296		22.35846	
77.6783	5566.576		21.14523	
77.73241	5567.814		19.97058	
77.78651	5568.997		18.83575	
77.84062	5570.11		17.74182	
77.89473	5571.136		16.68965	
77.94884	5572.05		15.67989	
78.00294	5572.822		14.71303	
78.05704	5573.432		13.78955	
78.11115	5573.873		12.90947	
78.16526	5574.139		12.0731	
78.21937	5574.234		11.28057	
78.27348	5574.169		10.53192	
78.32758	5573.961		9.827134	
78.38169	5573.625		9.166158	
78.4358	5573.171		8.548904	
78.48991	5572.607		7.975255	
78.54401	5571.952		7.445122	
78.59811	5571.231		6.958167	
78.65222	5570.465		6.51425	
78.70633	5569.682		6.113121	
78.76044	5568.899		5.75448	
78.81454	5568.115		5.437984	
78.86865	5567.313		5.163251	
78.92276	5566.478		4.929868	
78.97687	5565.601		4.737404	
79.03097	5564.681		4.585436	
79.08508	5563.717		4.473482	
79.13918	5562.723		4.401142	
79.19329	5561.719		4.368004	
79.2474	5560.732		4.373658	
79.30151	5559.791		4.417703	
79.35561	5558.926		4.499725	
79.40972	5558.175		4.6193	
79.46383	5557.577		4.775974	
79.51793	5557.171		4.969232	
79.57204	5556.996		5.198602	
79.62614	5557.063		5.463473	
79.68025	5557.361		5.763183	
79.73436	5557.856		6.096962	
79.78847	5558.513		6.463896	
79.84258	5559.289		6.862879	
79.89668	5560.144		7.292586	
79.95078	5561.036		7.75139	
80.00489	5561.933		8.237644	
80.059	5562.812		8.749295	
80.11311	5563.664		9.284157	
80.16721	5564.492		9.839844	
80.22132	5565.319		10.41379	
80.27543	5566.173		11.00324	
80.32954	5567.09		11.60529	
80.38364	5568.099		12.21688	
80.43774	5569.208		12.8348	
80.49185	5570.396		13.45602	
80.54596	5571.628		14.07728	
80.60007	5572.868		14.6954	
80.65417	5574.091		15.30726	
80.70828	5575.286		15.9098	
80.76239	5576.448		16.50008	
80.8165	5577.573		17.07528	
80.87061	5578.658		17.63275	
80.92471	5579.717		18.16985	
80.97881	5580.776		18.68436	
81.03292	5581.86		19.1739	
81.08703	5582.994		19.63632	
81.14114	5584.194		20.06955	
81.19524	5585.48		20.47162	
81.24935	5586.865		20.8407	
81.30346	5588.341		21.17505	
81.35757	5589.891		21.47318	
81.41167	5591.485		21.73378	
81.46577	5593.089		21.95596	
81.51988	5594.667		22.13901	
81.57399	5596.192		22.28256	
81.6281	5597.653		22.38656	
81.68221	5599.056		22.45123	
81.73631	5600.415		22.47701	
81.79042	5601.747		22.46453	
81.84453	5603.073		22.41446	
81.89863	5604.416		22.32759	
81.95274	5605.788		22.20462	
82.00684	5607.195		22.04626	
82.06095	5608.631		21.85309	
82.11506	5610.094		21.62562	
82.16917	5611.576		21.3642	
82.22327	5613.065		21.06909	
82.27738	5614.547		20.74043	
82.33149	5616.012		20.3783	
82.38559	5617.451		19.98275	
82.4397	5618.858		19.55364	
82.4938	5620.241		19.09099	
82.54791	5621.619		18.59475	
82.60202	5623.011		18.06484	
82.65613	5624.438		17.50122	
82.71024	5625.904		16.90383	
82.76434	5627.407		16.27262	
82.81844	5628.929		15.6077	
82.87255	5630.443		14.90891	
82.92666	5631.924		14.17645	
82.98077	5633.357		13.41046	
83.03487	5634.714		12.6111	
83.08898	5635.964		11.77859	
83.14309	5637.082		10.9131	
83.1972	5638.049		10.01477	
83.2513	5638.857		9.083736	
83.3054	5639.513		8.12031	
83.35951	5640.043		7.124462	
83.41362	5640.491		6.096662	
83.46773	5640.883		5.037342	
83.52184	5641.241		3.947047	
83.57594	5641.57		2.826449	
83.63005	5641.866		1.676394	
83.68416	5642.122		0.4978893	
83.73827	5642.33		-0.7079231	
83.79237	5642.469		-1.939625	
83.84647	5642.53		-3.196227	
83.90058	5642.503		-4.476163	
83.95469	5642.379		-5.778005	
84.0088	5642.15		-7.100315	
84.0629	5641.823		-8.441661	
84.11701	5641.412		-9.800646	
84.17112	5640.941		-11.17593	
84.22523	5640.433		-12.56625	
84.27933	5639.905		-13.97017	
84.33344	5639.353		-15.38691	
84.38754	5638.765		-16.81507	
84.44165	5638.111		-18.25347	
84.49576	5637.364		-19.70093	
84.54987	5636.485		-21.15629	
84.60397	5635.458		-22.6184	
84.65808	5634.27		-24.0861	
84.71219	5632.914		-25.55826	
84.76629	5631.391		-27.03352	
84.8204	5629.71		-28.51113	
84.8745	5627.879		-29.98973	
84.92861	5625.925		-31.46816	
84.98272	5623.876		-32.94526	
85.03683	5621.756		-34.41987	
85.09093	5619.584		-35.89088	
85.14504	5617.37		-37.35718	
85.19915	5615.112		-38.81773	
85.25325	5612.802		-40.27129	
85.30736	5610.419		-41.71724	
85.36147	5607.944		-43.15437	
85.41557	5605.355		-44.58171	
85.46968	5602.646		-45.99836	
85.52379	5599.813		-47.40341	
85.5779	5596.866		-48.796	
85.632	5593.829		-50.17521	
85.6861	5590.729		-51.53994	
85.74021	5587.582		-52.88968	
85.79432	5584.4		-54.2233	
85.84843	5581.196		-55.53992	
85.90253	5577.979		-56.83865	
85.95664	5574.744		-58.11862	
86.01075	5571.481		-59.37901	
86.06486	5568.171		-60.61902	
86.11897	5564.792		-61.83797	
86.17307	5561.335		-63.03505	
86.22717	5557.791		-64.21007	
86.28128	5554.151		-65.3624	
86.33539	5550.402		-66.49165	
86.3895	5546.546		-67.5975	
86.4436	5542.59		-68.67974	
86.49771	5538.554		-69.73822	
86.55182	5534.45		-70.77292	
86.60593	5530.293		-71.78394	
86.66003	5526.085		-72.77135	
86.71413	5521.822		-73.73578	
86.76824	5517.501		-74.67743	
86.82235	5513.133		-75.5967	
86.87646	5508.72		-76.49398	
86.93056	5504.268		-77.36967	
86.98467	5499.771		-78.22425	
87.03878	5495.218		-79.0582	
87.09289	5490.598		-79.87212	
87.14699	5485.911		-80.6665	
87.2011	5481.157		-81.44218	
87.2552	5476.346		-82.19973	
87.30931	5471.496		-82.93979	
87.36342	5466.625		-83.66306	
87.41753	5461.74		-84.37024	
87.47163	5456.84		-85.062	
87.52574	5451.92		-85.73901	
87.57985	5446.987		-86.40184	
87.63395	5442.047		-87.0509	
87.68806	5437.106		-87.68677	
87.74216	5432.164		-88.30968	
87.79627	5427.224		-88.91993	
87.85038	5422.275		-89.51772	
87.90449	5417.31		-90.10323	
87.9586	5412.321		-90.67666	
88.0127	5407.311		-91.23814	
88.0668	5402.276		-91.7877	
88.12091	5397.226		-92.32556	
88.17502	5392.173		-92.85168	
88.22913	5387.134		-93.36607	
88.28323	5382.108		-93.86873	
88.33734	5377.094		-94.35962	
88.39145	5372.071		-94.83871	
88.44556	5367.031		-95.30608	
88.49966	5361.959		-95.76182	
88.55376	5356.846		-96.20604	
88.60787	5351.68		-96.63908	
88.66198	5346.456		-97.06114	
88.71609	5341.167		-97.47246	
88.7702	5335.811		-97.87328	
88.8243	5330.394		-98.26377	
88.87841	5324.941		-98.6441	
88.93252	5319.479		-99.01443	
88.98663	5314.028		-99.37489	
89.04073	5308.602		-99.72569	
89.09483	5303.201		-100.0672	
89.14894	5297.814		-100.3998	
89.20305	5292.424		-100.7239	
89.25716	5287.02		-101.0399	
89.31126	5281.599		-101.3486	
89.36537	5276.162		-101.6506	
89.41948	5270.711		-101.9467	
89.47359	5265.233		-102.2377	
89.52769	5259.714		-102.5243	
89.58179	5254.133		-102.8075	
89.6359	5248.479		-103.088	
89.69001	5242.753		-103.3665	
89.74412	5236.973		-103.6438	
89.79823	5231.159		-103.9203	
89.85233	5225.323		-104.1968	
89.90644	5219.472		-104.4736	
89.96055	5213.609		-104.7512	
90.01465	5207.727		-105.0297	
90.06876	5201.82		-105.3093	
90.12286	5195.888		-105.59	
90.17697	5189.928		-105.8715	
90.23108	5183.94		-106.1537	
90.28519	5177.925		-106.436	
90.33929	5171.882		-106.718	
90.3934	5165.819		-106.9992	
90.44751	5159.746		-107.2791	
90.50161	5153.677		-107.5571	
90.55572	5147.634		-107.8326	
90.60983	5141.638		-108.1052	
90.66393	5135.706		-108.374	
90.71804	5129.844		-108.6385	
90.77215	5124.053		-108.8979	
90.82626	5118.318		-109.1516	
90.88036	5112.622		-109.3988	
90.93446	5106.939		-109.6387	
90.98857	5101.255		-109.8706	
91.04268	5095.561		-110.0939	
91.09679	5089.858		-110.3079	
91.15089	5084.149		-110.512	
91.205	5078.433		-110.7059	
91.25911	5072.702		-110.8891	
91.31322	5066.953		-111.0615	
91.36732	5061.188		-111.223	
91.42142	5055.413		-111.3738	
91.47553	5049.627		-111.5145	
91.52964	5043.827		-111.6455	
91.58375	5037.986		-111.7675	
91.63786	5032.082		-111.8815	
91.69196	5026.093		-111.9883	
91.74607	5020.014		-112.0888	
91.80018	5013.827		-112.1841	
91.85429	5007.533		-112.275	
91.90839	5001.148		-112.3627	
91.96249	4994.7		-112.448	
92.0166	4988.209		-112.5317	
92.07071	4981.695		-112.6146	
92.12482	4975.174		-112.6973	
92.17892	4968.673		-112.7802	
92.23303	4962.207		-112.8635	
92.28714	4955.786		-112.9476	
92.34125	4949.409		-113.0326	
92.39535	4943.067		-113.1183	
92.44946	4936.722		-113.1642	
92.50356	4930.352		-113.2121	
92.55767	4923.944		-113.2619	
92.61178	4917.5		-113.3133	
92.66589	4911.025		-113.3659	
92.71999	4904.543		-113.4193	
92.7741	4898.083		-113.4732	
92.82821	4891.686		-113.527	
92.88231	4885.374		-113.5806	
92.93642	4879.155		-113.6336	
92.99052	4873.021		-113.6859	
93.04463	4866.964		-113.7371	
93.09874	4860.965		-113.7872	
93.15285	4855.008		-113.836	
93.20695	4849.072		-113.8834	
93.26106	4843.147		-113.9293	
93.31517	4837.22		-113.9738	
93.36927	4831.283		-114.0167	
93.42338	4825.323		-114.058	
93.47749	4819.348		-114.0979	
93.53159	4813.354		-114.1362	
93.5857	4807.348		-114.1731	
93.63981	4801.338		-114.2085	
93.69392	4795.336		-114.2426	
93.74802	4789.345		-114.2753	
93.80212	4783.36		-114.3068	
93.85623	4777.366		-114.3371	
93.91034	4771.351		-114.3662	
93.96445	4765.29		-114.3944	
94.01855	4759.16		-114.4215	
94.07266	4752.941		-114.4478	
94.12677	4746.461		-114.4731	
94.18088	4739.959		-114.4978	
94.23499	4733.464		-114.5216	
94.28909	4726.977		-114.5448	
94.34319	4720.496		-114.5674	
94.3973	4714.018		-114.5894	
94.45141	4707.541		-114.6109	
94.50552	4701.064		-114.6319	
94.55962	4694.586		-114.6524	
94.61373	4688.104		-114.6725	
94.66784	4681.617		-114.6923	
94.72195	4675.122		-114.7117	
94.77605	4668.619		-114.7308	
94.83015	4662.103		-114.7496	
94.88426	4655.575		-114.7682	
94.93837	4649.035		-114.7866	
94.99248	4642.485		-114.8047	
