T[Â°C]	350nm [counts / mm]	S.D.	First derivative	S.D. of first derivative
20.00045	4324.312		-63.53268	
20.05456	4320.792		-63.48412	
20.10866	4317.272		-63.4358	
20.16277	4313.749		-63.38774	
20.21688	4310.223		-63.33994	
20.27098	4306.693		-63.29241	
20.32509	4303.161		-63.24515	
20.3792	4299.626		-63.19817	
20.4333	4296.091		-63.15147	
20.48741	4292.555		-63.10506	
20.54152	4289.021		-63.05894	
20.59562	4285.492		-63.0131	
20.64973	4281.969		-62.96756	
20.70384	4278.454		-62.92231	
20.75795	4274.949		-62.87733	
20.81205	4271.458		-62.83264	
20.86616	4267.981		-62.78822	
20.92027	4264.517		-62.74405	
20.97437	4261.11		-62.70013	
21.02848	4257.705		-62.65644	
21.08259	4254.281		-62.61296	
21.13669	4250.832		-62.56967	
21.1908	4247.359		-62.52653	
21.24491	4243.872		-62.48352	
21.29901	4240.383		-62.44059	
21.35312	4236.905		-62.39772	
21.40723	4233.456		-62.35484	
21.46133	4230.05		-62.3119	
21.51544	4226.701		-62.26884	
21.56955	4223.411		-62.22561	
21.62365	4220.182		-62.1821	
21.67776	4217.008		-62.13826	
21.73187	4213.873		-62.09399	
21.78597	4210.75		-62.04923	
21.84008	4207.618		-62.00386	
21.89419	4204.47		-61.95782	
21.9483	4201.297		-61.911	
22.0024	4198.098		-61.86331	
22.05651	4194.878		-61.81466	
22.11061	4191.65		-61.76497	
22.16472	4188.423		-61.71417	
22.21883	4185.199		-61.6622	
22.27294	4181.971		-61.609	
22.32704	4178.733		-61.55457	
22.38115	4175.483		-61.49891	
22.43526	4172.221		-61.44213	
22.48936	4168.947		-61.3844	
22.54347	4165.656		-61.32604	
22.59758	4162.339		-61.26752	
22.65168	4158.988		-61.18764	
22.70579	4155.604		-61.10511	
22.7599	4152.188		-61.02029	
22.814	4148.742		-60.93355	
22.86811	4145.264		-60.84527	
22.92222	4141.761		-60.75585	
22.97632	4138.242		-60.6657	
23.03043	4134.719		-60.57524	
23.08454	4131.201		-60.48494	
23.13865	4127.693		-60.39525	
23.19275	4124.202		-60.30665	
23.24686	4120.726		-60.2196	
23.30096	4117.266		-60.13453	
23.35507	4113.823		-60.05181	
23.40918	4110.401		-59.97176	
23.46329	4107.009		-59.89459	
23.51739	4103.651		-59.82047	
23.5715	4100.325		-59.74952	
23.62561	4097.026		-59.68177	
23.67971	4093.753		-59.61729	
23.73382	4090.502		-59.55609	
23.78793	4087.27		-59.49818	
23.84203	4084.06		-59.44358	
23.89614	4080.874		-59.39224	
23.95025	4077.713		-59.34408	
24.00435	4074.577		-59.299	
24.05846	4071.468		-59.25685	
24.11257	4068.386		-59.21745	
24.16667	4065.33		-59.18063	
24.22078	4062.29		-59.14616	
24.27489	4059.251		-59.11379	
24.32899	4056.198		-59.08324	
24.3831	4053.122		-59.05426	
24.43721	4050.022		-59.0266	
24.49131	4046.904		-59.0001	
24.54542	4043.779		-58.9746	
24.59953	4040.662		-58.95003	
24.65364	4037.573		-58.92638	
24.70774	4034.527		-58.90374	
24.76185	4031.53		-58.88227	
24.81596	4028.586		-58.8622	
24.87006	4025.686		-58.8438	
24.92417	4022.818		-58.82738	
24.97828	4019.963		-58.81328	
25.03238	4017.107		-58.80185	
25.08649	4014.243		-58.79343	
25.1406	4011.366		-58.78837	
25.1947	4008.458		-58.78698	
25.24881	4005.489		-58.78957	
25.30292	4002.442		-58.79643	
25.35702	3999.316		-58.80776	
25.41113	3996.129		-58.82369	
25.46524	3992.907		-58.8443	
25.51934	3989.672		-58.86964	
25.57345	3986.441		-58.89967	
25.62756	3983.22		-58.93431	
25.68166	3980.008		-58.97344	
25.73577	3976.794		-59.01682	
25.78988	3973.566		-59.06417	
25.84398	3970.302		-59.1151	
25.89809	3966.983		-59.16917	
25.9522	3963.603		-59.22586	
26.00631	3960.16		-59.28466	
26.06041	3956.657		-59.34495	
26.11452	3953.105		-59.40603	
26.16862	3949.524		-59.46711	
26.22273	3945.939		-59.5273	
26.27684	3942.373		-59.58566	
26.33095	3938.841		-59.64122	
26.38505	3935.356		-59.69304	
26.43916	3931.923		-59.74023	
26.49327	3928.547		-59.78202	
26.54737	3925.229		-59.81769	
26.60148	3921.969		-59.84667	
26.65559	3918.767		-59.86848	
26.70969	3915.617		-59.88274	
26.7638	3912.516		-59.88915	
26.81791	3909.459		-59.88757	
26.87201	3906.437		-59.87796	
26.92612	3903.429		-59.86042	
26.98023	3900.409		-59.83521	
27.03433	3897.358		-59.80267	
27.08844	3894.267		-59.76326	
27.14255	3891.136		-59.71754	
27.19666	3887.964		-59.66616	
27.25076	3884.743		-59.60982	
27.30487	3881.464		-59.5492	
27.35897	3878.125		-59.48499	
27.41308	3874.738		-59.41786	
27.46719	3871.319		-59.34849	
27.5213	3867.885		-59.27755	
27.5754	3864.449		-59.20573	
27.62951	3861.03		-59.13367	
27.68362	3857.634		-59.06204	
27.73772	3854.265		-58.9914	
27.79183	3850.917		-58.92226	
27.84594	3847.58		-58.85509	
27.90004	3844.253		-58.79031	
27.95415	3840.939		-58.72832	
28.00826	3837.635		-58.66945	
28.06236	3834.339		-58.61396	
28.11647	3831.054		-58.562	
28.17058	3827.79		-58.51362	
28.22468	3824.558		-58.46878	
28.27879	3821.373		-58.42735	
28.3329	3818.252		-58.38914	
28.387	3815.205		-58.3539	
28.44111	3812.238		-58.32135	
28.49522	3809.349		-58.29114	
28.54932	3806.528		-58.2629	
28.60343	3803.753		-58.23616	
28.65754	3801.006		-58.21041	
28.71165	3798.266		-58.18509	
28.76575	3795.511		-58.15969	
28.81986	3792.727		-58.13376	
28.87397	3789.901		-58.10699	
28.92807	3787.018		-58.07917	
28.98218	3784.069		-58.05024	
29.03629	3781.05		-58.02028	
29.09039	3777.967		-57.98951	
29.1445	3774.838		-57.95822	
29.19861	3771.685		-57.92682	
29.25271	3768.528		-57.89573	
29.30682	3765.368		-57.8654	
29.36093	3762.197		-57.83633	
29.41503	3759.006		-57.80896	
29.46914	3755.791		-57.78374	
29.52325	3752.554		-57.76099	
29.57735	3749.305		-57.74098	
29.63146	3746.05		-57.72388	
29.68557	3742.791		-57.70977	
29.73967	3739.531		-57.69861	
29.79378	3736.27		-57.69027	
29.84789	3733.017		-57.68457	
29.90199	3729.781		-57.68127	
29.9561	3726.567		-57.68015	
30.01021	3723.369		-57.68094	
30.06432	3720.185		-57.68338	
30.11842	3717.01		-57.68715	
30.17253	3713.832		-57.69195	
30.22663	3710.643		-57.69741	
30.28074	3707.443		-57.70317	
30.33485	3704.242		-57.70881	
30.38896	3701.047		-57.71395	
30.44306	3697.865		-57.71817	
30.49717	3694.693		-57.72104	
30.55128	3691.532		-57.72207	
30.60538	3688.385		-57.72071	
30.65949	3685.253		-57.71643	
30.7136	3682.131		-57.70872	
30.7677	3679.015		-57.69719	
30.82181	3675.909		-57.68153	
30.87592	3672.817		-57.66156	
30.93002	3669.734		-57.63723	
30.98413	3666.654		-57.60856	
31.03824	3663.571		-57.5757	
31.09234	3660.481		-57.53888	
31.14645	3657.385		-57.49846	
31.20056	3654.294		-57.45488	
31.25467	3651.213		-57.40872	
31.30877	3648.135		-57.36062	
31.36288	3645.05		-57.31127	
31.41698	3641.948		-57.26135	
31.47109	3638.824		-57.21152	
31.5252	3635.682		-57.16236	
31.57931	3632.529		-57.11436	
31.63341	3629.373		-57.06794	
31.68752	3626.226		-57.02342	
31.74163	3623.091		-56.98107	
31.79573	3619.977		-56.94109	
31.84984	3616.887		-56.90357	
31.90395	3613.82		-56.86852	
31.95805	3610.768		-56.83587	
32.01216	3607.725		-56.80548	
32.06627	3604.693		-56.77716	
32.12037	3601.67		-56.7507	
32.17448	3598.651		-56.72588	
32.22859	3595.63		-56.70248	
32.2827	3592.6		-56.68026	
32.3368	3589.56		-56.65899	
32.39091	3586.512		-56.63846	
32.44501	3583.459		-56.61842	
32.49912	3580.407		-56.59856	
32.55323	3577.374		-56.57855	
32.60733	3574.37		-56.55799	
32.66144	3571.406		-56.53653	
32.71555	3568.482		-56.51382	
32.76966	3565.596		-56.48954	
32.82376	3562.735		-56.46342	
32.87787	3559.875		-56.43523	
32.93198	3556.99		-56.40476	
32.98608	3554.061		-56.37184	
33.04019	3551.077		-56.33633	
33.0943	3548.042		-56.29817	
33.1484	3544.965		-56.25737	
33.20251	3541.863		-56.21406	
33.25661	3538.739		-56.16843	
33.31072	3535.596		-56.12073	
33.36483	3532.444		-56.07129	
33.41894	3529.295		-56.02051	
33.47305	3526.157		-55.9688	
33.52715	3523.037		-55.91661	
33.58126	3519.932		-55.86444	
33.63536	3516.837		-55.81281	
33.68947	3513.742		-55.76226	
33.74358	3510.641		-55.71331	
33.79768	3507.536		-55.66641	
33.85179	3504.432		-55.62184	
33.9059	3501.331		-55.57973	
33.96001	3498.228		-55.5401	
34.01411	3495.116		-55.50288	
34.06822	3491.996		-55.46791	
34.12233	3488.873		-55.43501	
34.17643	3485.755		-55.40395	
34.23054	3482.651		-55.37448	
34.28465	3479.56		-55.34628	
34.33875	3476.485		-55.31905	
34.39286	3473.433		-55.29244	
34.44697	3470.405		-55.26606	
34.50107	3467.4		-55.23951	
34.55518	3464.414		-55.21236	
34.60929	3461.439		-55.18423	
34.66339	3458.469		-55.15472	
34.7175	3455.505		-55.12349	
34.77161	3452.556		-55.0902	
34.82571	3449.627		-55.05459	
34.87982	3446.719		-55.01646	
34.93393	3443.831		-54.97566	
34.98803	3440.96		-54.93211	
35.04214	3438.114		-54.88582	
35.09625	3435.296		-54.8369	
35.15036	3432.508		-54.78556	
35.20446	3429.749		-54.73205	
35.25857	3427.011		-54.67674	
35.31268	3424.281		-54.62006	
35.36678	3421.55		-54.56253	
35.42089	3418.803		-54.50476	
35.47499	3416.033		-54.4474	
35.5291	3413.239		-54.39123	
35.58321	3410.418		-54.33707	
35.63732	3407.575		-54.28582	
35.69142	3404.709		-54.23833	
35.74553	3401.812		-54.19544	
35.79964	3398.878		-54.15786	
35.85374	3395.906		-54.12617	
35.90785	3392.898		-54.10079	
35.96196	3389.855		-54.08205	
36.01606	3386.781		-54.07014	
36.07017	3383.678		-54.06512	
36.12428	3380.552		-54.06689	
36.17838	3377.411		-54.07522	
36.23249	3374.258		-54.08974	
36.2866	3371.095		-54.10997	
36.34071	3367.929		-54.1353	
36.39481	3364.779		-54.16502	
36.44892	3361.657		-54.19838	
36.50303	3358.58		-54.23453	
36.55713	3355.561		-54.27259	
36.61124	3352.607		-54.31166	
36.66534	3349.719		-54.35081	
36.71945	3346.893		-54.38913	
36.77356	3344.123		-54.42572	
36.82767	3341.395		-54.45972	
36.88177	3338.691		-54.4903	
36.93588	3335.99		-54.51671	
36.98999	3333.283		-54.53831	
37.04409	3330.563		-54.55457	
37.0982	3327.833		-54.56501	
37.15231	3325.091		-54.56931	
37.20641	3322.341		-54.56718	
37.26052	3319.59		-54.55842	
37.31463	3316.833		-54.54294	
37.36873	3314.06		-54.52078	
37.42284	3311.258		-54.49209	
37.47695	3308.42		-54.45716	
37.53106	3305.534		-54.41642	
37.58516	3302.597		-54.37041	
37.63927	3299.61		-54.31975	
37.69337	3296.574		-54.26516	
37.74748	3293.496		-54.20739	
37.80159	3290.375		-54.14721	
37.85569	3287.208		-54.08545	
37.9098	3283.995		-54.02292	
37.96391	3280.743		-53.96045	
38.01802	3277.463		-53.89875	
38.07212	3274.172		-53.83853	
38.12623	3270.889		-53.78031	
38.18034	3267.625		-53.72453	
38.23444	3264.386		-53.67154	
38.28855	3261.176		-53.62153	
38.34266	3258.001		-53.57461	
38.39676	3254.871		-53.53081	
38.45087	3251.792		-53.49008	
38.50498	3248.767		-53.45228	
38.55908	3245.794		-53.41718	
38.61319	3242.874		-53.38451	
38.6673	3240.002		-53.3539	
38.72141	3237.172		-53.32495	
38.77551	3234.375		-53.29722	
38.82962	3231.606		-53.27026	
38.88372	3228.863		-53.24364	
38.93783	3226.142		-53.21698	
38.99194	3223.438		-53.18992	
39.04604	3220.745		-53.16217	
39.10015	3218.057		-53.13346	
39.15426	3215.369		-53.10358	
39.20837	3212.685		-53.07234	
39.26247	3210.006		-53.0396	
39.31658	3207.336		-53.00525	
39.37069	3204.677		-52.96925	
39.42479	3202.034		-52.9316	
39.4789	3199.401		-52.89232	
39.533	3196.767		-52.85146	
39.58711	3194.116		-52.80914	
39.64122	3191.433		-52.76552	
39.69533	3188.712		-52.72081	
39.74943	3185.96		-52.67528	
39.80354	3183.19		-52.62924	
39.85765	3180.412		-52.58302	
39.91175	3177.627		-52.53695	
39.96586	3174.827		-52.49134	
40.01997	3172.009		-52.44644	
40.07407	3169.175		-52.40253	
40.12818	3166.329		-52.35981	
40.18229	3163.475		-52.31848	
40.23639	3160.616		-52.27865	
40.2905	3157.752		-52.24041	
40.34461	3154.88		-52.2038	
40.39872	3151.998		-52.16875	
40.45282	3149.103		-52.13516	
40.50693	3146.2		-52.10282	
40.56104	3143.298		-52.07149	
40.61514	3140.408		-52.04087	
40.66925	3137.542		-52.01065	
40.72335	3134.7		-51.98053	
40.77746	3131.872		-51.95024	
40.83157	3129.044		-51.91957	
40.88568	3126.199		-51.88834	
40.93978	3123.321		-51.85648	
40.99389	3120.401		-51.82389	
41.048	3117.446		-51.79055	
41.1021	3114.464		-51.75642	
41.15621	3111.468		-51.72156	
41.21032	3108.47		-51.686	
41.26442	3105.479		-51.64977	
41.31853	3102.501		-51.61292	
41.37264	3099.542		-51.57548	
41.42674	3096.607		-51.5375	
41.48085	3093.701		-51.499	
41.53496	3090.828		-51.46005	
41.58907	3087.98		-51.42073	
41.64317	3085.145		-51.38116	
41.69728	3082.307		-51.34145	
41.75138	3079.462		-51.30173	
41.80549	3076.614		-51.26205	
41.8596	3073.771		-51.2225	
41.9137	3070.938		-51.18309	
41.96781	3068.122		-51.14393	
42.02192	3065.335		-51.1051	
42.07603	3062.588		-51.06676	
42.13013	3059.884		-51.02905	
42.18424	3057.223		-50.99215	
42.23835	3054.604		-50.95622	
42.29245	3052.026		-50.92139	
42.34656	3049.488		-50.88776	
42.40067	3046.981		-50.85535	
42.45477	3044.493		-50.82416	
42.50888	3042.008		-50.79413	
42.56299	3039.509		-50.7652	
42.61709	3036.981		-50.73729	
42.6712	3034.42		-50.71041	
42.72531	3031.832		-50.68455	
42.77942	3029.23		-50.65975	
42.83352	3026.629		-50.63609	
42.88763	3024.036		-50.61366	
42.94173	3021.454		-50.59256	
42.99584	3018.88		-50.57292	
43.04995	3016.304		-50.55483	
43.10405	3013.711		-50.5384	
43.15816	3011.091		-50.52368	
43.21227	3008.436		-50.51066	
43.26638	3005.739		-50.49929	
43.32048	3002.993		-50.48944	
43.37459	3000.196		-50.48096	
43.4287	2997.353		-50.47369	
43.4828	2994.476		-50.46742	
43.53691	2991.588		-50.46194	
43.59101	2988.713		-50.45704	
43.64512	2985.864		-50.4525	
43.69923	2983.047		-50.44807	
43.75334	2980.264		-50.4435	
43.80744	2977.511		-50.43851	
43.86155	2974.773		-50.43284	
43.91566	2972.033		-50.42622	
43.96976	2969.277		-50.41843	
44.02387	2966.499		-50.40924	
44.07798	2963.697		-50.39847	
44.13208	2960.865		-50.38591	
44.18619	2958.004		-50.37139	
44.2403	2955.117		-50.35471	
44.2944	2952.217		-50.33567	
44.34851	2949.318		-50.3141	
44.40262	2946.436		-50.28984	
44.45673	2943.58		-50.26276	
44.51083	2940.755		-50.23277	
44.56494	2937.955		-50.19981	
44.61905	2935.173		-50.16386	
44.67315	2932.406		-50.12494	
44.72726	2929.646		-50.08305	
44.78136	2926.888		-50.03827	
44.83547	2924.128		-49.99068	
44.88958	2921.362		-49.94042	
44.94369	2918.588		-49.88768	
44.99779	2915.804		-49.83271	
45.0519	2913.013		-49.77576	
45.10601	2910.223		-49.71714	
45.16011	2907.445		-49.65709	
45.21422	2904.687		-49.59587	
45.26833	2901.952		-49.53369	
45.32243	2899.245		-49.47076	
45.37654	2896.566		-49.40731	
45.43065	2893.91		-49.34353	
45.48475	2891.271		-49.27963	
45.53886	2888.646		-49.21581	
45.59297	2886.037		-49.15228	
45.64708	2883.446		-49.08928	
45.70118	2880.882		-49.027	
45.75529	2878.353		-48.96569	
45.80939	2875.862		-48.90561	
45.8635	2873.4		-48.84702	
45.91761	2870.954		-48.79023	
45.97171	2868.513		-48.73554	
46.02582	2866.071		-48.68332	
46.07993	2863.618		-48.63391	
46.13404	2861.147		-48.58767	
46.18814	2858.649		-48.54488	
46.24225	2856.127		-48.50579	
46.29636	2853.588		-48.4706	
46.35046	2851.042		-48.43943	
46.40457	2848.494		-48.41236	
46.45868	2845.955		-48.38942	
46.51278	2843.429		-48.37059	
46.56689	2840.91		-48.35578	
46.621	2838.39		-48.34486	
46.6751	2835.858		-48.33763	
46.72921	2833.304		-48.33387	
46.78332	2830.725		-48.3333	
46.83743	2828.122		-48.33564	
46.89153	2825.498		-48.34058	
46.94564	2822.855		-48.34777	
46.99974	2820.188		-48.35686	
47.05385	2817.503		-48.36742	
47.10796	2814.805		-48.37902	
47.16206	2812.105		-48.39122	
47.21617	2809.407		-48.40361	
47.27028	2806.718		-48.41579	
47.32439	2804.043		-48.42739	
47.37849	2801.389		-48.43808	
47.4326	2798.762		-48.44758	
47.48671	2796.156		-48.45558	
47.54081	2793.559		-48.46183	
47.59492	2790.957		-48.46606	
47.64902	2788.346		-48.46805	
47.70313	2785.731		-48.4676	
47.75724	2783.12		-48.46457	
47.81135	2780.519		-48.45887	
47.86545	2777.924		-48.45049	
47.91956	2775.331		-48.43949	
47.97367	2772.73		-48.42603	
48.02777	2770.115		-48.41035	
48.08188	2767.479		-48.39277	
48.13599	2764.816		-48.37363	
48.19009	2762.123		-48.35332	
48.2442	2759.401		-48.33224	
48.29831	2756.649		-48.31072	
48.35241	2753.869		-48.28905	
48.40652	2751.065		-48.26741	
48.46063	2748.243		-48.24589	
48.51474	2745.411		-48.22449	
48.56884	2742.578		-48.20317	
48.62295	2739.751		-48.18179	
48.67706	2736.943		-48.16021	
48.73116	2734.163		-48.13825	
48.78527	2731.416		-48.11572	
48.83937	2728.707		-48.09239	
48.89348	2726.04		-48.06802	
48.94759	2723.413		-48.04233	
49.0017	2720.818		-48.01502	
49.0558	2718.247		-47.9858	
49.10991	2715.696		-47.95441	
49.16402	2713.161		-47.92064	
49.21812	2710.645		-47.8843	
49.27223	2708.144		-47.84529	
49.32634	2705.662		-47.80354	
49.38044	2703.212		-47.75906	
49.43455	2700.803		-47.71192	
49.48866	2698.438		-47.6622	
49.54276	2696.111		-47.61	
49.59687	2693.809		-47.55547	
49.65098	2691.515		-47.49879	
49.70509	2689.216		-47.44019	
49.75919	2686.9		-47.37995	
49.8133	2684.559		-47.31836	
49.8674	2682.189		-47.25578	
49.92151	2679.783		-47.19258	
49.97562	2677.336		-47.12918	
50.02972	2674.844		-47.06604	
50.08383	2672.304		-47.00364	
50.13794	2669.713		-46.94252	
50.19205	2667.076		-46.88317	
50.24615	2664.399		-46.8261	
50.30026	2661.694		-46.77175	
50.35437	2658.974		-46.72049	
50.40847	2656.253		-46.67253	
50.46258	2653.535		-46.628	
50.51669	2650.822		-46.58689	
50.57079	2648.109		-46.54908	
50.6249	2645.391		-46.51436	
50.67901	2642.672		-46.48245	
50.73311	2639.959		-46.45296	
50.78722	2637.26		-46.42545	
50.84133	2634.594		-46.39942	
50.89544	2631.978		-46.3743	
50.94954	2629.417		-46.34952	
51.00365	2626.912		-46.32448	
51.05775	2624.46		-46.29862	
51.11186	2622.055		-46.27136	
51.16597	2619.688		-46.24219	
51.22007	2617.341		-46.21065	
51.27418	2615.001		-46.17637	
51.32829	2612.657		-46.1391	
51.3824	2610.303		-46.09863	
51.4365	2607.938		-46.05486	
51.49061	2605.567		-46.00774	
51.54472	2603.195		-45.95729	
51.59882	2600.823		-45.90358	
51.65293	2598.447		-45.84679	
51.70704	2596.063		-45.78713	
51.76114	2593.674		-45.72489	
51.81525	2591.269		-45.66042	
51.86936	2588.836		-45.59412	
51.92346	2586.365		-45.52648	
51.97757	2583.857		-45.45801	
52.03168	2581.318		-45.38926	
52.08578	2578.754		-45.32081	
52.13989	2576.168		-45.25325	
52.194	2573.559		-45.18714	
52.2481	2570.93		-45.12306	
52.30221	2568.286		-45.06156	
52.35632	2565.634		-45.00312	
52.41042	2562.989		-44.94817	
52.46453	2560.365		-44.89703	
52.51864	2557.777		-44.84996	
52.57275	2555.233		-44.80713	
52.62685	2552.736		-44.7686	
52.68096	2550.284		-44.73436	
52.73507	2547.871		-44.70427	
52.78917	2545.487		-44.67812	
52.84328	2543.128		-44.65562	
52.89738	2540.792		-44.63642	
52.95149	2538.485		-44.62015	
53.0056	2536.209		-44.60639	
53.05971	2533.963		-44.59473	
53.11381	2531.743		-44.58474	
53.16792	2529.542		-44.57604	
53.22203	2527.354		-44.56825	
53.27613	2525.171		-44.56106	
53.33024	2522.98		-44.5542	
53.38435	2520.772		-44.54746	
53.43845	2518.542		-44.54069	
53.49256	2516.288		-44.53377	
53.54667	2514.007		-44.52661	
53.60077	2511.703		-44.51912	
53.65488	2509.376		-44.51123	
53.70899	2507.034		-44.50289	
53.7631	2504.684		-44.49406	
53.8172	2502.325		-44.48475	
53.87131	2499.951		-44.47496	
53.92542	2497.557		-44.46476	
53.97952	2495.137		-44.4542	
54.03363	2492.689		-44.44339	
54.08773	2490.219		-44.43243	
54.14184	2487.732		-44.42141	
54.19595	2485.233		-44.41039	
54.25006	2482.726		-44.39941	
54.30416	2480.215		-44.38848	
54.35827	2477.702		-44.37755	
54.41238	2475.193		-44.36653	
54.46648	2472.692		-44.35525	
54.52059	2470.202		-44.34353	
54.5747	2467.719		-44.33115	
54.6288	2465.245		-44.31782	
54.68291	2462.781		-44.30324	
54.73702	2460.333		-44.28706	
54.79112	2457.897		-44.26888	
54.84523	2455.47		-44.24831	
54.89934	2453.049		-44.22496	
54.95345	2450.638		-44.19851	
55.00755	2448.236		-44.16865	
55.06166	2445.836		-44.13517	
55.11576	2443.432		-44.09787	
55.16987	2441.021		-44.05659	
55.22398	2438.602		-44.01125	
55.27808	2436.177		-43.96191	
55.33219	2433.749		-43.90863	
55.3863	2431.32		-43.85161	
55.44041	2428.887		-43.7911	
55.49451	2426.443		-43.7274	
55.54862	2423.977		-43.66086	
55.60273	2421.492		-43.59182	
55.65683	2418.996		-43.52064	
55.71094	2416.499		-43.44768	
55.76505	2414.009		-43.37333	
55.81915	2411.536		-43.29797	
55.87326	2409.089		-43.22201	
55.92737	2406.668		-43.14586	
55.98147	2404.27		-43.06995	
56.03558	2401.894		-42.99469	
56.08969	2399.54		-42.92051	
56.1438	2397.205		-42.84781	
56.1979	2394.895		-42.77692	
56.25201	2392.605		-42.70815	
56.30611	2390.334		-42.64175	
56.36022	2388.077		-42.57785	
56.41433	2385.834		-42.5165	
56.46843	2383.606		-42.45768	
56.52254	2381.396		-42.40134	
56.57665	2379.198		-42.34734	
56.63076	2377.01		-42.29554	
56.68486	2374.83		-42.24576	
56.73897	2372.66		-42.19776	
56.79308	2370.498		-42.1513	
56.84718	2368.346		-42.10614	
56.90129	2366.207		-42.06205	
56.95539	2364.085		-42.01881	
57.0095	2361.982		-41.97626	
57.06361	2359.894		-41.93424	
57.11772	2357.814		-41.89264	
57.17182	2355.733		-41.85138	
57.22593	2353.64		-41.81043	
57.28004	2351.531		-41.76982	
57.33414	2349.411		-41.72961	
57.38825	2347.277		-41.68986	
57.44236	2345.125		-41.6507	
57.49646	2342.947		-41.61224	
57.55057	2340.742		-41.5746	
57.60468	2338.513		-41.53785	
57.65878	2336.268		-41.50209	
57.71289	2334.012		-41.46738	
57.767	2331.747		-41.43384	
57.82111	2329.477		-41.40154	
57.87521	2327.203		-41.37057	
57.92932	2324.925		-41.34101	
57.98343	2322.64		-41.31292	
58.03753	2320.348		-41.28634	
58.09164	2318.048		-41.26128	
58.14574	2315.739		-41.23769	
58.19985	2313.421		-41.21549	
58.25396	2311.084		-41.19456	
58.30807	2308.72		-41.17469	
58.36217	2306.329		-41.15563	
58.41628	2303.917		-41.13702	
58.47039	2301.492		-41.11845	
58.52449	2299.064		-41.09948	
58.5786	2296.638		-41.0796	
58.63271	2294.223		-41.05832	
58.68681	2291.828		-41.03512	
58.74092	2289.463		-41.00951	
58.79503	2287.135		-40.98102	
58.84913	2284.85		-40.9492	
58.90324	2282.611		-40.9136	
58.95735	2280.419		-40.87387	
59.01146	2278.269		-40.82967	
59.06556	2276.148		-40.78074	
59.11967	2274.039		-40.72691	
59.17377	2271.924		-40.66803	
59.22788	2269.792		-40.60411	
59.28199	2267.642		-40.53519	
59.33609	2265.481		-40.46144	
59.3902	2263.314		-40.38304	
59.44431	2261.141		-40.30028	
59.49842	2258.963		-40.21348	
59.55252	2256.783		-40.12301	
59.60663	2254.603		-40.02927	
59.66074	2252.431		-39.93269	
59.71484	2250.27		-39.83376	
59.76895	2248.121		-39.73298	
59.82306	2245.988		-39.63087	
59.87716	2243.87		-39.52794	
59.93127	2241.763		-39.4247	
59.98538	2239.659		-39.32162	
60.03948	2237.553		-39.21918	
60.09359	2235.444		-39.11776	
60.1477	2233.33		-39.01777	
60.20181	2231.204		-38.91957	
60.25591	2229.062		-38.8235	
60.31002	2226.904		-38.72975	
60.36412	2224.739		-38.6385	
60.41823	2222.571		-38.54982	
60.47234	2220.409		-38.46371	
60.52644	2218.256		-38.38008	
60.58055	2216.119		-38.29876	
60.63466	2214.001		-38.21957	
60.68877	2211.907		-38.14225	
60.74287	2209.845		-38.06656	
60.79698	2207.812		-37.99216	
60.85109	2205.805		-37.91874	
60.90519	2203.824		-37.84594	
60.9593	2201.872		-37.7734	
61.0134	2199.952		-37.70077	
61.06751	2198.057		-37.62766	
61.12162	2196.181		-37.55371	
61.17573	2194.314		-37.4786	
61.22983	2192.446		-37.40206	
61.28394	2190.564		-37.32384	
61.33805	2188.663		-37.24376	
61.39215	2186.74		-37.16171	
61.44626	2184.802		-37.07766	
61.50037	2182.853		-36.99157	
61.55447	2180.901		-36.90347	
61.60858	2178.954		-36.81339	
61.66269	2177.011		-36.72135	
61.71679	2175.067		-36.62737	
61.7709	2173.117		-36.53141	
61.82501	2171.158		-36.43344	
61.87912	2169.186		-36.33339	
61.93322	2167.194		-36.23109	
61.98733	2165.175		-36.12637	
62.04144	2163.132		-36.01896	
62.09554	2161.068		-35.90861	
62.14965	2158.987		-35.79496	
62.20375	2156.887		-35.67765	
62.25786	2154.771		-35.5562	
62.31197	2152.647		-35.43008	
62.36608	2150.524		-35.29873	
62.42018	2148.414		-35.16152	
62.47429	2146.323		-35.01777	
62.5284	2144.253		-34.86681	
62.5825	2142.207		-34.70792	
62.63661	2140.187		-34.54042	
62.69072	2138.2		-34.36357	
62.74482	2136.253		-34.17666	
62.79893	2134.348		-33.97893	
62.85304	2132.483		-33.7696	
62.90714	2130.655		-33.54792	
62.96125	2128.857		-33.31308	
63.01536	2127.085		-33.06427	
63.06947	2125.335		-32.80071	
63.12357	2123.602		-32.52164	
63.17768	2121.878		-32.22631	
63.23178	2120.154		-31.91407	
63.28589	2118.42		-31.58435	
63.34	2116.665		-31.23666	
63.3941	2114.885		-30.87067	
63.44821	2113.083		-30.48603	
63.50232	2111.264		-30.08255	
63.55643	2109.441		-29.66008	
63.61053	2107.631		-29.21853	
63.66464	2105.843		-28.75777	
63.71875	2104.08		-28.27777	
63.77285	2102.347		-27.77847	
63.82696	2100.643		-27.25987	
63.88107	2098.962		-26.72188	
63.93517	2097.296		-26.16444	
63.98928	2095.636		-25.58744	
64.04339	2093.982		-24.9907	
64.0975	2092.334		-24.374	
64.1516	2090.697		-23.73705	
64.2057	2089.077		-23.07956	
64.25981	2087.475		-22.4009	
64.31392	2085.903		-21.70062	
64.36803	2084.375		-20.9781	
64.42213	2082.911		-20.23265	
64.47624	2081.525		-19.46354	
64.53035	2080.225		-18.66997	
64.58446	2079.016		-17.85117	
64.63857	2077.891		-17.0063	
64.69267	2076.843		-16.13463	
64.74677	2075.865		-15.23502	
64.80088	2074.955		-14.30666	
64.85499	2074.105		-13.3486	
64.9091	2073.309		-12.35986	
64.9632	2072.564		-11.33945	
65.01731	2071.865		-10.28631	
65.07142	2071.206		-9.199412	
65.12553	2070.584		-8.077708	
65.17963	2069.992		-6.920321	
65.23373	2069.435		-5.725914	
65.28784	2068.92		-4.493669	
65.34195	2068.455		-3.222642	
65.39606	2068.05		-1.911915	
65.45016	2067.714		-0.5606192	
65.50427	2067.448		0.8321581	
65.55838	2067.255		2.267212	
65.61249	2067.135		3.745414	
65.66659	2067.087		5.267406	
65.7207	2067.114		6.834494	
65.7748	2067.215		8.447351	
65.82891	2067.389		10.10688	
65.88302	2067.633		11.81401	
65.93713	2067.938		13.56967	
65.99123	2068.304		15.37495	
66.04534	2068.734		17.23081	
66.09944	2069.231		19.13809	
66.15355	2069.81		21.09842	
66.20766	2070.482		23.11273	
66.26176	2071.252		25.18222	
66.31587	2072.125		27.30821	
66.36998	2073.1		29.49204	
66.42409	2074.18		31.73527	
66.4782	2075.376		34.03936	
66.5323	2076.699		36.40595	
66.5864	2078.155		38.83636	
66.64051	2079.741		41.33293	
66.69462	2081.45		43.89701	
66.74873	2083.278		46.53025	
66.80283	2085.226		49.23426	
66.85694	2087.302		52.01059	
66.91105	2089.512		54.86072	
66.96516	2091.867		57.78608	
67.01926	2094.381		60.78797	
67.07336	2097.063		63.86715	
67.12747	2099.919		67.02556	
67.18158	2102.949		70.26369	
67.23569	2106.155		73.58237	
67.28979	2109.534		76.98224	
67.3439	2113.083		80.46387	
67.39801	2116.804		84.02771	
67.45212	2120.705		87.6741	
67.50623	2124.791		91.40333	
67.56033	2129.066		95.21504	
67.61443	2133.538		99.11047	
67.66854	2138.216		103.0892	
67.72265	2143.107		107.1512	
67.77676	2148.216		111.2966	
67.83086	2153.548		115.5252	
67.88497	2159.101		119.8367	
67.93908	2164.879		124.231	
67.99319	2170.883		128.7074	
68.04729	2177.111		133.2647	
68.10139	2183.573		137.9034	
68.1555	2190.282		142.622	
68.20961	2197.25		147.4195	
68.26372	2204.493		152.2948	
68.31783	2212.022		157.2466	
68.37193	2219.846		162.2739	
68.42604	2227.97		167.3754	
68.48015	2236.408		172.5497	
68.53425	2245.176		177.7948	
68.58836	2254.285		183.111	
68.64246	2263.735		188.4961	
68.69657	2273.518		193.9487	
68.75068	2283.628		199.4673	
68.80479	2294.061		205.0505	
68.85889	2304.821		210.6965	
68.913	2315.915		216.4037	
68.9671	2327.351		222.1695	
69.02121	2339.14		227.9935	
69.07532	2351.285		233.8725	
69.12943	2363.791		239.8043	
69.18353	2376.661		245.7859	
69.23764	2389.895		251.8143	
69.29175	2403.486		257.8862	
69.34586	2417.427		263.9977	
69.39996	2431.721		270.1447	
69.45406	2446.368		276.3218	
69.50817	2461.377		282.5258	
69.56228	2476.742		288.7506	
69.61639	2492.461		294.9904	
69.67049	2508.531		301.2394	
69.7246	2524.948		307.491	
69.77871	2541.72		313.7382	
69.83282	2558.86		319.9735	
69.88692	2576.382		326.189	
69.94102	2594.291		332.375	
69.99513	2612.595		338.5241	
70.04924	2631.295		344.6258	
70.10335	2650.392		350.6696	
70.15746	2669.884		356.645	
70.21156	2689.77		362.5406	
70.26567	2710.047		368.3447	
70.31978	2730.711		374.0454	
70.37389	2751.744		379.6303	
70.42799	2773.127		385.0862	
70.48209	2794.855		390.4017	
70.5362	2816.927		395.5634	
70.59031	2839.352		400.5583	
70.64442	2862.137		405.3736	
70.69852	2885.292		409.9966	
70.75263	2908.82		414.4147	
70.80674	2932.72		418.6158	
70.86085	2956.99		422.5878	
70.91495	2981.625		426.319	
70.96906	3006.631		429.7993	
71.02316	3032.006		433.0179	
71.07727	3057.75		435.9651	
71.13138	3083.859		438.6318	
71.18549	3110.324		441.0096	
71.23959	3137.129		443.0909	
71.2937	3164.253		444.8689	
71.34781	3191.678		446.3377	
71.40191	3219.385		447.492	
71.45602	3247.376		448.3278	
71.51012	3275.646		448.8416	
71.56423	3304.188		449.0309	
71.61834	3332.986		448.8941	
71.67245	3362.008		448.4307	
71.72655	3391.211		447.6409	
71.78066	3420.552		446.5258	
71.83476	3449.979		445.0878	
71.88887	3479.457		443.3293	
71.94298	3508.934		441.2542	
71.99709	3538.36		438.8668	
72.05119	3567.685		436.1723	
72.1053	3596.858		433.1765	
72.15941	3625.828		429.886	
72.21352	3654.551		426.3076	
72.26762	3682.976		422.4492	
72.32172	3711.042		418.3193	
72.37583	3738.69		413.9254	
72.42994	3765.846		409.2769	
72.48405	3792.453		404.3833	
72.53815	3818.464		399.2542	
72.59226	3843.844		393.8996	
72.64637	3868.564		388.3299	
72.70048	3892.597		382.5557	
72.75459	3915.925		376.5879	
72.80869	3938.528		370.4387	
72.86279	3960.4		364.1176	
72.9169	3981.529		357.6374	
72.97101	4001.91		351.0099	
73.02512	4021.546		344.2474	
73.07922	4040.44		337.3621	
73.13333	4058.59		330.3668	
73.18744	4075.988		323.2743	
73.24155	4092.626		316.0974	
73.29565	4108.507		308.8506	
73.34975	4123.638		301.545	
73.40386	4138.028		294.1953	
73.45797	4151.696		286.8149	
73.51208	4164.667		279.4178	
73.56618	4176.981		272.0173	
73.62029	4188.682		264.6273	
73.6744	4199.816		257.2612	
73.72851	4210.425		249.9323	
73.78261	4220.55		242.6548	
73.83672	4230.229		235.4396	
73.89082	4239.49		228.3001	
73.94493	4248.355		221.2486	
73.99904	4256.836		214.2964	
74.05315	4264.933		207.4549	
74.10725	4272.653		200.7343	
74.16136	4280.021		194.1445	
74.21546	4287.075		187.6957	
74.26957	4293.859		181.3945	
74.32368	4300.413		175.2498	
74.37778	4306.772		169.2684	
74.43189	4312.964		163.4564	
74.486	4319.011		157.8192	
74.54011	4324.928		152.3609	
74.59422	4330.73		147.085	
74.64832	4336.423		141.9938	
74.70242	4342.011		137.0894	
74.75653	4347.495		132.3709	
74.81064	4352.872		127.8386	
74.86475	4358.132		123.4912	
74.91885	4363.262		119.3267	
74.97296	4368.253		115.3422	
75.02707	4373.106		111.5342	
75.08118	4377.833		107.8986	
75.13528	4382.449		104.4306	
75.18938	4386.958		101.1253	
75.24349	4391.367		97.97604	
75.2976	4395.683		94.97711	
75.35171	4399.913		92.12207	
75.40582	4404.052		89.40423	
75.45992	4408.094		86.81669	
75.51403	4412.03		84.35246	
75.56814	4415.852		82.00446	
75.62225	4419.555		79.7656	
75.67635	4423.132		77.62917	
75.73045	4426.585		75.58757	
75.78456	4429.918		73.63429	
75.83867	4433.146		71.76262	
75.89278	4436.298		69.966	
75.94688	4439.415		68.23806	
76.00099	4442.524		66.57265	
76.0551	4445.644		64.96386	
76.10921	4448.775		63.40611	
76.16331	4451.91		61.89443	
76.21741	4455.029		60.42365	
76.27152	4458.106		58.98965	
76.32563	4461.119		57.58855	
76.37974	4464.054		56.21689	
76.43385	4466.903		54.87158	
76.48795	4469.656		53.54991	
76.54206	4472.31		52.24955	
76.59617	4474.865		50.96852	
76.65027	4477.335		49.70533	
76.70438	4479.746		48.45831	
76.75848	4482.132		47.2266	
76.81259	4484.532		46.00952	
76.8667	4486.967		44.80662	
76.92081	4489.439		43.61775	
76.97491	4491.935		42.44301	
77.02902	4494.43		41.28269	
77.08312	4496.895		40.13742	
77.13723	4499.295		39.00754	
77.19134	4501.595		37.89399	
77.24545	4503.769		36.79771	
77.29955	4505.806		35.71972	
77.35366	4507.707		34.66109	
77.40777	4509.485		33.62297	
77.46188	4511.167		32.60651	
77.51598	4512.791		31.61287	
77.57008	4514.396		30.64338	
77.62419	4516.015		29.69894	
77.6783	4517.665		28.78083	
77.73241	4519.345		27.89019	
77.78651	4521.036		27.02808	
77.84062	4522.707		26.19555	
77.89473	4524.325		25.39356	
77.94884	4525.854		24.62303	
78.00294	4527.258		23.8848	
78.05704	4528.507		23.17979	
78.11115	4529.592		22.50858	
78.16526	4530.514		21.87204	
78.21937	4531.277		21.27087	
78.27348	4531.895		20.7057	
78.32758	4532.386		20.17708	
78.38169	4532.776		19.68548	
78.4358	4533.1		19.23124	
78.48991	4533.384		18.81463	
78.54401	4533.638		18.43594	
78.59811	4533.866		18.09525	
78.65222	4534.071		17.7928	
78.70633	4534.254		17.52876	
78.76044	4534.41		17.3033	
78.81454	4534.523		17.11653	
78.86865	4534.585		16.96853	
78.92276	4534.585		16.85929	
78.97687	4534.519		16.78869	
79.03097	4534.397		16.75656	
79.08508	4534.241		16.76267	
79.13918	4534.078		16.80673	
79.19329	4533.944		16.88834	
79.2474	4533.875		17.00702	
79.30151	4533.905		17.16218	
79.35561	4534.056		17.35311	
79.40972	4534.331		17.57906	
79.46383	4534.731		17.83919	
79.51793	4535.246		18.13256	
79.57204	4535.863		18.45827	
79.62614	4536.572		18.81524	
79.68025	4537.359		19.20234	
79.73436	4538.215		19.61837	
79.78847	4539.134		20.06207	
79.84258	4540.11		20.53207	
79.89668	4541.144		21.02692	
79.95078	4542.235		21.54498	
80.00489	4543.382		22.08473	
80.059	4544.584		22.64438	
80.11311	4545.851		23.22213	
80.16721	4547.191		23.81609	
80.22132	4548.617		24.42427	
80.27543	4550.129		25.04461	
80.32954	4551.725		25.67496	
80.38364	4553.395		26.31306	
80.43774	4555.133		26.95654	
80.49185	4556.921		27.60323	
80.54596	4558.738		28.25064	
80.60007	4560.569		28.89639	
80.65417	4562.422		29.5381	
80.70828	4564.308		30.17336	
80.76239	4566.233		30.79981	
80.8165	4568.214		31.41512	
80.87061	4570.268		32.01704	
80.92471	4572.403		32.60326	
80.97881	4574.626		33.1718	
81.03292	4576.933		33.72047	
81.08703	4579.313		34.24725	
81.14114	4581.747		34.75016	
81.19524	4584.211		35.22728	
81.24935	4586.688		35.67665	
81.30346	4589.159		36.09641	
81.35757	4591.605		36.48477	
81.41167	4594.019		36.84008	
81.46577	4596.396		37.161	
81.51988	4598.728		37.4462	
81.57399	4601.015		37.69459	
81.6281	4603.269		37.90524	
81.68221	4605.507		38.07738	
81.73631	4607.743		38.21038	
81.79042	4609.99		38.30368	
81.84453	4612.254		38.35686	
81.89863	4614.542		38.36954	
81.95274	4616.854		38.34145	
82.00684	4619.184		38.27243	
82.06095	4621.519		38.16239	
82.11506	4623.839		38.01134	
82.16917	4626.135		37.81936	
82.22327	4628.398		37.58656	
82.27738	4630.627		37.31313	
82.33149	4632.833		36.99931	
82.38559	4635.024		36.6455	
82.4397	4637.212		36.25204	
82.4938	4639.406		35.81952	
82.54791	4641.622		35.34854	
82.60202	4643.875		34.83979	
82.65613	4646.179		34.29398	
82.71024	4648.531		33.71189	
82.76434	4650.922		33.09432	
82.81844	4653.329		32.44225	
82.87255	4655.729		31.75639	
82.92666	4658.101		31.03769	
82.98077	4660.42		30.28701	
83.03487	4662.662		29.50515	
83.08898	4664.805		28.69286	
83.14309	4666.832		27.85084	
83.1972	4668.742		26.97964	
83.2513	4670.541		26.07972	
83.3054	4672.247		25.15164	
83.35951	4673.882		24.19555	
83.41362	4675.469		23.21198	
83.46773	4677.015		22.20135	
83.52184	4678.516		21.16405	
83.57594	4679.962		20.10051	
83.63005	4681.345		19.01112	
83.68416	4682.655		17.89629	
83.73827	4683.875		16.75642	
83.79237	4684.977		15.59209	
83.84647	4685.947		14.40343	
83.90058	4686.785		13.19112	
83.95469	4687.51		11.95572	
84.0088	4688.135		10.69787	
84.0629	4688.671		9.41824	
84.11701	4689.129		8.117545	
84.17112	4689.522		6.796486	
84.22523	4689.859		5.45576	
84.27933	4690.143		4.096271	
84.33344	4690.37		2.718393	
84.38754	4690.533		1.323144	
84.44165	4690.615		-0.0885728	
84.49576	4690.604		-1.515767	
84.54987	4690.491		-2.957338	
84.60397	4690.279		-4.412055	
84.65808	4689.963		-5.878549	
84.71219	4689.541		-7.355327	
84.76629	4689.006		-8.840586	
84.8204	4688.362		-10.33306	
84.8745	4687.613		-11.8308	
84.92861	4686.778		-13.33199	
84.98272	4685.879		-14.83481	
85.03683	4684.938		-16.33743	
85.09093	4683.961		-17.83809	
85.14504	4682.948		-19.33511	
85.19915	4681.887		-20.82688	
85.25325	4680.762		-22.31167	
85.30736	4679.56		-23.78847	
85.36147	4678.267		-25.25569	
85.41557	4676.868		-26.71202	
85.46968	4675.35		-28.15628	
85.52379	4673.708		-29.58731	
85.5779	4671.953		-31.00402	
85.632	4670.102		-32.40536	
85.6861	4668.176		-33.79012	
85.74021	4666.185		-35.15767	
85.79432	4664.125		-36.50688	
85.84843	4661.996		-37.83681	
85.90253	4659.8		-39.14657	
85.95664	4657.54		-40.43534	
86.01075	4655.208		-41.70236	
86.06486	4652.794		-42.94698	
86.11897	4650.291		-44.16866	
86.17307	4647.696		-45.36679	
86.22717	4645.004		-46.54143	
86.28128	4642.206		-47.69219	
86.33539	4639.294		-48.81893	
86.3895	4636.273		-49.92158	
86.4436	4633.142		-51.00016	
86.49771	4629.909		-52.05476	
86.55182	4626.585		-53.08549	
86.60593	4623.189		-54.09248	
86.66003	4619.734		-55.07571	
86.71413	4616.228		-56.03561	
86.76824	4612.674		-56.97216	
86.82235	4609.075		-57.88548	
86.87646	4605.425		-58.77567	
86.93056	4601.723		-59.64278	
86.98467	4597.967		-60.48693	
87.03878	4594.157		-61.30826	
87.09289	4590.296		-62.10696	
87.14699	4586.397		-62.88317	
87.2011	4582.467		-63.63736	
87.2552	4578.521		-64.36966	
87.30931	4574.571		-65.08028	
87.36342	4570.628		-65.76943	
87.41753	4566.695		-66.43734	
87.47163	4562.773		-67.08424	
87.52574	4558.856		-67.71041	
87.57985	4554.941		-68.3161	
87.63395	4551.02		-68.90151	
87.68806	4547.086		-69.46709	
87.74216	4543.134		-70.01309	
87.79627	4539.161		-70.53986	
87.85038	4535.166		-71.0478	
87.90449	4531.163		-71.53732	
87.9586	4527.161		-72.0089	
88.0127	4523.173		-72.46304	
88.0668	4519.205		-72.90022	
88.12091	4515.263		-73.32116	
88.17502	4511.348		-73.72648	
88.22913	4507.456		-74.11692	
88.28323	4503.572		-74.49326	
88.33734	4499.69		-74.85629	
88.39145	4495.798		-75.20689	
88.44556	4491.883		-75.54604	
88.49966	4487.927		-75.87473	
88.55376	4483.918		-76.19401	
88.60787	4479.844		-76.50503	
88.66198	4475.707		-76.80879	
88.71609	4471.508		-77.10633	
88.7702	4467.262		-77.39864	
88.8243	4462.987		-77.68664	
88.87841	4458.713		-77.9712	
88.93252	4454.457		-78.25314	
88.98663	4450.228		-78.53327	
89.04073	4446.026		-78.81227	
89.09483	4441.847		-79.0909	
89.14894	4437.683		-79.36968	
89.20305	4433.515		-79.64909	
89.25716	4429.317		-79.92945	
89.31126	4425.068		-80.21092	
89.36537	4420.752		-80.49359	
89.41948	4416.367		-80.7774	
89.47359	4411.912		-81.06228	
89.52769	4407.39		-81.34799	
89.58179	4402.805		-81.63442	
89.6359	4398.171		-81.92125	
89.69001	4393.509		-82.20821	
89.74412	4388.847		-82.49496	
89.79823	4384.212		-82.78118	
89.85233	4379.625		-83.06646	
89.90644	4375.091		-83.35033	
89.96055	4370.599		-83.6323	
90.01465	4366.133		-83.91177	
90.06876	4361.678		-84.18826	
90.12286	4357.216		-84.46114	
90.17697	4352.732		-84.72981	
90.23108	4348.206		-84.99375	
90.28519	4343.617		-85.25241	
90.33929	4338.962		-85.50536	
90.3934	4334.251		-85.75222	
90.44751	4329.5		-85.99278	
90.50161	4324.725		-86.22687	
90.55572	4319.948		-86.4545	
90.60983	4315.191		-86.67564	
90.66393	4310.468		-86.89033	
90.71804	4305.771		-87.09866	
90.77215	4301.085		-87.30072	
90.82626	4296.393		-87.49661	
90.88036	4291.677		-87.68642	
90.93446	4286.92		-87.87022	
90.98857	4282.109		-88.04813	
91.04268	4277.228		-88.22019	
91.09679	4272.282		-88.38645	
91.15089	4267.283		-88.54691	
91.205	4262.25		-88.70153	
91.25911	4257.196		-88.8503	
91.31322	4252.136		-88.99313	
91.36732	4247.086		-89.13	
91.42142	4242.062		-89.26093	
91.47553	4237.072		-89.38605	
91.52964	4232.121		-89.50549	
91.58375	4227.197		-89.61944	
91.63786	4222.287		-89.72807	
91.69196	4217.369		-89.83155	
91.74607	4212.438		-89.93006	
91.80018	4207.488		-90.02373	
91.85429	4202.529		-90.11266	
91.90839	4197.569		-90.19695	
91.96249	4192.619		-90.2767	
92.0166	4187.681		-90.35197	
92.07071	4182.76		-90.42275	
92.12482	4177.861		-90.48905	
92.17892	4172.987		-90.55083	
92.23303	4168.127		-90.60806	
92.28714	4163.275		-90.66074	
92.34125	4158.426		-90.70895	
92.39535	4153.578		-90.75275	
92.44946	4148.724		-90.76962	
92.50356	4143.857		-90.78637	
92.55767	4138.97		-90.80304	
92.61178	4134.062		-90.81964	
92.66589	4129.132		-90.83617	
92.71999	4124.187		-90.85261	
92.7741	4119.229		-90.86892	
92.82821	4114.272		-90.8851	
92.88231	4109.321		-90.90112	
92.93642	4104.381		-90.91698	
92.99052	4099.444		-90.93264	
93.04463	4094.498		-90.9481	
93.09874	4089.538		-90.96334	
93.15285	4084.563		-90.97835	
93.20695	4079.575		-90.99311	
93.26106	4074.577		-91.00762	
93.31517	4069.581		-91.02187	
93.36927	4064.605		-91.03587	
93.42338	4059.652		-91.0496	
93.47749	4054.728		-91.06308	
93.53159	4049.826		-91.07631	
93.5857	4044.949		-91.0893	
93.63981	4040.096		-91.10207	
93.69392	4035.26		-91.11461	
93.74802	4030.433		-91.12695	
93.80212	4025.611		-91.13909	
93.85623	4020.783		-91.15106	
93.91034	4015.942		-91.16287	
93.96445	4011.071		-91.17454	
94.01855	4006.164		-91.18609	
94.07266	4001.22		-91.19753	
94.12677	3996.167		-91.20887	
94.18088	3991.107		-91.22013	
94.23499	3986.063		-91.23132	
94.28909	3981.035		-91.24244	
94.34319	3976.016		-91.25351	
94.3973	3971.003		-91.26453	
94.45141	3965.992		-91.27551	
94.50552	3960.982		-91.28646	
94.55962	3955.969		-91.29738	
94.61373	3950.951		-91.30828	
94.66784	3945.926		-91.31916	
94.72195	3940.893		-91.33003	
94.77605	3935.849		-91.34089	
94.83015	3930.793		-91.35175	
94.88426	3925.723		-91.3626	
94.93837	3920.642		-91.37345	
94.99248	3915.55		-91.38432	
