T[Â°C]	330nm [counts / mm]	S.D.	First derivative	S.D. of first derivative
19.99988	7959.155	34.74569	-118.5982	7.738422
20.05387	7952.954	34.30618	-118.4294	7.550562
20.10785	7946.753	33.87048	-118.2597	7.362566
20.16184	7940.553	33.43784	-118.089	7.174435
20.21583	7934.351	33.00918	-117.9173	6.986159
20.26981	7928.148	32.58606	-117.7446	6.797754
20.3238	7921.942	32.17	-117.571	6.609222
20.37779	7915.733	31.76342	-117.3964	6.420577
20.43177	7909.52	31.36869	-117.2209	6.231837
20.48576	7903.302	30.98893	-117.0445	6.04302
20.53975	7897.077	30.62618	-116.8672	5.854161
20.59374	7890.847	30.2827	-116.689	5.665281
20.64772	7884.611	29.95924	-116.51	5.476418
20.70171	7878.371	29.65711	-116.3302	5.287608
20.7557	7872.128	29.37525	-116.1497	5.098897
20.80968	7865.887	29.11325	-115.9684	4.910335
20.86367	7859.651	28.86904	-115.7866	4.721965
20.91766	7853.428	28.64345	-115.6041	4.533849
20.97165	7847.24	28.43021	-115.4211	4.346045
21.02563	7841.072	28.47796	-115.2377	4.158612
21.07962	7834.898	28.56458	-115.0538	3.971624
21.13361	7828.704	28.69635	-114.8696	3.785145
21.1876	7822.481	28.87706	-114.6851	3.599238
21.24158	7816.224	29.10713	-114.5004	3.413971
21.29557	7809.926	29.38316	-114.3156	3.229413
21.34956	7803.59	29.7018	-114.1307	3.045626
21.40354	7797.219	30.05904	-113.9459	2.862679
21.45753	7790.822	30.44761	-113.7611	2.680634
21.51152	7784.419	30.8616	-113.5764	2.499564
21.5655	7778.033	31.29299	-113.392	2.319536
21.61949	7771.682	31.73401	-113.2079	2.140616
21.67348	7765.386	32.1841	-113.0241	1.96286
21.72747	7759.145	32.64489	-112.8408	1.786323
21.78145	7752.949	33.12152	-112.6579	1.61104
21.83544	7746.785	33.61738	-112.4756	1.437033
21.88943	7740.641	34.13155	-112.2938	1.264306
21.94341	7734.5	34.66203	-112.1125	1.092824
21.9974	7728.355	35.20067	-111.9318	0.9225267
22.05139	7722.2	35.73677	-111.7517	0.7533044
22.10538	7716.039	36.25611	-111.5721	0.585015
22.15936	7709.884	36.74623	-111.3928	0.4174972
22.21335	7703.743	37.19088	-111.2138	0.2507602
22.26734	7697.622	37.57648	-111.0347	0.08752443
22.32132	7691.525	37.89225	-110.855	0.09471706
22.37531	7685.457	38.12829	-110.674	0.2608442
22.4293	7679.425	38.28126	-110.4907	0.4327158
22.48329	7673.436	38.35637	-110.3036	0.6085662
22.53727	7667.496	38.36753	-110.1111	0.7890661
22.59126	7661.609	38.3289	-109.9115	0.9749396
22.64525	7655.769	38.25259	-109.7289	1.088777
22.69923	7649.967	38.14994	-109.5484	1.198174
22.75322	7644.194	38.02498	-109.3701	1.302754
22.80721	7638.439	37.8757	-109.1943	1.402426
22.86119	7632.696	37.69329	-109.021	1.49729
22.91518	7626.961	37.46012	-108.8504	1.587623
22.96917	7621.23	37.15549	-108.6826	1.67378
23.02316	7615.5	36.76219	-108.5175	1.756181
23.07714	7609.771	36.27786	-108.3553	1.835218
23.13113	7604.048	35.71001	-108.196	1.911221
23.18512	7598.34	35.06955	-108.0395	1.984387
23.23911	7592.651	34.37355	-107.8859	2.054753
23.29309	7586.981	33.64293	-107.7351	2.122158
23.34708	7581.331	32.89864	-107.5871	2.186288
23.40107	7575.702	32.16354	-107.4418	2.246666
23.45505	7570.099	31.46176	-107.2993	2.302696
23.50904	7564.521	30.81365	-107.1596	2.353691
23.56303	7558.962	30.23069	-107.0228	2.398877
23.61702	7553.416	29.71764	-106.889	2.437477
23.671	7547.876	29.28047	-106.7584	2.468707
23.72499	7542.334	28.92533	-106.6312	2.49183
23.77898	7536.787	28.65275	-106.5078	2.506135
23.83296	7531.232	28.45115	-106.3884	2.510981
23.88695	7525.666	28.29997	-106.2734	2.505892
23.94094	7520.087	28.1715	-106.163	2.490539
23.99492	7514.488	28.03963	-106.0575	2.464807
24.04891	7508.862	27.88827	-105.9571	2.428778
24.1029	7503.198	27.71051	-105.8619	2.382713
24.15689	7497.491	27.51112	-105.7723	2.327085
24.21087	7491.744	27.30093	-105.6883	2.262551
24.26486	7485.961	27.09436	-105.6099	2.189901
24.31885	7480.151	26.90374	-105.5374	2.110058
24.37284	7474.319	26.74044	-105.4708	2.024028
24.42682	7468.474	26.61418	-105.4101	1.932915
24.48081	7462.621	26.52441	-105.3554	1.837924
24.5348	7456.772	26.46869	-105.3065	1.740323
24.58878	7450.938	26.44634	-105.2634	1.641451
24.64277	7445.124	26.45353	-105.2258	1.542697
24.69676	7439.329	26.49375	-105.1934	1.445493
24.75075	7433.55	26.56843	-105.1659	1.351278
24.80473	7427.781	26.673	-105.1428	1.261506
24.85872	7422.012	26.80166	-105.1237	1.177629
24.91271	7416.231	26.94777	-105.1079	1.10105
24.96669	7410.434	27.1067	-105.095	1.033087
25.02068	7404.629	27.26792	-105.0842	0.9749035
25.07467	7398.827	27.42148	-105.0749	0.9274366
25.12865	7393.046	27.5599	-105.0664	0.8912264
25.18264	7387.301	27.68059	-105.0582	0.8663207
25.23663	7381.595	27.78649	-105.0494	0.852248
25.29062	7375.926	27.883	-105.0396	0.8480309
25.3446	7370.288	27.98308	-105.0279	0.8523664
25.39859	7364.681	28.09931	-105.0138	0.8638249
25.45258	7359.099	28.24203	-104.9966	0.8809792
25.50657	7353.536	28.41589	-104.9758	0.9025442
25.56055	7347.989	28.61763	-104.9506	0.9274346
25.61454	7342.454	28.84376	-104.9207	0.9547655
25.66853	7336.928	29.08546	-104.8855	0.9838677
25.72251	7331.402	29.33711	-104.8446	1.014268
25.7765	7325.872	29.60009	-104.7979	1.045599
25.83049	7320.327	29.87612	-104.745	1.077584
25.88447	7314.765	30.16719	-104.686	1.109975
25.93846	7309.192	30.46122	-104.6208	1.142552
25.99245	7303.612	30.74165	-104.5495	1.175057
26.04644	7298.029	30.98922	-104.4726	1.207214
26.10042	7292.442	31.19488	-104.3902	1.238727
26.15441	7286.854	31.35253	-104.303	1.269313
26.2084	7281.269	31.46	-104.2113	1.298706
26.26238	7275.685	31.51468	-104.116	1.326671
26.31637	7270.099	31.51622	-104.0176	1.353064
26.37036	7264.502	31.47212	-103.9168	1.377765
26.42435	7258.888	31.38929	-103.8143	1.400738
26.47833	7253.255	31.26986	-103.7109	1.42195
26.53232	7247.605	31.11883	-103.6071	1.441417
26.58631	7241.939	30.94346	-103.5035	1.459193
26.6403	7236.254	30.7575	-103.4007	1.475361
26.69428	7230.554	30.57624	-103.299	1.489985
26.74827	7224.844	30.40448	-103.1988	1.503065
26.80226	7219.128	30.23967	-103.1006	1.514565
26.85624	7213.399	30.08182	-103.0047	1.524398
26.91023	7207.647	29.93385	-102.9112	1.532484
26.96422	7201.871	29.78911	-102.8205	1.5388
27.0182	7196.072	29.62843	-102.7327	1.543392
27.07219	7190.264	29.43301	-102.6481	1.546418
27.12618	7184.465	29.18815	-102.5669	1.548155
27.18017	7178.691	28.8893	-102.4893	1.548987
27.23415	7172.955	28.54064	-102.4152	1.549373
27.28814	7167.268	28.16513	-102.3447	1.549794
27.34213	7161.635	27.78956	-102.2778	1.550665
27.39611	7156.061	27.43297	-102.2144	1.552272
27.4501	7150.541	27.10691	-102.1543	1.554718
27.50409	7145.071	26.8242	-102.0971	1.55792
27.55807	7139.647	26.59509	-102.0427	1.561617
27.61206	7134.261	26.41706	-101.9907	1.565402
27.66605	7128.902	26.27785	-101.9406	1.568765
27.72004	7123.557	26.16013	-101.892	1.571151
27.77402	7118.215	26.04705	-101.8444	1.571968
27.82801	7112.869	25.92664	-101.7973	1.570649
27.882	7107.522	25.79638	-101.7502	1.566637
27.93599	7102.184	25.65662	-101.7026	1.559443
27.98997	7096.865	25.5054	-101.6543	1.548662
28.04396	7091.57	25.33849	-101.605	1.533989
28.09795	7086.299	25.15099	-101.5545	1.515242
28.15193	7081.053	24.94965	-101.5025	1.49236
28.20592	7075.827	24.75224	-101.4491	1.465447
28.25991	7070.605	24.58148	-101.3943	1.434731
28.31389	7065.374	24.45292	-101.338	1.400511
28.36788	7060.115	24.37782	-101.2804	1.363112
28.42187	7054.817	24.36342	-101.2215	1.322841
28.47586	7049.478	24.40681	-101.1614	1.279979
28.52984	7044.101	24.49225	-101.1001	1.234751
28.58383	7038.688	24.60526	-101.0378	1.18736
28.63782	7033.248	24.73228	-100.9745	1.137997
28.6918	7027.785	24.85691	-100.9102	1.086886
28.74579	7022.31	24.95425	-100.8451	1.034244
28.79978	7016.831	25.0077	-100.7791	0.9803557
28.85377	7011.352	25.02386	-100.7125	0.9255302
28.90775	7005.878	25.01925	-100.6455	0.8701755
28.96174	7000.412	25.01117	-100.5782	0.8148339
29.01573	6994.955	25.01984	-100.5111	0.7601733
29.06972	6989.505	25.0568	-100.4444	0.7070077
29.1237	6984.065	25.12351	-100.3783	0.6563064
29.17769	6978.637	25.21359	-100.3132	0.6091539
29.23168	6973.218	25.31896	-100.2493	0.5667722
29.28566	6967.798	25.44016	-100.1868	0.5304191
29.33965	6962.363	25.57463	-100.1258	0.5013175
29.39364	6956.901	25.71021	-100.0663	0.4804511
29.44762	6951.407	25.8358	-100.0085	0.4684293
29.50161	6945.878	25.94199	-99.95226	0.4652918
29.5556	6940.318	26.01821	-99.89758	0.4705113
29.60959	6934.736	26.06091	-99.84439	0.4831045
29.66357	6929.14	26.07317	-99.79259	0.5018955
29.71756	6923.536	26.05729	-99.74199	0.5256661
29.77155	6917.93	26.01578	-99.69238	0.5533373
29.82553	6912.329	25.95145	-99.64349	0.5839888
29.87952	6906.74	25.8688	-99.59506	0.6168554
29.93351	6901.163	25.78651	-99.54681	0.6512908
29.9875	6895.596	25.72412	-99.49848	0.6867955
30.04148	6890.045	25.68876	-99.44984	0.7230054
30.09547	6884.52	25.68075	-99.40067	0.7596396
30.14946	6879.024	25.69433	-99.35078	0.796541
30.20344	6873.564	25.72401	-99.29996	0.8336286
30.25743	6868.146	25.754	-99.24805	0.870912
30.31142	6862.768	25.76388	-99.19486	0.9084637
30.36541	6857.425	25.7401	-99.14025	0.9463566
30.41939	6852.106	25.68031	-99.08408	0.9846629
30.47338	6846.802	25.58609	-99.02618	1.023382
30.52737	6841.504	25.46353	-98.96644	1.062442
30.58135	6836.209	25.32364	-98.90477	1.101637
30.63534	6830.92	25.18453	-98.84113	1.140655
30.68933	6825.65	25.06174	-98.77554	1.179082
30.74332	6820.413	24.95802	-98.70808	1.216432
30.7973	6815.213	24.87188	-98.63889	1.252152
30.85129	6810.057	24.80086	-98.56818	1.285638
30.90528	6804.946	24.74199	-98.49619	1.316309
30.95926	6799.877	24.69715	-98.42323	1.343653
31.01325	6794.844	24.66759	-98.34962	1.367257
31.06724	6789.83	24.64798	-98.27576	1.386832
31.12123	6784.818	24.63124	-98.202	1.40224
31.17521	6779.796	24.60302	-98.12868	1.41346
31.2292	6774.75	24.55169	-98.05617	1.420571
31.28319	6769.666	24.4734	-97.98473	1.423761
31.33717	6764.531	24.37023	-97.91464	1.423304
31.39116	6759.345	24.24847	-97.84612	1.419582
31.44515	6754.1	24.11366	-97.77935	1.413036
31.49914	6748.799	23.95855	-97.71452	1.404102
31.55312	6743.449	23.7729	-97.65178	1.393195
31.60711	6738.06	23.55157	-97.59127	1.380651
31.6611	6732.647	23.29213	-97.53312	1.366785
31.71508	6727.229	23.00458	-97.47741	1.351847
31.76907	6721.829	22.703	-97.42422	1.336057
31.82306	6716.463	22.39342	-97.37359	1.319584
31.87704	6711.139	22.08223	-97.32555	1.302544
31.93103	6705.854	21.78235	-97.28008	1.284979
31.98502	6700.603	21.50246	-97.23716	1.266894
32.03901	6695.378	21.25513	-97.19669	1.248293
32.09299	6690.166	21.05444	-97.15855	1.229183
32.14698	6684.949	20.91399	-97.12253	1.209617
32.20097	6679.714	20.84134	-97.0884	1.189698
32.25496	6674.459	20.82833	-97.05591	1.169584
32.30894	6669.183	20.85687	-97.02473	1.149528
32.36293	6663.891	20.90764	-96.99454	1.129841
32.41692	6658.59	20.96787	-96.96502	1.110953
32.47091	6653.291	21.02487	-96.93582	1.09343
32.52489	6647.999	21.06856	-96.90664	1.077954
32.57888	6642.717	21.09069	-96.87718	1.065266
32.63287	6637.452	21.08864	-96.8472	1.05614
32.68685	6632.209	21.06961	-96.81649	1.051351
32.74084	6626.987	21.04037	-96.78488	1.051601
32.79483	6621.778	21.0113	-96.75227	1.057442
32.84881	6616.576	20.99154	-96.7185	1.069214
32.9028	6611.375	20.99149	-96.6835	1.087021
32.95679	6606.172	21.02478	-96.64716	1.110692
33.01078	6600.968	21.09378	-96.60937	1.139792
33.06476	6595.761	21.19443	-96.57005	1.173593
33.11875	6590.545	21.32012	-96.52915	1.211154
33.17274	6585.314	21.46062	-96.48664	1.251379
33.22672	6580.056	21.60758	-96.44256	1.293048
33.28071	6574.763	21.75273	-96.39698	1.334914
33.3347	6569.435	21.88467	-96.35001	1.375749
33.38868	6564.081	21.99417	-96.30182	1.414406
33.44267	6558.718	22.07382	-96.25257	1.449869
33.49666	6553.364	22.11577	-96.20251	1.481282
33.55065	6548.034	22.11244	-96.15187	1.507966
33.60463	6542.741	22.05795	-96.10089	1.529394
33.65862	6537.491	21.95308	-96.04982	1.54518
33.71261	6532.288	21.81214	-95.99882	1.555111
33.76659	6527.126	21.65619	-95.94801	1.559119
33.82058	6521.997	21.50979	-95.89749	1.557259
33.87457	6516.899	21.39158	-95.84727	1.549673
33.92855	6511.828	21.30816	-95.79734	1.536547
33.98254	6506.776	21.2591	-95.74765	1.518083
34.03653	6501.73	21.24113	-95.69807	1.494499
34.09052	6496.679	21.25096	-95.64847	1.466003
34.1445	6491.616	21.28711	-95.59868	1.432852
34.19849	6486.534	21.34013	-95.54853	1.395363
34.25248	6481.436	21.39306	-95.49787	1.353877
34.30647	6476.325	21.43095	-95.44653	1.308783
34.36045	6471.205	21.44774	-95.39436	1.260503
34.41444	6466.077	21.44311	-95.34119	1.20951
34.46843	6460.943	21.42276	-95.28683	1.156404
34.52242	6455.811	21.39167	-95.23117	1.101862
34.5764	6450.693	21.35225	-95.17407	1.04668
34.63039	6445.601	21.30815	-95.11548	0.9916728
34.68438	6440.537	21.25879	-95.05534	0.9376934
34.73836	6435.498	21.2038	-94.99365	0.8855143
34.79235	6430.473	21.1404	-94.93047	0.8358293
34.84634	6425.454	21.06663	-94.86581	0.789209
34.90033	6420.426	20.9867	-94.79971	0.7461094
34.95431	6415.38	20.9011	-94.73218	0.7068765
35.0083	6410.31	20.80178	-94.66319	0.6716989
35.06229	6405.208	20.67341	-94.59274	0.6406568
35.11627	6400.079	20.50095	-94.52083	0.6137025
35.17026	6394.926	20.28124	-94.44746	0.5907586
35.22425	6389.757	20.01807	-94.37266	0.5717415
35.27823	6384.575	19.71701	-94.2965	0.5566366
35.33222	6379.383	19.38197	-94.2191	0.5455112
35.38621	6374.188	19.01769	-94.14058	0.5385668
35.4402	6368.997	18.63684	-94.0611	0.5361238
35.49418	6363.818	18.25422	-93.98086	0.5385824
35.54817	6358.659	17.88483	-93.90001	0.5463923
35.60216	6353.526	17.54098	-93.81873	0.5599929
35.65614	6348.426	17.23073	-93.73709	0.5797637
35.71013	6343.354	16.96402	-93.65517	0.6059673
35.76412	6338.299	16.75325	-93.57296	0.6387376
35.8181	6333.246	16.61003	-93.49041	0.6780102
35.87209	6328.184	16.54153	-93.40746	0.7235305
35.92608	6323.102	16.54996	-93.32404	0.7748412
35.98007	6317.992	16.62653	-93.24008	0.831273
36.03405	6312.854	16.75923	-93.15554	0.8920357
36.08804	6307.684	16.94205	-93.07038	0.9562333
36.14203	6302.489	17.16824	-92.98462	1.022924
36.19601	6297.282	17.42994	-92.89829	1.091188
36.25	6292.084	17.7232	-92.81148	1.160174
36.30399	6286.925	18.04063	-92.72429	1.229094
36.35798	6281.823	18.3822	-92.63687	1.297271
36.41196	6276.778	18.74933	-92.54939	1.364134
36.46595	6271.784	19.14399	-92.46202	1.42922
36.51994	6266.833	19.56623	-92.37492	1.492201
36.57393	6261.914	20.00967	-92.28825	1.552861
36.62791	6257.015	20.45869	-92.20213	1.611102
36.6819	6252.123	20.89346	-92.11672	1.666895
36.73589	6247.228	21.29408	-92.03215	1.720281
36.78988	6242.319	21.64375	-91.94861	1.771313
36.84386	6237.397	21.92954	-91.86627	1.820077
36.89785	6232.464	22.14657	-91.78533	1.866674
36.95184	6227.53	22.28518	-91.706	1.911223
37.00582	6222.604	22.33286	-91.6285	1.953826
37.05981	6217.699	22.27819	-91.55311	1.994513
37.1138	6212.827	22.1185	-91.48006	2.033244
37.16778	6207.988	21.86338	-91.40961	2.069889
37.22177	6203.181	21.53034	-91.34198	2.104245
37.27576	6198.396	21.14771	-91.2774	2.136075
37.32975	6193.616	20.73996	-91.21606	2.165126
37.38373	6188.83	20.32337	-91.15819	2.191157
37.43772	6184.029	19.90988	-91.10394	2.213986
37.49171	6179.209	19.50297	-91.05341	2.233446
37.54569	6174.368	19.10444	-91.00661	2.24945
37.59968	6169.503	18.71429	-90.96349	2.261983
37.65367	6164.614	18.33303	-90.92384	2.2711
37.70765	6159.709	17.96144	-90.88744	2.276962
37.76164	6154.8	17.59772	-90.854	2.279777
37.81563	6149.894	17.24695	-90.8232	2.279767
37.86962	6144.995	16.91516	-90.79472	2.277123
37.9236	6140.112	16.60419	-90.76826	2.271963
37.97759	6135.255	16.3156	-90.74355	2.264313
38.03158	6130.431	16.05564	-90.72033	2.254083
38.08556	6125.639	15.83218	-90.69838	2.241072
38.13955	6120.873	15.64751	-90.67747	2.224981
38.19354	6116.124	15.50119	-90.65739	2.205426
38.24752	6111.383	15.3933	-90.63792	2.181975
38.30151	6106.641	15.32592	-90.61884	2.154199
38.3555	6101.888	15.30018	-90.5999	2.121675
38.40949	6097.114	15.31531	-90.58091	2.084024
38.46347	6092.313	15.37238	-90.56164	2.040909
38.51746	6087.486	15.46699	-90.54185	1.99206
38.57145	6082.637	15.58101	-90.52131	1.937294
38.62543	6077.77	15.68636	-90.49973	1.876578
38.67942	6072.889	15.7578	-90.47683	1.810044
38.73341	6067.991	15.78024	-90.45237	1.738017
38.7874	6063.076	15.74044	-90.42612	1.661028
38.84138	6058.143	15.63377	-90.39792	1.579784
38.89537	6053.189	15.45998	-90.36761	1.495221
38.94936	6048.214	15.22531	-90.33508	1.408425
39.00335	6043.218	14.94231	-90.30029	1.320644
39.05733	6038.208	14.62442	-90.26326	1.233223
39.11132	6033.195	14.28657	-90.22403	1.147562
39.16531	6028.187	13.94673	-90.1827	1.065074
39.2193	6023.188	13.62731	-90.13939	0.987137
39.27328	6018.196	13.3551	-90.09422	0.9150549
39.32727	6013.199	13.15285	-90.04733	0.8499562
39.38126	6008.188	13.0354	-89.99887	0.7927138
39.43524	6003.16	13.00431	-89.94897	0.7438
39.48923	5998.116	13.04233	-89.8977	0.7032182
39.54322	5993.057	13.12027	-89.84506	0.670433
39.5972	5987.991	13.21182	-89.79105	0.6444142
39.65119	5982.932	13.29747	-89.7356	0.623773
39.70518	5977.901	13.3625	-89.67861	0.606923
39.75917	5972.915	13.40858	-89.62	0.5922318
39.81315	5967.979	13.44279	-89.55968	0.5781891
39.86714	5963.088	13.47073	-89.49757	0.5634845
39.92113	5958.229	13.50367	-89.43361	0.5470749
39.97511	5953.388	13.55359	-89.36775	0.528212
40.0291	5948.561	13.63894	-89.29999	0.5065004
40.08309	5943.747	13.77348	-89.23034	0.4819112
40.13707	5938.949	13.95766	-89.15886	0.454843
40.19106	5934.165	14.18747	-89.08563	0.4262491
40.24505	5929.393	14.45216	-89.0108	0.3978185
40.29904	5924.632	14.73526	-88.93451	0.3721704
40.35302	5919.878	15.01873	-88.85691	0.3529085
40.40701	5915.125	15.29106	-88.77814	0.3442815
40.461	5910.366	15.54568	-88.69837	0.3500958
40.51498	5905.602	15.77604	-88.61773	0.3722031
40.56897	5900.841	15.97188	-88.53636	0.4098238
40.62296	5896.094	16.12447	-88.45441	0.4602509
40.67694	5891.368	16.2328	-88.37205	0.5201834
40.73093	5886.668	16.30159	-88.28945	0.5865397
40.78492	5881.999	16.3331	-88.20684	0.6567858
40.83891	5877.357	16.3254	-88.12442	0.7289355
40.89289	5872.745	16.2744	-88.04241	0.8014669
40.94688	5868.157	16.17977	-87.96103	0.8732182
41.00087	5863.578	16.04963	-87.8805	0.9433168
41.05486	5858.992	15.89301	-87.80109	1.011137
41.10884	5854.392	15.71881	-87.72307	1.076258
41.16283	5849.777	15.53705	-87.64672	1.138409
41.21682	5845.152	15.34806	-87.5723	1.197463
41.27081	5840.519	15.14808	-87.50008	1.253372
41.32479	5835.881	14.93884	-87.4303	1.306141
41.37878	5831.241	14.72772	-87.36314	1.355775
41.43277	5826.599	14.52695	-87.29879	1.402257
41.48676	5821.948	14.34194	-87.23742	1.445496
41.54074	5817.276	14.1767	-87.17916	1.485326
41.59473	5812.571	14.03372	-87.12415	1.521476
41.64872	5807.83	13.90918	-87.07248	1.553595
41.7027	5803.063	13.79859	-87.02421	1.581267
41.75669	5798.288	13.69881	-86.97934	1.604046
41.81068	5793.521	13.60793	-86.93781	1.6215
41.86466	5788.781	13.52832	-86.89946	1.633247
41.91865	5784.065	13.46214	-86.86407	1.638988
41.97264	5779.374	13.40976	-86.83136	1.638554
42.02663	5774.709	13.36694	-86.80096	1.631903
42.08061	5770.07	13.32702	-86.77254	1.619177
42.1346	5765.45	13.28314	-86.7457	1.600672
42.18859	5760.836	13.23149	-86.72009	1.576827
42.24257	5756.214	13.17061	-86.6954	1.548192
42.29656	5751.575	13.0996	-86.67133	1.515384
42.35055	5746.913	13.01938	-86.64758	1.479015
42.40453	5742.229	12.92931	-86.6238	1.439667
42.45852	5737.524	12.82532	-86.59969	1.397872
42.51251	5732.804	12.70056	-86.57491	1.354132
42.5665	5728.077	12.54443	-86.54916	1.308925
42.62048	5723.346	12.34762	-86.52216	1.262692
42.67447	5718.615	12.10849	-86.49364	1.215838
42.72846	5713.887	11.8295	-86.46335	1.16873
42.78244	5709.159	11.5138	-86.43103	1.121729
42.83643	5704.435	11.16629	-86.39642	1.075184
42.89042	5699.717	10.79335	-86.35929	1.029474
42.9444	5695.011	10.41321	-86.31937	0.9849936
42.99839	5690.323	10.04718	-86.27644	0.9421414
43.05238	5685.648	9.708599	-86.23028	0.901285
43.10637	5680.984	9.409093	-86.18071	0.8627068
43.16035	5676.326	9.157951	-86.12757	0.8265979
43.21434	5671.662	8.963768	-86.07071	0.7930045
43.26833	5666.982	8.834154	-86.00997	0.7618592
43.32232	5662.28	8.771275	-85.94528	0.7329302
43.3763	5657.556	8.772187	-85.87659	0.7058811
43.43029	5652.817	8.821228	-85.80392	0.6802526
43.48428	5648.078	8.900604	-85.72742	0.6555345
43.53827	5643.351	9.000138	-85.6473	0.6312317
43.59225	5638.643	9.117344	-85.56387	0.6068768
43.64624	5633.959	9.252633	-85.47753	0.5820932
43.70023	5629.303	9.408624	-85.38872	0.556677
43.75421	5624.673	9.59306	-85.2979	0.5306305
43.8082	5620.07	9.81631	-85.20553	0.5042352
43.86219	5615.492	10.08448	-85.11209	0.4780858
43.91618	5610.931	10.39658	-85.01801	0.4530709
43.97016	5606.378	10.74831	-84.92372	0.4303624
44.02415	5601.824	11.13164	-84.82957	0.4112877
44.07814	5597.262	11.53209	-84.73583	0.3971672
44.13212	5592.687	11.93063	-84.64278	0.3890742
44.18611	5588.097	12.31169	-84.55061	0.3875496
44.2401	5583.488	12.65836	-84.45955	0.3924714
44.29408	5578.861	12.95369	-84.36978	0.4030226
44.34807	5574.216	13.18272	-84.28149	0.4179331
44.40206	5569.558	13.33582	-84.19482	0.4356872
44.45605	5564.893	13.41055	-84.10989	0.4548004
44.51003	5560.238	13.40765	-84.02679	0.4739502
44.56402	5555.609	13.33029	-83.94562	0.4920935
44.61801	5551.025	13.18583	-83.86639	0.5084528
44.67199	5546.497	12.98635	-83.78913	0.5225963
44.72598	5542.022	12.74685	-83.71378	0.5343873
44.77997	5537.587	12.47847	-83.64024	0.5439776
44.83395	5533.172	12.19279	-83.56841	0.5517681
44.88794	5528.753	11.90539	-83.49815	0.5583758
44.94193	5524.324	11.63666	-83.4293	0.5645996
44.99592	5519.879	11.40555	-83.3617	0.5713277
45.0499	5515.427	11.21363	-83.29517	0.5794615
45.10389	5510.976	11.04974	-83.22952	0.5898286
45.15788	5506.54	10.89904	-83.16451	0.6030794
45.21186	5502.124	10.75042	-83.0999	0.6195952
45.26585	5497.733	10.60335	-83.03542	0.6394431
45.31984	5493.364	10.46695	-82.97083	0.6623689
45.37383	5489.016	10.34706	-82.90589	0.6878315
45.42781	5484.686	10.25054	-82.84048	0.7150449
45.4818	5480.373	10.18578	-82.77454	0.7430884
45.53579	5476.076	10.1569	-82.70811	0.7709371
45.58978	5471.785	10.16418	-82.6413	0.7975469
45.64376	5467.49	10.20753	-82.57428	0.8218844
45.69775	5463.19	10.28783	-82.50729	0.8429778
45.75174	5458.879	10.4078	-82.44057	0.8599953
45.80573	5454.557	10.56494	-82.3744	0.8722485
45.85971	5450.221	10.74658	-82.30906	0.8792068
45.9137	5445.871	10.93403	-82.24483	0.8805516
45.96769	5441.504	11.11209	-82.18202	0.8761687
46.02167	5437.12	11.26631	-82.12086	0.8662021
46.07566	5432.71	11.3816	-82.06157	0.8510517
46.12965	5428.274	11.44715	-82.00431	0.8313701
46.18363	5423.809	11.45634	-81.94919	0.8080601
46.23762	5419.314	11.40248	-81.89628	0.7822636
46.29161	5414.793	11.27987	-81.84564	0.7553071
46.3456	5410.251	11.08321	-81.79729	0.7286285
46.39958	5405.686	10.81483	-81.75124	0.7036672
46.45357	5401.092	10.4845	-81.7075	0.6817807
46.50756	5396.465	10.1085	-81.66599	0.6640688
46.56154	5391.815	9.705641	-81.62661	0.651272
46.61553	5387.165	9.295153	-81.58921	0.6436822
46.66952	5382.536	8.897584	-81.55359	0.6411033
46.7235	5377.947	8.53032	-81.51951	0.6428859
46.77749	5373.402	8.203819	-81.48666	0.6479895
46.83148	5368.898	7.921899	-81.45475	0.6551481
46.88547	5364.427	7.690625	-81.42345	0.662991
46.93945	5359.979	7.521667	-81.39243	0.6701844
46.99344	5355.545	7.418951	-81.36137	0.6755226
47.04743	5351.119	7.376554	-81.32992	0.6779757
47.10141	5346.704	7.384469	-81.29773	0.6766963
47.1554	5342.306	7.430119	-81.26442	0.6710268
47.20939	5337.93	7.506194	-81.2296	0.6604818
47.26337	5333.581	7.608649	-81.19283	0.6447529
47.31736	5329.265	7.731287	-81.15368	0.6237293
47.37135	5324.98	7.87228	-81.11176	0.597531
47.42534	5320.725	8.034326	-81.06677	0.566563
47.47932	5316.493	8.219554	-81.01849	0.5316041
47.53331	5312.278	8.425078	-80.9668	0.4939035
47.5873	5308.069	8.64708	-80.91175	0.455391
47.64128	5303.855	8.884007	-80.85343	0.4189306
47.69527	5299.63	9.138417	-80.79204	0.3885915
47.74926	5295.39	9.413307	-80.72786	0.3695591
47.80325	5291.139	9.711143	-80.66122	0.3671361
47.85723	5286.88	10.02634	-80.59248	0.3846603
47.91122	5282.613	10.34851	-80.52206	0.4218884
47.96521	5278.332	10.66353	-80.45042	0.4756006
48.0192	5274.023	10.9579	-80.37804	0.5415341
48.07318	5269.676	11.22339	-80.30544	0.6157295
48.12717	5265.283	11.45272	-80.23316	0.6949483
48.18116	5260.845	11.64214	-80.16177	0.7766547
48.23515	5256.372	11.78864	-80.09181	0.8588217
48.28913	5251.878	11.88697	-80.02383	0.9398044
48.34312	5247.386	11.93037	-79.95835	1.018259
48.39711	5242.91	11.91322	-79.89584	1.093065
48.45109	5238.467	11.83336	-79.8367	1.163323
48.50508	5234.062	11.69457	-79.78128	1.228366
48.55907	5229.695	11.50064	-79.7298	1.287712
48.61305	5225.363	11.25668	-79.68244	1.341058
48.66704	5221.064	10.97103	-79.63923	1.388273
48.72103	5216.792	10.65543	-79.60018	1.429383
48.77502	5212.547	10.31985	-79.56522	1.46457
48.829	5208.325	9.970789	-79.53421	1.494172
48.88299	5204.117	9.619336	-79.50701	1.51863
48.93698	5199.908	9.275737	-79.48342	1.538481
48.99096	5195.687	8.94987	-79.46318	1.554288
49.04495	5191.444	8.649231	-79.44605	1.5666
49.09894	5187.18	8.3862	-79.43173	1.575878
49.15292	5182.894	8.17491	-79.41994	1.582472
49.20691	5178.595	8.027689	-79.41032	1.586608
49.2609	5174.293	7.950571	-79.40253	1.588344
49.31489	5170.007	7.94471	-79.3962	1.587615
49.36887	5165.749	8.006317	-79.39093	1.584195
49.42286	5161.522	8.127472	-79.38635	1.577758
49.47685	5157.327	8.292129	-79.3821	1.567892
49.53083	5153.161	8.47718	-79.37786	1.55412
49.58482	5149.013	8.659727	-79.37331	1.535957
49.63881	5144.878	8.822852	-79.36819	1.512896
49.69279	5140.742	8.958567	-79.36224	1.484445
49.74678	5136.592	9.067777	-79.35526	1.450181
49.80077	5132.417	9.15742	-79.34703	1.409705
49.85476	5128.216	9.237451	-79.33736	1.362701
49.90874	5123.994	9.314161	-79.32606	1.308921
49.96273	5119.758	9.38752	-79.31297	1.248211
50.01672	5115.512	9.454643	-79.29796	1.180488
50.07071	5111.262	9.510318	-79.28094	1.105842
50.12469	5107.007	9.545383	-79.26184	1.024462
50.17868	5102.747	9.548385	-79.24065	0.93671
50.23267	5098.48	9.504552	-79.2174	0.843116
50.28666	5094.203	9.400024	-79.19215	0.7443303
50.34064	5089.907	9.223594	-79.16495	0.6411295
50.39463	5085.594	8.963586	-79.13584	0.5343805
50.44862	5081.276	8.622558	-79.10484	0.4250428
50.5026	5076.959	8.215808	-79.07188	0.3141147
50.55659	5072.645	7.765295	-79.03687	0.2026713
50.61058	5068.327	7.301779	-78.99963	0.09202391
50.66457	5063.999	6.858036	-78.95999	0.02312846
50.71855	5059.655	6.465194	-78.91774	0.1268984
50.77254	5055.292	6.142223	-78.87268	0.2307468
50.82653	5050.912	5.898198	-78.82463	0.3307438
50.88051	5046.517	5.733702	-78.77341	0.4259893
50.9345	5042.11	5.648103	-78.71886	0.5157303
50.98849	5037.691	5.630458	-78.66081	0.599288
51.04247	5033.267	5.664261	-78.59907	0.6760199
51.09646	5028.848	5.733718	-78.53345	0.7453621
51.15045	5024.445	5.826446	-78.46378	0.8068216
51.20444	5020.069	5.932816	-78.38993	0.8599874
51.25842	5015.723	6.044898	-78.31179	0.9045082
51.31241	5011.412	6.160637	-78.22935	0.9401474
51.3664	5007.138	6.284872	-78.14263	0.9667503
51.42038	5002.894	6.42398	-78.05172	0.9842842
51.47437	4998.669	6.585162	-77.95676	0.9928243
51.52836	4994.454	6.772842	-77.85793	0.9925852
51.58234	4990.242	6.987335	-77.75552	0.9838796
51.63633	4986.033	7.228887	-77.64981	0.9671218
51.69032	4981.826	7.495493	-77.54119	0.9428291
51.74431	4977.618	7.783176	-77.43005	0.911615
51.79829	4973.406	8.088962	-77.31683	0.8742337
51.85228	4969.185	8.40666	-77.202	0.8315616
51.90627	4964.949	8.725746	-77.08604	0.7845654
51.96025	4960.701	9.033828	-76.96947	0.7342807
52.01424	4956.445	9.318224	-76.85277	0.6817299
52.06823	4952.193	9.566972	-76.73642	0.6279033
52.12222	4947.95	9.772371	-76.62091	0.573731
52.1762	4943.727	9.933579	-76.50671	0.5200093
52.23019	4939.528	10.05882	-76.39428	0.4673703
52.28418	4935.354	10.15446	-76.28407	0.4162442
52.33817	4931.202	10.22316	-76.17648	0.3668582
52.39215	4927.074	10.26657	-76.07185	0.319278
52.44614	4922.97	10.28602	-75.97051	0.2734672
52.50013	4918.891	10.28388	-75.87266	0.2294973
52.55412	4914.834	10.26566	-75.77844	0.1878868
52.6081	4910.8	10.22983	-75.68795	0.1504143
52.66209	4906.79	10.17784	-75.6012	0.1218101
52.71608	4902.801	10.1133	-75.51818	0.1112889
52.77006	4898.833	10.0378	-75.43882	0.1262052
52.82405	4894.886	9.953627	-75.36308	0.1621208
52.87804	4890.958	9.865489	-75.2909	0.2105595
52.93202	4887.055	9.777508	-75.22221	0.2663378
52.98601	4883.171	9.689117	-75.1569	0.32678
53.04	4879.303	9.597535	-75.09483	0.3902982
53.09399	4875.445	9.502831	-75.03579	0.4556807
53.14797	4871.595	9.408615	-74.97958	0.5218594
53.20196	4867.747	9.318526	-74.92592	0.5878161
53.25595	4863.898	9.233023	-74.87454	0.6525421
53.30993	4860.048	9.153934	-74.82516	0.715081
53.36392	4856.191	9.080208	-74.77747	0.7745131
53.41791	4852.32	9.011442	-74.7312	0.82995
53.47189	4848.434	8.944284	-74.68607	0.8805922
53.52588	4844.533	8.873391	-74.64185	0.9257084
53.57987	4840.625	8.796508	-74.59832	0.9646712
53.63386	4836.718	8.713194	-74.55537	0.9969694
53.68784	4832.816	8.624974	-74.51293	1.022218
53.74183	4828.922	8.534832	-74.47093	1.040167
53.79582	4825.034	8.44495	-74.42937	1.050709
53.8498	4821.144	8.355232	-74.38827	1.053868
53.90379	4817.241	8.263611	-74.34766	1.049793
53.95778	4813.315	8.168446	-74.30757	1.038717
54.01176	4809.355	8.070598	-74.26804	1.021001
54.06575	4805.355	7.968453	-74.22907	0.9970887
54.11974	4801.313	7.856402	-74.1907	0.9675456
54.17373	4797.23	7.729345	-74.15292	0.9330496
54.22771	4793.109	7.584894	-74.11575	0.8944148
54.2817	4788.956	7.419753	-74.07912	0.8525953
54.33569	4784.784	7.228673	-74.04297	0.8086532
54.38968	4780.598	7.00604	-74.00719	0.7637445
54.44366	4776.401	6.754926	-73.97167	0.7190635
54.49765	4772.195	6.489628	-73.93627	0.6758036
54.55164	4767.987	6.226483	-73.90083	0.6350872
54.60563	4763.783	5.97848	-73.86522	0.5979209
54.65961	4759.593	5.754049	-73.82927	0.565066
54.7136	4755.419	5.555803	-73.79282	0.537004
54.76759	4751.259	5.382777	-73.75569	0.5138022
54.82157	4747.104	5.236224	-73.71777	0.4950841
54.87556	4742.949	5.118438	-73.6789	0.4800312
54.92955	4738.786	5.025949	-73.63895	0.4674757
54.98354	4734.616	4.952356	-73.59778	0.4560037
55.03752	4730.443	4.89296	-73.55527	0.4441708
55.09151	4726.276	4.84944	-73.51128	0.4305567
55.1455	4722.128	4.829314	-73.46568	0.4139225
55.19948	4718.019	4.83686	-73.41834	0.3932751
55.25347	4713.965	4.872027	-73.36912	0.3678474
55.30746	4709.977	4.933112	-73.31785	0.3371409
55.36145	4706.049	5.019303	-73.26443	0.3009401
55.41543	4702.168	5.131062	-73.20873	0.2593193
55.46942	4698.322	5.271051	-73.15073	0.2127863
55.52341	4694.499	5.441575	-73.09038	0.1627301
55.57739	4690.69	5.643983	-73.0277	0.1131906
55.63138	4686.886	5.879157	-72.96275	0.07913495
55.68537	4683.079	6.148109	-72.89559	0.09343392
55.73935	4679.262	6.45216	-72.82635	0.1479514
55.79334	4675.434	6.785391	-72.7552	0.2169499
55.84733	4671.601	7.132467	-72.68226	0.2917982
55.90132	4667.765	7.475673	-72.60774	0.3694485
55.9553	4663.925	7.808184	-72.53184	0.448205
56.00929	4660.081	8.129728	-72.45476	0.5268011
56.06328	4656.229	8.437063	-72.37675	0.6041043
56.11726	4652.367	8.727399	-72.29807	0.6790999
56.17125	4648.493	8.996741	-72.21891	0.7508325
56.22524	4644.61	9.242847	-72.13946	0.8184468
56.27922	4640.727	9.457765	-72.0598	0.8811868
56.33321	4636.854	9.624602	-71.97996	0.9384382
56.3872	4632.995	9.727338	-71.89989	0.9896997
56.44119	4629.158	9.757723	-71.8195	1.034647
56.49517	4625.342	9.717199	-71.73865	1.073093
56.54916	4621.547	9.614076	-71.65719	1.105
56.60315	4617.769	9.461059	-71.57499	1.130455
56.65714	4614.006	9.273802	-71.49194	1.149716
56.71112	4610.249	9.067032	-71.40801	1.163176
56.76511	4606.498	8.852119	-71.32316	1.171405
56.8191	4602.751	8.640893	-71.23743	1.175124
56.87309	4599.011	8.435691	-71.15089	1.175186
56.92707	4595.271	8.232535	-71.06364	1.172586
56.98106	4591.529	8.032885	-70.97581	1.168419
57.03505	4587.776	7.840846	-70.88757	1.163752
57.08903	4584.012	7.660054	-70.79907	1.1596
57.14302	4580.229	7.493172	-70.71052	1.156812
57.19701	4576.422	7.345427	-70.6221	1.156008
57.251	4572.592	7.225277	-70.53399	1.157514
57.30498	4568.743	7.141975	-70.44636	1.161388
57.35897	4564.876	7.098118	-70.35936	1.16735
57.41296	4560.992	7.090096	-70.27314	1.174878
57.46694	4557.097	7.114525	-70.18783	1.183207
57.52093	4553.198	7.165883	-70.10353	1.191418
57.57492	4549.302	7.237359	-70.02033	1.198552
57.6289	4545.41	7.317502	-69.93824	1.203619
57.68289	4541.519	7.395859	-69.85725	1.205701
57.73688	4537.624	7.462164	-69.77734	1.203982
57.79087	4533.723	7.50429	-69.69839	1.197757
57.84485	4529.814	7.513397	-69.62029	1.186507
57.89884	4525.894	7.489505	-69.5429	1.169891
57.95283	4521.964	7.436379	-69.46603	1.147791
58.00681	4518.026	7.359741	-69.38953	1.120317
58.0608	4514.083	7.262996	-69.31321	1.087844
58.11479	4510.146	7.149144	-69.23692	1.050976
58.16877	4506.228	7.022657	-69.16045	1.010636
58.22276	4502.341	6.888167	-69.08352	0.968057
58.27675	4498.493	6.745438	-69.00585	0.9248272
58.33074	4494.681	6.588568	-68.9271	0.8828655
58.38472	4490.901	6.411432	-68.8469	0.8444195
58.43871	4487.15	6.212092	-68.76485	0.811951
58.4927	4483.432	5.991646	-68.6805	0.7879038
58.54668	4479.746	5.753523	-68.5934	0.7743947
58.60067	4476.091	5.504558	-68.5031	0.7727665
58.65466	4472.464	5.257021	-68.40916	0.7832888
58.70864	4468.865	5.025219	-68.31123	0.8051012
58.76263	4465.296	4.824514	-68.20898	0.8364054
58.81662	4461.761	4.666468	-68.1022	0.874825
58.87061	4458.255	4.552451	-67.99075	0.9177796
58.92459	4454.774	4.47818	-67.87458	0.9627277
58.97858	4451.313	4.436285	-67.75373	1.007308
59.03257	4447.868	4.412211	-67.62833	1.049428
59.08656	4444.438	4.384041	-67.49863	1.087301
59.14054	4441.015	4.335617	-67.36496	1.119405
59.19453	4437.586	4.26218	-67.22765	1.144538
59.24852	4434.145	4.171501	-67.08715	1.161793
59.30251	4430.685	4.077625	-66.94392	1.17055
59.35649	4427.199	3.990794	-66.79847	1.170465
59.41048	4423.685	3.921459	-66.65131	1.16147
59.46447	4420.14	3.88153	-66.50294	1.143737
59.51845	4416.564	3.880437	-66.35391	1.117684
59.57244	4412.956	3.927884	-66.20473	1.083922
59.62643	4409.313	4.030964	-66.05586	1.043214
59.68042	4405.645	4.193643	-65.90778	0.9964991
59.7344	4401.96	4.411848	-65.76086	0.9448384
59.78839	4398.268	4.674899	-65.61552	0.8894107
59.84238	4394.572	4.96988	-65.47206	0.8315303
59.89636	4390.878	5.27996	-65.33076	0.7726766
59.95035	4387.185	5.592958	-65.19183	0.7144767
60.00434	4383.486	5.904343	-65.05541	0.6587043
60.05832	4379.777	6.209343	-64.92158	0.60723
60.11231	4376.059	6.507247	-64.79028	0.5620146
60.1663	4372.336	6.799023	-64.66131	0.5249246
60.22029	4368.62	7.08219	-64.53439	0.4974837
60.27427	4364.923	7.352113	-64.40909	0.4805253
60.32826	4361.257	7.607841	-64.28486	0.4739195
60.38225	4357.633	7.842532	-64.16106	0.4765108
60.43623	4354.067	8.050415	-64.0369	0.4863639
60.49022	4350.568	8.226408	-63.91151	0.5012333
60.54421	4347.138	8.366698	-63.78393	0.5189375
60.59819	4343.768	8.466984	-63.65313	0.5376594
60.65218	4340.446	8.526821	-63.51805	0.5559821
60.70617	4337.16	8.550235	-63.37758	0.5729319
60.76016	4333.904	8.54155	-63.23064	0.5879259
60.81414	4330.667	8.498454	-63.07615	0.6006826
60.86813	4327.438	8.419619	-62.91311	0.6112133
60.92212	4324.203	8.305718	-62.74053	0.6197263
60.9761	4320.954	8.157924	-62.55756	0.6265842
61.03009	4317.692	7.979668	-62.36342	0.6322685
61.08408	4314.416	7.776786	-62.15741	0.6372957
61.13807	4311.13	7.561524	-61.93896	0.6422004
61.19205	4307.839	7.352064	-61.70755	0.6474593
61.24604	4304.541	7.168835	-61.46283	0.6534404
61.30003	4301.236	7.030322	-61.20453	0.6603636
61.35402	4297.923	6.949379	-60.93252	0.6682469
61.408	4294.602	6.927576	-60.64677	0.6769306
61.46199	4291.273	6.955614	-60.34732	0.6860538
61.51598	4287.938	7.018051	-60.03432	0.6951239
61.56997	4284.6	7.097458	-59.70799	0.7035271
61.62395	4281.257	7.176557	-59.36862	0.7105992
61.67794	4277.915	7.237043	-59.01653	0.7156349
61.73193	4274.577	7.270678	-58.65208	0.717925
61.78591	4271.246	7.273736	-58.2757	0.7167575
61.8399	4267.921	7.242765	-57.88787	0.7114813
61.89389	4264.604	7.178251	-57.48914	0.7014986
61.94787	4261.297	7.08331	-57.08007	0.6862626
62.00186	4258.003	6.961699	-56.66126	0.6653754
62.05585	4254.721	6.818108	-56.23325	0.6385953
62.10984	4251.452	6.65748	-55.7966	0.6059673
62.16382	4248.197	6.483084	-55.35175	0.5678514
62.21781	4244.961	6.295895	-54.89906	0.5250809
62.2718	4241.744	6.100571	-54.4388	0.4791228
62.32578	4238.542	5.902797	-53.97113	0.4324823
62.37977	4235.354	5.705258	-53.49609	0.3890958
62.43376	4232.176	5.507987	-53.01357	0.35489
62.48774	4229.002	5.312514	-52.5233	0.3374831
62.54173	4225.835	5.1211	-52.02494	0.3437488
62.59572	4222.682	4.935081	-51.51798	0.3757713
62.64971	4219.555	4.757519	-51.00185	0.4299449
62.70369	4216.465	4.594776	-50.47583	0.5002714
62.75768	4213.434	4.455765	-49.93914	0.5812644
62.81167	4210.477	4.351498	-49.39086	0.6687872
62.86565	4207.599	4.287792	-48.83003	0.7598366
62.91964	4204.8	4.263329	-48.25562	0.8521847
62.97363	4202.08	4.268404	-47.66651	0.9440874
63.02761	4199.434	4.289113	-47.06157	1.034133
63.0816	4196.862	4.313214	-46.43959	1.12115
63.13559	4194.358	4.33069	-45.79935	1.204118
63.18958	4191.916	4.337005	-45.13958	1.282156
63.24356	4189.534	4.337744	-44.45905	1.354511
63.29755	4187.215	4.344755	-43.75652	1.420521
63.35154	4184.954	4.371402	-43.03075	1.479648
63.40553	4182.75	4.426048	-42.28056	1.531469
63.45951	4180.596	4.515666	-41.50474	1.575658
63.5135	4178.491	4.642937	-40.70214	1.612029
63.56749	4176.433	4.809919	-39.87163	1.64056
63.62148	4174.422	5.012637	-39.0121	1.661335
63.67546	4172.458	5.241559	-38.12246	1.674631
63.72945	4170.547	5.481861	-37.2017	1.680864
63.78344	4168.683	5.718934	-36.24878	1.680628
63.83742	4166.861	5.942625	-35.26274	1.674659
63.89141	4165.069	6.14447	-34.24267	1.663888
63.9454	4163.302	6.32293	-33.18767	1.649291
63.99939	4161.542	6.482433	-32.09694	1.631962
64.05338	4159.776	6.629234	-30.96968	1.612993
64.10736	4157.989	6.768604	-29.80515	1.593425
64.16135	4156.176	6.907424	-28.60257	1.574165
64.21533	4154.337	7.054295	-27.36128	1.555901
64.26932	4152.481	7.219487	-26.08051	1.539138
64.32331	4150.623	7.407809	-24.75953	1.52413
64.3773	4148.779	7.619287	-23.39756	1.510993
64.43128	4146.959	7.851687	-21.99382	1.499568
64.48527	4145.173	8.104605	-20.54741	1.489644
64.53925	4143.434	8.368768	-19.05744	1.480842
64.59325	4141.752	8.628846	-17.52286	1.472761
64.64723	4140.131	8.867372	-15.94264	1.464895
64.70122	4138.581	9.070293	-14.31562	1.456906
64.7552	4137.111	9.229599	-12.64059	1.448446
64.80919	4135.725	9.340004	-10.91618	1.439345
64.86318	4134.422	9.396836	-9.141085	1.429413
64.91717	4133.199	9.395291	-7.313713	1.418712
64.97115	4132.057	9.341072	-5.432499	1.407388
65.02514	4131	9.244456	-3.495736	1.395814
65.07912	4130.031	9.114156	-1.501662	1.384541
65.13312	4129.153	8.958177	0.5514956	1.374185
65.1871	4128.372	8.788186	2.665626	1.365737
65.24109	4127.696	8.620687	4.842673	1.360188
65.29507	4127.14	8.471798	7.084653	1.358807
65.34906	4126.722	8.351752	9.393524	1.362711
65.40305	4126.456	8.260694	11.77139	1.373209
65.45704	4126.349	8.193821	14.22036	1.391377
65.51102	4126.406	8.145425	16.74256	1.418287
65.56501	4126.629	8.117055	19.34011	1.454451
65.619	4127.019	8.113915	22.01524	1.500383
65.67299	4127.581	8.135561	24.77015	1.556197
65.72697	4128.315	8.176794	27.60716	1.621932
65.78096	4129.222	8.230779	30.52848	1.697247
65.83495	4130.296	8.292489	33.53644	1.782016
65.88893	4131.534	8.358454	36.63335	1.875893
65.94292	4132.932	8.429834	39.82157	1.978749
65.99691	4134.489	8.508254	43.10344	2.090482
66.0509	4136.209	8.603129	46.48119	2.210946
66.10488	4138.096	8.719786	49.9572	2.340232
66.15887	4140.161	8.854852	53.53369	2.478436
66.21286	4142.416	9.000607	57.21304	2.625712
66.26685	4144.873	9.147738	60.99737	2.782071
66.32083	4147.54	9.289378	64.88902	2.947721
66.37482	4150.427	9.420611	68.89023	3.122711
66.4288	4153.531	9.538795	73.00335	3.307184
66.4828	4156.849	9.64158	77.23055	3.501055
66.53678	4160.374	9.724078	81.5743	3.704308
66.59077	4164.101	9.781703	86.03694	3.916786
66.64475	4168.025	9.812365	90.62099	4.138384
66.69874	4172.146	9.818046	95.32899	4.368897
66.75273	4176.464	9.804981	100.1635	4.607925
66.80672	4180.988	9.780657	105.1273	4.85509
66.8607	4185.723	9.752473	110.2232	5.110096
66.91469	4190.679	9.729272	115.4545	5.372416
66.96867	4195.861	9.720757	120.8241	5.641311
67.02267	4201.281	9.730926	126.3355	5.916025
67.07665	4206.947	9.758215	131.9923	6.195929
67.13064	4212.872	9.803892	137.7983	6.480188
67.18462	4219.063	9.877007	143.7571	6.767802
67.23861	4225.529	9.992265	149.8729	7.057903
67.2926	4232.275	10.16361	156.1498	7.349819
67.34659	4239.308	10.39799	162.5923	7.642808
67.40057	4246.633	10.6951	169.2047	7.936016
67.45456	4254.267	11.0482	175.9916	8.228798
67.50854	4262.217	11.45039	182.9579	8.520759
67.56254	4270.487	11.8907	190.1082	8.811293
67.61652	4279.086	12.35902	197.4478	9.100004
67.67051	4288.025	12.84566	204.9814	9.386213
67.72449	4297.321	13.3426	212.7138	9.669756
67.77848	4306.992	13.8484	220.6504	9.950129
67.83247	4317.057	14.36619	228.7959	10.22702
67.88646	4327.532	14.90263	237.1548	10.49976
67.94044	4338.428	15.45852	245.7315	10.76784
67.99443	4349.752	16.04234	254.5303	11.03087
68.04842	4361.511	16.66325	263.5546	11.28862
68.10241	4373.71	17.32848	272.8077	11.53989
68.15639	4386.358	18.04299	282.2922	11.7842
68.21038	4399.469	18.81034	292.0101	12.02113
68.26437	4413.055	19.62697	301.9625	12.24993
68.31835	4427.131	20.4862	312.1501	12.47006
68.37234	4441.719	21.37609	322.5716	12.68098
68.42633	4456.834	22.28234	333.2263	12.88218
68.48032	4472.493	23.18933	344.1116	13.07319
68.5343	4488.714	24.08886	355.2243	13.25386
68.58829	4505.518	24.97824	366.5598	13.42359
68.64228	4522.926	25.85668	378.1131	13.58206
68.69627	4540.955	26.72828	389.8777	13.72964
68.75025	4559.619	27.59987	401.8468	13.86574
68.80424	4578.928	28.47869	414.0122	13.99003
68.85822	4598.887	29.37078	426.3652	14.10219
68.91222	4619.507	30.28389	438.8964	14.20217
68.9662	4640.799	31.22095	451.5956	14.28944
69.02019	4662.777	32.18319	464.4519	14.36356
69.07417	4685.451	33.16911	477.4539	14.42373
69.12816	4708.839	34.17459	490.5899	14.46967
69.18215	4732.956	35.18842	503.8474	14.50072
69.23614	4757.823	36.19701	517.2132	14.51632
69.29012	4783.458	37.18974	530.6739	14.5158
69.34411	4809.888	38.16039	544.2153	14.49888
69.39809	4837.133	39.10558	557.823	14.46504
69.45209	4865.229	40.02353	571.4821	14.41397
69.50607	4894.205	40.91203	585.1768	14.34526
69.56006	4924.094	41.76845	598.8914	14.25851
69.61404	4954.92	42.59508	612.6095	14.15354
69.66803	4986.712	43.40067	626.3141	14.03003
69.72202	5019.489	44.19249	639.9882	13.88764
69.77601	5053.274	44.97897	653.6136	13.72617
69.82999	5088.085	45.77322	667.1723	13.54533
69.88398	5123.945	46.58982	680.6452	13.34487
69.93797	5160.869	47.44803	694.0129	13.12472
69.99196	5198.877	48.35471	707.2555	12.88464
70.04594	5237.983	49.30494	720.3522	12.62442
70.09993	5278.207	50.28347	733.2818	12.34402
70.15392	5319.569	51.27618	746.0223	12.04328
70.2079	5362.091	52.26615	758.5513	11.72244
70.26189	5405.777	53.23832	770.8456	11.38164
70.31588	5450.629	54.18451	782.8812	11.02056
70.36987	5496.628	55.0914	794.6333	10.63962
70.42385	5543.742	55.94206	806.0771	10.23936
70.47784	5591.923	56.72711	817.187	9.820378
70.53183	5641.117	57.44638	827.9366	9.382717
70.58582	5691.261	58.10394	838.2995	8.927195
70.6398	5742.289	58.70857	848.2496	8.454591
70.69379	5794.128	59.26897	857.7599	7.966487
70.74777	5846.703	59.79497	866.8036	7.463453
70.80177	5899.931	60.29808	875.3547	6.947187
70.85575	5953.73	60.79409	883.387	6.419228
70.90974	6008.028	61.28111	890.8758	5.883176
70.96372	6062.762	61.74795	897.797	5.340656
71.01771	6117.889	62.18357	904.1271	4.79685
71.0717	6173.373	62.58886	909.8444	4.257061
71.12569	6229.183	62.96542	914.9292	3.730594
71.17967	6285.294	63.31019	919.3629	3.230451
71.23366	6341.695	63.61392	923.128	2.77628
71.28764	6398.378	63.86517	926.2104	2.399831
71.34164	6455.337	64.05741	928.5972	2.147429
71.39562	6512.563	64.19401	930.2779	2.066382
71.44961	6570.051	64.28369	931.2437	2.174623
71.50359	6627.794	64.33866	931.4886	2.445003
71.55758	6685.785	64.37067	931.0093	2.82724
71.61157	6744.007	64.39465	929.8053	3.278862
71.66556	6802.447	64.41988	927.8764	3.769473
71.71954	6861.075	64.44864	925.2267	4.281
71.77353	6919.855	64.47468	921.8618	4.802118
71.82751	6978.737	64.48656	917.7901	5.324807
71.88151	7037.661	64.47692	913.0215	5.843492
71.93549	7096.563	64.43521	907.5685	6.356492
71.98948	7155.383	64.34103	901.4443	6.860048
72.04346	7214.048	64.16515	894.6658	7.352103
72.09745	7272.484	63.87856	887.2504	7.831262
72.15144	7330.606	63.45406	879.2169	8.297143
72.20543	7388.325	62.8708	870.5853	8.748518
72.25941	7445.54	62.1282	861.3787	9.185449
72.3134	7502.149	61.2385	851.619	9.606444
72.36739	7558.036	60.21828	841.3295	10.01232
72.42138	7613.066	59.08696	830.5347	10.40283
72.47536	7667.104	57.86674	819.2595	10.77835
72.52935	7720.036	56.58715	807.5295	11.13812
72.58334	7771.749	55.27874	795.3703	11.48409
72.63732	7822.145	53.96585	782.8073	11.81557
72.69131	7871.124	52.66657	769.8664	12.13343
72.7453	7918.617	51.39336	756.5735	12.4377
72.79929	7964.559	50.16122	742.9544	12.72877
72.85327	8008.905	48.97685	729.0342	13.00729
72.90726	8051.622	47.83585	714.838	13.27319
72.96125	8092.697	46.72494	700.3912	13.52627
73.01524	8132.13	45.62594	685.7184	13.7663
73.06922	8169.947	44.52367	670.8441	13.99313
73.12321	8206.174	43.40933	655.7925	14.20616
73.17719	8240.843	42.27959	640.5878	14.40476
73.23119	8273.984	41.14254	625.2543	14.5882
73.28517	8305.631	40.02063	609.8156	14.75576
73.33916	8335.81	38.93172	594.2957	14.90667
73.39314	8364.555	37.88959	578.7185	15.04005
73.44713	8391.9	36.90855	563.1074	15.15516
73.50112	8417.896	36.0119	547.4861	15.25122
73.55511	8442.594	35.22224	531.8783	15.3274
73.60909	8466.053	34.55095	516.3072	15.38302
73.66308	8488.331	33.98552	500.7959	15.41767
73.71706	8509.49	33.49438	485.3672	15.43091
73.77106	8529.595	33.04264	470.0439	15.42203
73.82504	8548.7	32.60448	454.848	15.39056
73.87903	8566.846	32.16447	439.8008	15.33649
73.93301	8584.078	31.70837	424.9235	15.2597
73.987	8600.45	31.23928	410.2363	15.15992
74.04099	8616.02	30.77281	395.7588	15.0373
74.09498	8630.85	30.31751	381.5093	14.89257
74.14896	8645.004	29.87887	367.5054	14.72638
74.20295	8658.535	29.46037	353.764	14.53919
74.25694	8671.496	29.06195	340.3005	14.33225
74.31093	8683.936	28.6878	327.1294	14.10666
74.36491	8695.886	28.34524	314.2635	13.86433
74.4189	8707.37	28.03731	301.7147	13.60701
74.47289	8718.419	27.75966	289.4936	13.33622
74.52687	8729.064	27.49998	277.6092	13.054
74.58086	8739.335	27.23502	266.0687	12.76277
74.63485	8749.253	26.94414	254.8779	12.46463
74.68884	8758.837	26.61253	244.0414	12.16135
74.74282	8768.121	26.23802	233.562	11.85498
74.79681	8777.117	25.81581	223.4405	11.54784
74.8508	8785.836	25.34666	213.6765	11.24186
74.90479	8794.275	24.84124	204.2682	10.93841
74.95877	8802.452	24.31106	195.212	10.63929
75.01276	8810.376	23.77115	186.5029	10.34577
75.06674	8818.063	23.24117	178.1343	10.05954
75.12074	8825.512	22.74203	170.0988	9.781313
75.17472	8832.741	22.30016	162.3874	9.512123
75.22871	8839.759	21.94419	154.9906	9.252592
75.28269	8846.573	21.6858	147.8974	9.003468
75.33668	8853.173	21.51345	141.0966	8.76509
75.39067	8859.537	21.39528	134.5762	8.537323
75.44466	8865.634	21.30116	128.3239	8.320057
75.49864	8871.441	21.21121	122.3265	8.113176
75.55263	8876.941	21.12588	116.5711	7.91618
75.60661	8882.134	21.05731	111.0447	7.728236
75.66061	8887.026	21.0196	105.7343	7.548589
75.71459	8891.639	21.01993	100.6269	7.37648
75.76858	8895.99	21.06161	95.70981	7.210896
75.82256	8900.095	21.13263	90.97084	7.050569
75.87655	8903.96	21.21277	86.39801	6.894372
75.93054	8907.577	21.28859	81.97988	6.741014
75.98453	8910.931	21.35731	77.70537	6.589383
76.03851	8914.01	21.42304	73.56401	6.438329
76.0925	8916.826	21.49087	69.54601	6.286629
76.14648	8919.396	21.55818	65.64217	6.133312
76.20048	8921.729	21.61723	61.84399	5.97761
76.25446	8923.828	21.64937	58.14382	5.818798
76.30845	8925.7	21.63776	54.53484	5.656209
76.36243	8927.352	21.57598	51.01104	5.489445
76.41642	8928.798	21.47013	47.56714	5.318312
76.47041	8930.055	21.33921	44.19872	5.142676
76.5244	8931.141	21.19881	40.90212	4.96244
76.57838	8932.063	21.0603	37.6743	4.777768
76.63237	8932.834	20.92415	34.51293	4.588865
76.68636	8933.484	20.78848	31.41621	4.396179
76.74035	8934.051	20.64594	28.38301	4.200032
76.79433	8934.563	20.49448	25.41259	4.000988
76.84832	8935.029	20.33149	22.50463	3.799602
76.90231	8935.458	20.15692	19.65907	3.596602
76.95629	8935.853	19.9672	16.87607	3.392723
77.01028	8936.219	19.75813	14.15594	3.188671
77.06427	8936.552	19.5148	11.49895	2.985262
77.11826	8936.843	19.22466	8.905336	2.783379
77.17224	8937.09	18.8749	6.375299	2.583844
77.22623	8937.292	18.46112	3.908943	2.387419
77.28022	8937.46	17.98919	1.50614	2.194925
77.33421	8937.601	17.47385	-0.8335059	2.007193
77.38819	8937.714	16.93398	-3.110613	1.824911
77.44218	8937.785	16.39301	-5.326079	1.64863
77.49616	8937.789	15.86864	-7.481165	1.478903
77.55016	8937.693	15.37679	-9.577346	1.316118
77.60414	8937.477	14.92671	-11.61634	1.16065
77.65813	8937.115	14.52623	-13.60004	1.012721
77.71211	8936.595	14.18704	-15.53044	0.8724179
77.7661	8935.898	13.9086	-17.40971	0.7398059
77.82009	8935.015	13.67809	-19.24011	0.6149123
77.87408	8933.935	13.47436	-21.02388	0.4976196
77.92806	8932.646	13.2695	-22.76324	0.387711
77.98205	8931.131	13.04428	-24.46047	0.2850294
78.03603	8929.37	12.80069	-26.11778	0.1895806
78.09003	8927.372	12.56201	-27.7373	0.1022784
78.14401	8925.156	12.36016	-29.321	0.03752535
78.198	8922.74	12.2357	-30.87067	0.07742781
78.25198	8920.139	12.21365	-32.38787	0.1484155
78.30597	8917.369	12.30693	-33.87389	0.2188587
78.35996	8914.453	12.51749	-35.32961	0.2873567
78.41395	8911.413	12.83798	-36.75557	0.3542568
78.46793	8908.275	13.25834	-38.15191	0.420186
78.52192	8905.059	13.75781	-39.51839	0.4857497
78.5759	8901.772	14.31591	-40.85446	0.5515199
78.6299	8898.432	14.92291	-42.15924	0.6180313
78.68388	8895.054	15.56623	-43.43152	0.6857228
78.73787	8891.665	16.22796	-44.66988	0.7549357
78.79185	8888.305	16.88086	-45.87262	0.8259394
78.84584	8885.004	17.49423	-47.03793	0.8989207
78.89983	8881.785	18.04064	-48.16388	0.9739349
78.95382	8878.673	18.51189	-49.2486	1.050889
79.0078	8875.688	18.91631	-50.29026	1.129566
79.06179	8872.837	19.27704	-51.28712	1.209627
79.11578	8870.11	19.62063	-52.23767	1.290601
79.16977	8867.486	19.95642	-53.14058	1.371952
79.22375	8864.943	20.28659	-53.9949	1.453051
79.27774	8862.446	20.60515	-54.79992	1.533288
79.33173	8859.961	20.89759	-55.55534	1.612018
79.38571	8857.445	21.15052	-56.26118	1.688621
79.4397	8854.861	21.35771	-56.91792	1.762478
79.49369	8852.167	21.51653	-57.52636	1.833013
79.54768	8849.325	21.62025	-58.08768	1.899675
79.60166	8846.303	21.65309	-58.6034	1.961962
79.65565	8843.09	21.60945	-59.07531	2.01942
79.70964	8839.689	21.50142	-59.50544	2.071687
79.76363	8836.121	21.34529	-59.89599	2.118502
79.81761	8832.4	21.16143	-60.24928	2.159704
79.8716	8828.557	20.97077	-60.56771	2.195257
79.92558	8824.608	20.78958	-60.85364	2.225273
79.97958	8820.56	20.63237	-61.10939	2.25004
80.03356	8816.406	20.50312	-61.33723	2.27002
80.08755	8812.164	20.39425	-61.53934	2.28583
80.14153	8807.856	20.2986	-61.71778	2.298224
80.19552	8803.511	20.20573	-61.87457	2.308072
80.24951	8799.146	20.09716	-62.01148	2.316309
80.3035	8794.781	19.95894	-62.13018	2.323921
80.35748	8790.434	19.78516	-62.23207	2.33189
80.41147	8786.135	19.58013	-62.31829	2.341121
80.46545	8781.914	19.34792	-62.38962	2.35237
80.51945	8777.779	19.08979	-62.44655	2.366228
80.57343	8773.734	18.8286	-62.48927	2.383063
80.62742	8769.793	18.60183	-62.51775	2.402958
80.6814	8765.979	18.44022	-62.53166	2.425735
80.73539	8762.307	18.37281	-62.53048	2.45105
80.78938	8758.784	18.41725	-62.51349	2.478378
80.84337	8755.402	18.57641	-62.47995	2.507149
80.89735	8752.154	18.83602	-62.42898	2.536672
80.95134	8749.038	19.16459	-62.35977	2.566293
81.00533	8746.053	19.52047	-62.27155	2.595334
81.05932	8743.184	19.87705	-62.16373	2.62317
81.1133	8740.406	20.21195	-62.03591	2.649165
81.16729	8737.69	20.5112	-61.888	2.672687
81.22128	8735.005	20.76921	-61.7203	2.693132
81.27526	8732.328	20.98598	-61.53358	2.709904
81.32925	8729.643	21.16511	-61.32909	2.722378
81.38324	8726.926	21.31631	-61.1086	2.72992
81.43723	8724.162	21.45895	-60.87435	2.731934
81.49121	8721.337	21.6201	-60.6291	2.727873
81.5452	8718.438	21.81957	-60.37607	2.717245
81.59919	8715.453	22.06078	-60.11883	2.699611
81.65318	8712.379	22.33854	-59.86127	2.674651
81.70716	8709.217	22.63977	-59.60748	2.642181
81.76115	8705.978	22.95064	-59.36165	2.602191
81.81513	8702.68	23.25058	-59.12801	2.554862
81.86913	8699.342	23.51659	-58.91077	2.500571
81.92311	8695.973	23.72872	-58.714	2.439889
81.9771	8692.569	23.87014	-58.54159	2.373546
82.03108	8689.127	23.92497	-58.39712	2.302447
82.08507	8685.643	23.8833	-58.28394	2.227657
82.13906	8682.121	23.74614	-58.20499	2.15032
82.19305	8678.572	23.52455	-58.16294	2.071621
82.24703	8675.004	23.2363	-58.16005	1.992796
82.30102	8671.429	22.90339	-58.19831	1.91507
82.355	8667.874	22.55273	-58.27922	1.839579
82.409	8664.381	22.20435	-58.40392	1.767329
82.46298	8660.973	21.86652	-58.57305	1.699265
82.51697	8657.662	21.54728	-58.78691	1.636218
82.57095	8654.463	21.25645	-59.04525	1.578788
82.62494	8651.379	20.995	-59.34756	1.527418
82.67893	8648.414	20.75435	-59.69288	1.482302
82.73292	8645.554	20.51931	-60.07998	1.443484
82.7869	8642.778	20.27601	-60.50735	1.410842
82.84089	8640.066	20.0111	-60.97324	1.384019
82.89487	8637.407	19.71001	-61.47564	1.362438
82.94887	8634.796	19.35633	-62.01243	1.345377
83.00285	8632.235	18.95247	-62.58134	1.332017
83.05684	8629.744	18.51581	-63.18003	1.321414
83.11082	8627.332	18.07243	-63.80605	1.312611
83.16481	8625.001	17.64683	-64.45716	1.304713
83.2188	8622.739	17.26247	-65.13126	1.296861
83.27279	8620.542	16.93426	-65.82645	1.288235
83.32677	8618.384	16.66564	-66.5412	1.278059
83.38076	8616.223	16.45278	-67.27423	1.265653
83.43475	8614.01	16.2958	-68.02477	1.250431
83.48874	8611.708	16.19806	-68.79242	1.23194
83.54272	8609.274	16.15236	-69.57725	1.20982
83.59671	8606.683	16.14191	-70.37967	1.183862
83.6507	8603.903	16.14575	-71.20049	1.15396
83.70468	8600.915	16.13908	-72.0409	1.120066
83.75867	8597.708	16.10517	-72.90229	1.082189
83.81266	8594.278	16.04067	-73.78625	1.040399
83.86665	8590.618	15.95929	-74.69456	0.9948794
83.92063	8586.727	15.88284	-75.62907	0.9460067
83.97462	8582.625	15.82594	-76.59164	0.8943309
84.02861	8578.332	15.80448	-77.58408	0.8406277
84.0826	8573.868	15.82605	-78.60808	0.785971
84.13658	8569.249	15.89358	-79.66518	0.7318546
84.19057	8564.497	16.00466	-80.75662	0.6803696
84.24455	8559.632	16.15752	-81.88345	0.6344312
84.29855	8554.67	16.35594	-83.04639	0.5978784
84.35253	8549.627	16.59855	-84.24588	0.5752597
84.40652	8544.498	16.8683	-85.48208	0.5710303
84.4605	8539.274	17.13747	-86.75477	0.588192
84.51449	8533.95	17.38536	-88.06343	0.6272395
84.56848	8528.535	17.60329	-89.40726	0.6862837
84.62247	8523.052	17.79111	-90.7853	0.7621266
84.67645	8517.528	17.95696	-92.19631	0.8512691
84.73044	8511.994	18.11584	-93.63898	0.9505113
84.78442	8506.47	18.2888	-95.11179	1.057211
84.83842	8500.962	18.48755	-96.61312	1.169245
84.8924	8495.474	18.7177	-98.14118	1.284856
84.94639	8489.999	18.96992	-99.69411	1.402596
85.00037	8484.538	19.22402	-101.2698	1.521287
85.05436	8479.091	19.45461	-102.8662	1.639974
85.10835	8473.662	19.63965	-104.481	1.757861
85.16234	8468.249	19.76278	-106.1118	1.874337
85.21632	8462.849	19.81739	-107.7562	1.988938
85.27031	8457.454	19.79846	-109.4117	2.101307
85.3243	8452.041	19.70775	-111.0758	2.211208
85.37829	8446.576	19.56049	-112.746	2.318438
85.43227	8441.019	19.38157	-114.4198	2.422868
85.48626	8435.346	19.19857	-116.0949	2.524427
85.54025	8429.533	19.03452	-117.7691	2.623093
85.59423	8423.584	18.90281	-119.4405	2.718854
85.64822	8417.494	18.8049	-121.1073	2.811708
85.70221	8411.284	18.72906	-122.7679	2.901643
85.7562	8404.961	18.65723	-124.4209	2.988673
85.81018	8398.561	18.57766	-126.0651	3.072826
85.86417	8392.099	18.48388	-127.6995	3.154117
85.91816	8385.605	18.37141	-129.3232	3.232516
85.97215	8379.079	18.23789	-130.9353	3.307999
86.02613	8372.522	18.08603	-132.5353	3.380504
86.08012	8365.907	17.92053	-134.1224	3.449947
86.1341	8359.207	17.75307	-135.696	3.516287
86.1881	8352.38	17.5972	-137.2554	3.579468
86.24208	8345.401	17.47816	-138.7999	3.639396
86.29607	8338.245	17.43355	-140.3285	3.696018
86.35005	8330.912	17.49611	-141.8403	3.749294
86.40404	8323.402	17.67247	-143.334	3.799117
86.45803	8315.723	17.94245	-144.8085	3.845397
86.51202	8307.868	18.27607	-146.2622	3.888039
86.566	8299.836	18.64595	-147.6937	3.926935
86.61999	8291.616	19.02635	-149.1014	3.96194
86.67397	8283.227	19.39895	-150.484	3.992799
86.72797	8274.69	19.74665	-151.8397	4.019208
86.78195	8266.035	20.05305	-153.1672	4.040709
86.83594	8257.263	20.30399	-154.465	4.056888
86.88992	8248.378	20.49397	-155.7315	4.067223
86.94391	8239.374	20.63104	-156.9652	4.071171
86.9979	8230.24	20.73276	-158.1648	4.068251
87.05189	8220.964	20.82937	-159.3289	4.058078
87.10587	8211.538	20.94069	-160.4561	4.040269
87.15986	8201.963	21.07997	-161.5453	4.0145
87.21384	8192.244	21.24454	-162.5952	3.980608
87.26784	8182.391	21.42488	-163.6049	3.938632
87.32182	8172.424	21.60968	-164.5734	3.888671
87.37581	8162.369	21.80099	-165.4999	3.830874
87.42979	8152.257	21.9981	-166.3835	3.765592
87.48378	8142.111	22.196	-167.2238	3.693156
87.53777	8131.947	22.3861	-168.0205	3.614121
87.59176	8121.781	22.56106	-168.7735	3.528871
87.64574	8111.629	22.71886	-169.4828	3.437933
87.69973	8101.496	22.85527	-170.1487	3.341783
87.75372	8091.375	22.97088	-170.7718	3.240991
87.80771	8081.261	23.06988	-171.3529	3.136114
87.86169	8071.15	23.16224	-171.8927	3.027648
87.91568	8061.036	23.26152	-172.3922	2.916215
87.96967	8050.91	23.37393	-172.8529	2.802519
88.02365	8040.773	23.4951	-173.276	2.687243
88.07764	8030.626	23.61978	-173.6631	2.571042
88.13163	8020.474	23.73745	-174.0158	2.454635
88.18562	8010.327	23.83525	-174.3361	2.338845
88.2396	8000.206	23.89906	-174.6258	2.224396
88.29359	7990.12	23.92711	-174.887	2.112022
88.34758	7980.084	23.93116	-175.1218	2.002506
88.40157	7970.109	23.92207	-175.3322	1.896603
88.45555	7960.222	23.89447	-175.5205	1.795052
88.50954	7950.438	23.83988	-175.6889	1.698539
88.56352	7940.772	23.75808	-175.8397	1.60766
88.61752	7931.225	23.66128	-175.9751	1.523036
88.6715	7921.803	23.5651	-176.0974	1.445313
88.72549	7912.492	23.47947	-176.2088	1.375094
88.77947	7903.28	23.40404	-176.3114	1.313061
88.83346	7894.139	23.33168	-176.4072	1.259999
88.88745	7885.055	23.24942	-176.498	1.216785
88.94144	7876.006	23.14457	-176.5856	1.184406
88.99542	7866.997	23.014	-176.6715	1.163955
89.04941	7858.019	22.86073	-176.757	1.156515
89.10339	7849.074	22.69959	-176.8436	1.163118
89.15739	7840.141	22.54595	-176.9321	1.18467
89.21137	7831.214	22.40983	-177.0238	1.221678
89.26536	7822.278	22.28956	-177.1194	1.274223
89.31934	7813.347	22.18483	-177.2198	1.341807
89.37333	7804.425	22.09224	-177.3256	1.423467
89.42732	7795.532	22.00303	-177.4374	1.517831
89.48131	7786.658	21.90335	-177.5557	1.62324
89.53529	7777.804	21.78075	-177.6807	1.73783
89.58928	7768.947	21.63088	-177.8128	1.859678
89.64326	7760.087	21.45341	-177.952	1.98677
89.69726	7751.197	21.25308	-178.0984	2.117143
89.75124	7742.261	21.04024	-178.2519	2.248917
89.80523	7733.252	20.82451	-178.4121	2.380347
89.85921	7724.167	20.62164	-178.5785	2.509797
89.9132	7714.994	20.44403	-178.7507	2.635777
89.96719	7705.746	20.29982	-178.9278	2.756933
90.02118	7696.422	20.18965	-179.1091	2.87206
90.07516	7687.027	20.11247	-179.2938	2.980088
90.12915	7677.563	20.06574	-179.4808	3.079947
90.18314	7668.036	20.03659	-179.6692	3.170713
90.23713	7658.444	20.00296	-179.8582	3.251449
90.29111	7648.792	19.95183	-180.0466	3.321324
90.3451	7639.07	19.88558	-180.2335	3.379517
90.39909	7629.273	19.80842	-180.4181	3.425242
90.45308	7619.386	19.71816	-180.5993	3.457895
90.50706	7609.4	19.61033	-180.7762	3.476957
90.56105	7599.308	19.48345	-180.948	3.482072
90.61504	7589.121	19.3429	-181.1137	3.47304
90.66902	7578.849	19.20377	-181.2723	3.449824
90.72301	7568.5	19.08273	-181.4231	3.412615
90.777	7558.081	18.99587	-181.5651	3.361764
90.83099	7547.601	18.94822	-181.6975	3.297828
90.88497	7537.065	18.93563	-181.8195	3.221533
90.93896	7526.482	18.94737	-181.9303	3.133769
90.99295	7515.868	18.96404	-182.0296	3.035453
91.04694	7505.233	18.97054	-182.1167	2.927562
91.10092	7494.585	18.95695	-182.1912	2.811127
91.15491	7483.924	18.91245	-182.2527	2.687205
91.20889	7473.248	18.82344	-182.3009	2.556805
91.26289	7462.566	18.68127	-182.3354	2.42093
91.31687	7451.893	18.48848	-182.3563	2.280595
91.37086	7441.25	18.2491	-182.3635	2.136672
91.42484	7430.654	17.97185	-182.3571	1.989922
91.47883	7420.118	17.669	-182.3376	1.841008
91.53282	7409.648	17.35582	-182.3053	1.690463
91.58681	7399.262	17.04737	-182.2607	1.538693
91.64079	7388.978	16.74911	-182.2043	1.386009
91.69478	7378.805	16.45957	-182.1366	1.232592
91.74876	7368.74	16.17215	-182.0581	1.07857
91.80276	7358.774	15.88348	-181.9696	0.923956
91.85674	7348.892	15.59418	-181.8717	0.7687477
91.91073	7339.077	15.30999	-181.7653	0.6129219
91.96471	7329.315	15.03285	-181.6511	0.4565063
92.0187	7319.591	14.76354	-181.5299	0.2996093
92.07269	7309.903	14.50396	-181.4027	0.1426885
92.12668	7300.245	14.25949	-181.2704	0.02585384
92.18066	7290.619	14.03718	-181.1338	0.1760939
92.23465	7281.034	13.84532	-180.9938	0.3338397
92.28864	7271.511	13.69266	-180.8515	0.4917116
92.34263	7262.063	13.58956	-180.7078	0.6491996
92.39661	7252.705	13.55246	-180.5639	0.8055251
92.4506	7243.43	13.59597	-180.5329	0.9007536
92.50459	7234.233	13.72616	-180.5188	0.9926264
92.55857	7225.092	13.93117	-180.5149	1.0829
92.61256	7215.993	14.19314	-180.5157	1.173212
92.66655	7206.901	14.49612	-180.5173	1.264592
92.72054	7197.792	14.8326	-180.5179	1.357541
92.77452	7188.639	15.19393	-180.5164	1.452147
92.82851	7179.442	15.57173	-180.5126	1.548322
92.8825	7170.197	15.95939	-180.5066	1.645829
92.93649	7160.928	16.35345	-180.499	1.744397
92.99047	7151.644	16.74575	-180.4901	1.843741
93.04446	7142.372	17.1299	-180.4804	1.943586
93.09844	7133.117	17.49908	-180.4706	2.043665
93.15244	7123.9	17.8449	-180.461	2.143763
93.20642	7114.716	18.15829	-180.452	2.243666
93.26041	7105.571	18.43117	-180.4442	2.343195
93.31439	7096.45	18.65507	-180.4379	2.442185
93.36838	7087.357	18.82914	-180.4335	2.540515
93.42237	7078.258	18.95827	-180.4312	2.638051
93.47636	7069.12	19.0499	-180.4315	2.734701
93.53034	7059.89	19.11852	-180.4345	2.830391
93.58433	7050.544	19.18402	-180.4405	2.925023
93.63831	7041.08	19.26313	-180.4497	3.018552
93.69231	7031.491	19.36718	-180.4624	3.110926
93.74629	7021.776	19.50339	-180.4787	3.202101
93.80028	7011.971	19.67711	-180.4988	3.292044
93.85426	7002.086	19.88246	-180.5229	3.38073
93.90825	6992.118	20.10817	-180.551	3.468133
93.96224	6982.05	20.34542	-180.5833	3.554255
94.01623	6971.883	20.58056	-180.6199	3.63909
94.07021	6961.364	20.77407	-180.6608	3.722628
94.1242	6950.964	20.94674	-180.7061	3.804893
94.17818	6940.67	21.10881	-180.7558	3.885887
94.23218	6930.435	21.2669	-180.81	3.965608
94.28616	6920.225	21.42483	-180.8686	4.044076
94.34015	6910.021	21.58383	-180.9316	4.121326
94.39413	6899.813	21.74477	-180.999	4.197358
94.44812	6889.596	21.90747	-181.0708	4.272202
94.50211	6879.367	22.0716	-181.1468	4.345881
94.5561	6869.126	22.23686	-181.2271	4.418424
94.61008	6858.873	22.40219	-181.3115	4.489867
94.66407	6848.609	22.56745	-181.4001	4.560227
94.71806	6838.335	22.73148	-181.4926	4.62956
94.77205	6828.052	22.89437	-181.589	4.697883
94.82603	6817.76	23.05531	-181.6893	4.765244
94.88002	6807.464	23.21527	-181.7932	4.831675
94.93401	6797.168	23.37331	-181.9007	4.897238
94.98799	6786.88	23.52936	-182.0116	4.961974
