T[Â°C]	350nm [counts / mm]	S.D.
19.99899	6795.682	
19.99925	6810.563	
19.99961	6802.402	
20.00878	6797.185	
20.01102	6813.558	
20.03153	6801.146	
20.03522	6791.926	
20.06198	6796.391	
20.06689	6795.429	
20.10082	6790.653	
20.1067	6778.522	
20.14884	6772.078	
20.15585	6779.589	
20.20217	6774.906	
20.2104	6782.388	
20.26554	6764.915	
20.27474	6778.69	
20.33619	6765.875	
20.34611	6769.262	
20.41344	6755.391	
20.42466	6761.441	
20.49792	6735.073	
20.50898	6728.022	
20.58289	6732.978	
20.59572	6742.703	
20.67973	6742.024	
20.69269	6735.375	
20.77784	6728.141	
20.79135	6715.638	
20.87719	6717.534	
20.89145	6701.083	
20.98483	6706.928	
20.99936	6721.262	
21.09115	6696.013	
21.10575	6702.296	
21.19955	6676.756	
21.21515	6689.611	
21.30807	6677.657	
21.32279	6675.671	
21.41912	6654.657	
21.43493	6648.767	
21.53062	6647.011	
21.5456	6644.599	
21.63811	6627.258	
21.65263	6629.475	
21.74838	6630.042	
21.76281	6617.244	
21.8568	6632.504	
21.87237	6614.301	
21.96616	6617.426	
21.98104	6589.732	
22.07754	6593.828	
22.09288	6598.688	
22.18467	6590.453	
22.19887	6583.666	
22.29486	6576.816	
22.31011	6585.577	
22.40435	6576.407	
22.41917	6573.436	
22.51488	6555.268	
22.53029	6543.969	
22.62237	6543.617	
22.63676	6538.642	
22.73151	6535.655	
22.74666	6549.467	
22.84277	6525.284	
22.85718	6525.854	
22.95095	6509.643	
22.96602	6518.835	
23.0612	6495.347	
23.076	6516.505	
23.17034	6496.392	
23.1848	6498.008	
23.27856	6482.188	
23.29485	6483.896	
23.3891	6463.378	
23.40413	6454.707	
23.49989	6463.063	
23.51486	6439.427	
23.60846	6461.549	
23.62282	6452.371	
23.71756	6438.846	
23.73281	6441.395	
23.82711	6435.684	
23.84137	6439.979	
23.93507	6424.629	
23.94951	6423.963	
24.04672	6412.365	
24.06214	6412.677	
24.1561	6416.877	
24.17083	6397.498	
24.26492	6387.331	
24.27986	6369.522	
24.37442	6385.882	
24.38934	6384.762	
24.48492	6368.505	
24.50004	6348.348	
24.59222	6374.108	
24.60723	6358.488	
24.70343	6347.504	
24.71781	6357.781	
24.81377	6337.286	
24.82874	6349.622	
24.92179	6324.947	
24.93634	6338.684	
25.03099	6329.195	
25.04561	6323.58	
25.14207	6322.769	
25.15731	6313.328	
25.25137	6306.191	
25.26571	6290.141	
25.36015	6284.459	
25.37496	6287.124	
25.47034	6277.185	
25.48557	6277.751	
25.58032	6272.46	
25.59478	6254.998	
25.68724	6259.739	
25.70223	6258.637	
25.79776	6245.234	
25.81344	6244.531	
25.90934	6228.589	
25.92387	6237.784	
26.01703	6227.017	
26.03187	6219.619	
26.12702	6212.604	
26.14177	6223.357	
26.23679	6213.499	
26.25183	6189.628	
26.34824	6206.796	
26.36319	6201.291	
26.45438	6195.053	
26.47227	6186.699	
26.56561	6168.805	
26.58052	6169.952	
26.67496	6170.814	
26.68946	6163.532	
26.78226	6160.863	
26.79663	6156.653	
26.89351	6143.123	
26.90855	6145.512	
27.00182	6140.67	
27.01626	6123.529	
27.11239	6109.025	
27.12677	6110.426	
27.22129	6104.103	
27.23649	6118.228	
27.33176	6100.877	
27.34597	6097.63	
27.43961	6087.538	
27.45417	6085.433	
27.54992	6078.103	
27.56443	6091.613	
27.66036	6067.34	
27.67488	6062.73	
27.77071	6061.696	
27.78522	6048.754	
27.88044	6049.746	
27.89584	6065.699	
27.98965	6043.48	
28.004	6041.136	
28.09772	6039.724	
28.11424	6029.831	
28.21093	6033.128	
28.2256	6020.629	
28.31676	6019.437	
28.33128	6017.753	
28.42664	6007.053	
28.44159	6009.994	
28.53709	5987.236	
28.55169	6009.229	
28.64507	5971.451	
28.66006	5981.177	
28.75477	5976.294	
28.7696	5959.419	
28.86382	5967.441	
28.87842	5961.492	
28.97418	5947.155	
28.98872	5951.477	
29.0846	5940.748	
29.09953	5939.536	
29.19159	5936.49	
29.20616	5938.124	
29.30199	5919.789	
29.31686	5925.835	
29.41205	5913.777	
29.42668	5911.803	
29.52016	5905.235	
29.53494	5905.571	
29.63081	5907.669	
29.64596	5892.414	
29.73984	5886.909	
29.75411	5884.691	
29.8496	5870.493	
29.86438	5859.167	
29.95882	5859.809	
29.97392	5852.624	
30.06762	5856.63	
30.0827	5851.629	
30.17598	5848.354	
30.1909	5841.227	
30.28613	5838.661	
30.30119	5840.285	
30.39525	5828.955	
30.41018	5822.888	
30.50621	5818.835	
30.52099	5798.842	
30.61531	5802.645	
30.63012	5805.716	
30.72546	5796.217	
30.7404	5795.853	
30.8353	5762.137	
30.85046	5755.614	
30.94502	5768.348	
30.96042	5763.999	
31.05197	5766.524	
31.0671	5757.215	
31.16328	5753.213	
31.17826	5760.41	
31.2724	5749.787	
31.28712	5747.581	
31.38134	5735.639	
31.39609	5726.077	
31.49036	5728.781	
31.50547	5722.929	
31.59864	5713.898	
31.61386	5714.611	
31.71022	5706.475	
31.72491	5701.379	
31.82003	5693.436	
31.83479	5679.482	
31.9278	5708.828	
31.94421	5678.644	
32.03763	5690.519	
32.05349	5679.509	
32.14741	5668.556	
32.16254	5678.104	
32.25578	5648.544	
32.27228	5652.919	
32.36597	5647.333	
32.38073	5656.032	
32.47646	5632.807	
32.49122	5633.64	
32.58646	5631.628	
32.60105	5617.026	
32.69444	5623.291	
32.70936	5607.312	
32.8041	5613.062	
32.81942	5605.747	
32.91364	5608.848	
32.92835	5594.759	
33.02348	5602.215	
33.03793	5585.877	
33.1314	5586.006	
33.14623	5583.418	
33.24399	5566.659	
33.25864	5557.682	
33.35289	5546.828	
33.36737	5554.847	
33.4617	5550.405	
33.47763	5551.131	
33.57037	5548.129	
33.58524	5540.603	
33.6804	5550.86	
33.69765	5535.811	
33.78811	5518.912	
33.80257	5511.567	
33.89902	5521.33	
33.91407	5502.472	
34.00954	5508.666	
34.02417	5498.24	
34.11708	5494.256	
34.13172	5498.075	
34.22674	5493.382	
34.24159	5482.702	
34.33784	5480.427	
34.35307	5471.372	
34.44615	5464.745	
34.46173	5466.907	
34.55638	5449.881	
34.571	5447.128	
34.66648	5446.585	
34.68115	5438.507	
34.77478	5431.146	
34.78958	5421.845	
34.88295	5423.95	
34.89749	5424.449	
34.99313	5422.387	
35.00788	5417.254	
35.10072	5406.673	
35.11552	5393.614	
35.21242	5395.435	
35.22789	5397.397	
35.32075	5381.572	
35.33565	5386.271	
35.4319	5381.625	
35.44685	5370.355	
35.54149	5381.354	
35.55596	5366.249	
35.64962	5363.281	
35.6643	5351.429	
35.75947	5342.925	
35.77455	5358.713	
35.86846	5347.408	
35.88351	5348.367	
35.97972	5338.209	
35.99407	5327.713	
36.08724	5330.051	
36.10195	5332.971	
36.19696	5300.209	
36.2122	5306.531	
36.30781	5304.106	
36.32256	5294.86	
36.41581	5302.921	
36.4308	5281.547	
36.52516	5286.377	
36.5407	5280.297	
36.63587	5273.523	
36.6508	5272.843	
36.74427	5262.138	
36.75922	5265.335	
36.85405	5263.567	
36.86882	5258.611	
36.96344	5245.577	
36.97959	5245.741	
37.07182	5240.714	
37.08682	5233.393	
37.18443	5229.396	
37.19985	5217.79	
37.29391	5214.851	
37.30849	5211.13	
37.40181	5217.191	
37.41653	5190.996	
37.51093	5210.655	
37.5261	5192.932	
37.62053	5204.44	
37.63549	5179.161	
37.73023	5186.253	
37.74463	5185.827	
37.84034	5176.419	
37.85558	5165.362	
37.94761	5158.135	
37.96241	5152.767	
38.05769	5147.353	
38.07238	5157.394	
38.16702	5139.418	
38.1824	5148.612	
38.27819	5137.429	
38.29292	5147.574	
38.3868	5145.867	
38.40144	5133.423	
38.49611	5121.835	
38.51111	5093.504	
38.60598	5099.636	
38.62088	5109.238	
38.71575	5102.075	
38.73023	5087.951	
38.82209	5096.553	
38.83825	5090.522	
38.93325	5088.455	
38.9483	5076.729	
39.04217	5077.884	
39.0568	5062.563	
39.15345	5078.877	
39.16825	5074.015	
39.2612	5063.083	
39.27599	5056.438	
39.37152	5032.169	
39.38809	5052.498	
39.48076	5029.642	
39.49546	5030.962	
39.59272	5032.454	
39.60705	5017.419	
39.69944	5018.393	
39.71521	5026.195	
39.80963	5000.865	
39.82409	4999.084	
39.91962	5004.839	
39.93413	4997.074	
40.0289	4996.916	
40.04647	4989.181	
40.14248	4984.765	
40.15656	4982.012	
40.25054	4982.21	
40.26628	4967.169	
40.36049	4962.485	
40.37704	4954.985	
40.47169	4959.127	
40.48652	4961.686	
40.57984	4943.393	
40.59474	4925.894	
40.68915	4943.134	
40.70404	4933.044	
40.79822	4936.361	
40.81322	4925.444	
40.90926	4919.744	
40.92383	4909.153	
41.01717	4903.971	
41.03233	4903.974	
41.12776	4897.696	
41.14258	4889.355	
41.23457	4892.829	
41.24917	4900.11	
41.3469	4890.531	
41.36163	4876.989	
41.45544	4889.01	
41.46978	4871.712	
41.56345	4867.997	
41.57868	4858.642	
41.67392	4857.518	
41.68847	4834.411	
41.78492	4851.553	
41.79966	4836.38	
41.89391	4834.165	
41.90836	4835.965	
42.00219	4818.927	
42.01674	4822.513	
42.11207	4813.486	
42.12671	4819.627	
42.22352	4809.168	
42.23828	4815.141	
42.33101	4811.387	
42.347	4797.409	
42.44004	4798.746	
42.45519	4783.552	
42.55151	4783.813	
42.56657	4774.67	
42.66065	4768.111	
42.67511	4767.081	
42.76865	4764.576	
42.78339	4755.308	
42.87975	4775.378	
42.8942	4752.332	
42.9903	4757.398	
43.00496	4746.23	
43.09778	4740.002	
43.11281	4749.376	
43.20728	4724.659	
43.22238	4732.988	
43.31671	4712.528	
43.33193	4730.141	
43.42602	4716.186	
43.4407	4711.602	
43.5346	4702.545	
43.54972	4705.768	
43.64564	4701.661	
43.66115	4694.693	
43.75467	4681.633	
43.76928	4676.45	
43.86304	4674.479	
43.87792	4668.52	
43.97263	4679.501	
43.98739	4666.736	
44.08352	4665.569	
44.09787	4653.531	
44.19235	4653.499	
44.20754	4642.051	
44.30047	4636.895	
44.31541	4635.56	
44.40969	4629.011	
44.42449	4628.421	
44.51966	4623.337	
44.53513	4625.044	
44.62819	4615.008	
44.64226	4612.278	
44.73845	4609.652	
44.75351	4598.62	
44.84856	4590.798	
44.86338	4584.202	
44.95996	4599.21	
44.97403	4575.704	
45.06731	4588.663	
45.08191	4569.2	
45.17601	4591.764	
45.19081	4562.724	
45.28479	4569.317	
45.29967	4557.603	
45.39542	4560.428	
45.41015	4539.455	
45.50488	4547.564	
45.51957	4534.148	
45.61375	4541.665	
45.62861	4539.925	
45.72331	4537.019	
45.73812	4515.885	
45.83415	4518.721	
45.84903	4519.64	
45.9432	4504.243	
45.958	4503.224	
46.0528	4503.941	
46.06775	4503.529	
46.16322	4495.606	
46.17765	4490.461	
46.27227	4477.793	
46.28698	4473.463	
46.38076	4482.573	
46.3956	4478.092	
46.49166	4486.727	
46.507	4466.845	
46.59999	4480.206	
46.61473	4453.599	
46.70998	4461.905	
46.72488	4446.167	
46.8191	4445.292	
46.83321	4450.838	
46.92684	4422.899	
46.94175	4436.571	
47.03823	4425.779	
47.05353	4421.289	
47.14886	4406.44	
47.16344	4414.939	
47.2566	4417.767	
47.27116	4394.443	
47.36699	4410.972	
47.38195	4393.559	
47.47623	4395.73	
47.49094	4393.087	
47.58641	4386.717	
47.6012	4376.385	
47.69501	4384.696	
47.70956	4374.079	
47.80299	4371.98	
47.81785	4358.028	
47.91338	4361.84	
47.92832	4351.55	
48.02538	4351.83	
48.04237	4338.633	
48.13268	4335.598	
48.14746	4336.48	
48.24358	4335.677	
48.25809	4318.672	
48.35126	4315.19	
48.36628	4315.832	
48.46177	4320.786	
48.4766	4315.727	
48.57144	4318.225	
48.58881	4299.382	
48.6851	4304.66	
48.70003	4296.047	
48.7949	4298.355	
48.809	4287.764	
48.90334	4291.8	
48.91816	4278.467	
49.01279	4282.538	
49.02939	4263.26	
49.1211	4268.479	
49.13586	4259.604	
49.2323	4263.107	
49.24701	4245.719	
49.34	4248.79	
49.35471	4239.296	
49.45074	4230.809	
49.46514	4232.118	
49.56032	4224.209	
49.57721	4230.765	
49.66822	4230.118	
49.68306	4228.994	
49.7796	4224.569	
49.79441	4209.547	
49.89027	4212.536	
49.90458	4206.783	
49.9962	4198.425	
50.01347	4193.637	
50.10766	4193.379	
50.12397	4188.933	
50.21632	4183.867	
50.23088	4176.507	
50.32507	4184.384	
50.34051	4165.474	
50.43413	4179.23	
50.44857	4160.343	
50.54313	4167.928	
50.55819	4153.693	
50.65548	4161.673	
50.67225	4144.361	
50.76639	4156.94	
50.78133	4142.781	
50.8765	4134.473	
50.89127	4128.536	
50.98669	4129.63	
51.00146	4129.274	
51.09471	4126.664	
51.11089	4118.771	
51.20654	4107.792	
51.22146	4104.935	
51.31472	4102.84	
51.3294	4096.298	
51.42375	4094.725	
51.43856	4091.19	
51.53351	4091.159	
51.55004	4085.45	
51.6435	4082.749	
51.65853	4078.183	
51.75003	4076.403	
51.76465	4068.698	
51.86265	4066.116	
51.87776	4056.128	
51.9714	4052.828	
51.98603	4054.66	
52.08137	4053.742	
52.09803	4039.393	
52.19073	4035.679	
52.2057	4028.336	
52.29951	4035.004	
52.3165	4027.147	
52.40742	4026.113	
52.42187	4014.307	
52.51567	4017.51	
52.53066	4004.868	
52.62887	4012.739	
52.64323	4004.844	
52.73529	4009.064	
52.74989	3991.515	
52.84546	4001.727	
52.86056	3985.53	
52.95673	3980.485	
52.97131	3981.754	
53.06425	3982.744	
53.07889	3976.25	
53.17599	3965.465	
53.19044	3957.251	
53.28568	3957.542	
53.30046	3943.247	
53.39327	3951.711	
53.40822	3948.596	
53.50307	3951.468	
53.51801	3940.894	
53.61271	3939.545	
53.6273	3925.557	
53.72011	3931.038	
53.73885	3922.649	
53.83142	3924.723	
53.84665	3918.807	
53.94184	3923.647	
53.95639	3915.482	
54.05264	3911.721	
54.06736	3899.484	
54.16008	3897.253	
54.17515	3886.646	
54.26963	3892.345	
54.28472	3880.426	
54.37952	3891.063	
54.39394	3887.638	
54.4895	3882.186	
54.50424	3874.696	
54.59907	3880.792	
54.61385	3862.384	
54.7089	3860.626	
54.72372	3851.626	
54.81816	3843.035	
54.83298	3847.638	
54.92645	3841.354	
54.9415	3847.993	
55.0369	3835.825	
55.05156	3829.299	
55.14517	3829.367	
55.15971	3824.615	
55.25762	3828.449	
55.27246	3813.928	
55.36684	3817.588	
55.38092	3806.819	
55.47553	3806.119	
55.49052	3801.789	
55.58424	3809.972	
55.59925	3797.418	
55.69407	3795.144	
55.70884	3776.026	
55.80575	3779.138	
55.82026	3772.313	
55.91312	3777.129	
55.92805	3764.639	
56.02373	3769.851	
56.03846	3765.096	
56.13293	3755.267	
56.14761	3754.317	
56.24239	3759.046	
56.25732	3745.085	
56.35251	3742.219	
56.36674	3736.277	
56.46102	3745.396	
56.47601	3740.38	
56.57327	3738.392	
56.58773	3732.747	
56.68016	3725.675	
56.6951	3716.548	
56.78958	3715.876	
56.80638	3709.688	
56.90243	3708.408	
56.91728	3703.966	
57.01114	3704.037	
57.0257	3699.95	
57.11993	3696.955	
57.13462	3679.31	
57.23124	3691.965	
57.24739	3672.303	
57.3379	3681.108	
57.35278	3670.534	
57.44884	3667.272	
57.46338	3666.567	
57.55603	3663.316	
57.57123	3653.54	
57.66625	3659.159	
57.68161	3642.7	
57.77723	3661.76	
57.793	3639.431	
57.88674	3653.137	
57.90371	3634.411	
57.99862	3624.661	
58.0162	3623.719	
58.11295	3636.684	
58.1287	3613.239	
58.22161	3618.621	
58.23949	3608.82	
58.33588	3625.296	
58.3516	3612.905	
58.44536	3618.888	
58.46357	3597.649	
58.55739	3607.121	
58.57401	3593.321	
58.66796	3596.379	
58.68449	3586.668	
58.77783	3588.518	
58.7944	3581.845	
58.88707	3573.341	
58.90186	3578.475	
58.99566	3565.072	
59.0106	3563.502	
59.10593	3558.534	
59.12035	3564.921	
59.21659	3559.08	
59.23173	3547.578	
59.32685	3551.933	
59.34099	3545.654	
59.43734	3545.001	
59.45178	3530.907	
59.54609	3535.041	
59.56147	3529.039	
59.6589	3529.857	
59.67312	3520.752	
59.7712	3517.438	
59.78632	3510.335	
59.88292	3519.784	
59.89745	3504.458	
59.99364	3510.081	
60.009	3497.976	
60.10616	3498.319	
60.12089	3499.018	
60.21729	3492.772	
60.23201	3487.414	
60.32698	3487.159	
60.34177	3477.324	
60.43967	3480.553	
60.45446	3472.842	
60.55393	3461.913	
60.56893	3469.744	
60.66236	3465.664	
60.67673	3456.946	
60.77401	3464.029	
60.78889	3446.169	
60.88756	3457.477	
60.9027	3437.579	
60.99757	3451.485	
61.01266	3432.933	
61.11353	3442.704	
61.12818	3425.976	
61.22486	3435.443	
61.23996	3422.47	
61.33539	3429.059	
61.34994	3411.13	
61.44761	3410.658	
61.46253	3399.359	
61.55826	3397.876	
61.57288	3398.775	
61.66837	3411.793	
61.6834	3398.329	
61.77673	3399.205	
61.7915	3394.539	
61.88782	3392.674	
61.90359	3386.494	
61.99678	3390.07	
62.01394	3379.287	
62.10677	3383.067	
62.12152	3383.482	
62.21494	3372.891	
62.23108	3370.814	
62.3257	3373.959	
62.34071	3362.387	
62.4346	3359.389	
62.44897	3355.467	
62.5442	3364.062	
62.55847	3348.462	
62.65433	3359.375	
62.66946	3343.627	
62.76236	3354.23	
62.77707	3342.678	
62.87286	3341.74	
62.88783	3338.955	
62.98192	3335.65	
62.9992	3328.744	
63.09119	3332.051	
63.10567	3330.693	
63.20131	3329.232	
63.21623	3322.603	
63.31379	3327.326	
63.33148	3314.044	
63.4236	3315.948	
63.43879	3309.322	
63.53373	3313.023	
63.55136	3296.892	
63.64679	3317.511	
63.66143	3305.821	
63.75716	3302.398	
63.77184	3297.508	
63.86714	3308.549	
63.88229	3292.251	
63.97504	3294.327	
63.99001	3285.641	
64.08448	3299.65	
64.09941	3281.854	
64.19604	3285.353	
64.21053	3277.58	
64.30489	3281.814	
64.3194	3286.616	
64.41375	3282.381	
64.4287	3276.994	
64.52306	3277.758	
64.53786	3265.31	
64.63156	3277.313	
64.64858	3267.769	
64.74352	3273.9	
64.75769	3274.521	
64.85242	3270.9	
64.86764	3267.622	
64.96653	3271.367	
64.98128	3259.577	
65.07485	3269.719	
65.08976	3268.023	
65.18507	3274.799	
65.20005	3263.497	
65.29497	3267.135	
65.30946	3254.502	
65.40348	3268.207	
65.41827	3254.21	
65.51258	3269.085	
65.52737	3253.836	
65.62374	3271.374	
65.63853	3257.145	
65.73199	3267.477	
65.74997	3255.349	
65.84654	3270.031	
65.86117	3263.608	
65.95635	3274.893	
65.97101	3270.831	
66.06709	3269.76	
66.08193	3269.55	
66.17428	3270.512	
66.18891	3266.955	
66.28263	3280.331	
66.29778	3277.926	
66.39597	3286.251	
66.41038	3279.597	
66.50333	3288.385	
66.518	3280.853	
66.61186	3293.109	
66.62708	3297.01	
66.7239	3307.138	
66.73844	3294.76	
66.83282	3312.644	
66.84769	3313.592	
66.9408	3328.296	
66.95598	3320.106	
67.05392	3337.954	
67.06822	3325.545	
67.16111	3353.634	
67.17596	3337.9	
67.27087	3367.422	
67.28581	3349.132	
67.38075	3371.176	
67.39566	3375.388	
67.49078	3378.74	
67.50556	3394.278	
67.60098	3389.258	
67.61533	3402.099	
67.71009	3410.136	
67.72523	3413.95	
67.81966	3444.608	
67.83474	3426.395	
67.92787	3462.764	
67.94238	3453.239	
68.03893	3479.716	
68.0539	3466.885	
68.14803	3502.318	
68.16238	3490.394	
68.25784	3526.273	
68.27277	3519.801	
68.36618	3548.743	
68.38124	3540.575	
68.47545	3582.509	
68.49036	3568.668	
68.58554	3606.094	
68.60042	3594.149	
68.69798	3645.469	
68.71313	3648.447	
68.80901	3675.05	
68.8235	3676.99	
68.91875	3718.123	
68.93429	3712.934	
69.02993	3754.219	
69.04522	3754.733	
69.13615	3795.852	
69.15385	3798.683	
69.24524	3847.381	
69.26106	3836.138	
69.35442	3883.669	
69.36938	3881.124	
69.46634	3943.641	
69.48071	3943.871	
69.57501	3988.152	
69.59259	3989.185	
69.68294	4044.791	
69.69772	4034.105	
69.79558	4105.349	
69.81042	4098.339	
69.90483	4154.925	
69.91981	4160.176	
70.01287	4223.992	
70.02784	4215.958	
70.12162	4302.411	
70.13609	4291.572	
70.23158	4356.486	
70.24785	4360.467	
70.34232	4445.012	
70.35721	4443.653	
70.45399	4521.892	
70.46896	4533.763	
70.5649	4612.01	
70.5798	4611.997	
70.67554	4710.195	
70.69028	4709.78	
70.78334	4786.092	
70.79797	4799.834	
70.89243	4886.914	
70.90774	4879.824	
71.00368	4981.536	
71.0183	4976.018	
71.11401	5062.539	
71.12951	5059.872	
71.22218	5132.705	
71.23917	5134.326	
71.33412	5222.972	
71.34906	5232.118	
71.44511	5315.964	
71.45971	5324.995	
71.55482	5401.009	
71.57288	5394.01	
71.66921	5501.925	
71.68398	5491.356	
71.77816	5598.128	
71.79301	5609.289	
71.88825	5704.688	
71.90555	5713.123	
71.99887	5783.636	
72.01417	5803.032	
72.11031	5864.64	
72.12477	5897.252	
72.21916	5957.593	
72.23798	5975.579	
72.32875	6035.43	
72.34329	6049.689	
72.43965	6131.253	
72.45425	6129.23	
72.54804	6183.8	
72.56573	6189.769	
72.66542	6267.974	
72.67986	6257.279	
72.77094	6323.235	
72.78523	6325.335	
72.88187	6385.889	
72.89809	6378.728	
72.99064	6438.661	
73.0057	6426.723	
73.09733	6483.922	
73.11217	6471.349	
73.21183	6524.138	
73.22714	6520.385	
73.31789	6564.869	
73.33307	6554.631	
73.42804	6586.7	
73.44269	6576.03	
73.53775	6629.713	
73.55782	6607.322	
73.65145	6667.529	
73.66648	6637.97	
73.76256	6681.848	
73.77908	6660.721	
73.87075	6704.82	
73.88622	6689.155	
73.98058	6721.844	
73.9956	6722.662	
74.09067	6752.969	
74.10532	6733.814	
74.20109	6766.766	
74.21545	6738.867	
74.30827	6776.529	
74.32292	6773.356	
74.42146	6796	
74.44016	6768.576	
74.53272	6812.976	
74.54742	6785.979	
74.64115	6814.171	
74.65749	6811.034	
74.75195	6839.343	
74.76662	6823.25	
74.86298	6845.167	
74.87752	6837.087	
74.97105	6864.944	
74.98547	6831.181	
75.08164	6871.186	
75.09718	6845.929	
75.19185	6875.756	
75.20633	6845.928	
75.30188	6886.875	
75.31724	6853.584	
75.41476	6896.132	
75.42973	6873.1	
75.52455	6913.965	
75.53944	6878.467	
75.63428	6903.265	
75.64876	6898.591	
75.74337	6911.572	
75.75801	6904.271	
75.85667	6929.982	
75.87162	6901.776	
75.96436	6928.245	
75.97903	6911.229	
76.07769	6930.929	
76.0928	6896.915	
76.18767	6938.14	
76.20274	6916.462	
76.30209	6938.159	
76.31703	6919.142	
76.41147	6936.894	
76.42645	6928.094	
76.52509	6945.659	
76.54012	6925.639	
76.63251	6960.749	
76.64725	6930.896	
76.74377	6963.459	
76.75818	6944.745	
76.8519	6956.326	
76.87007	6932.879	
76.96564	6964.101	
76.98061	6923.775	
77.07574	6974.514	
77.0927	6931.506	
77.18426	6948.732	
77.19868	6928.667	
77.29684	6959.4	
77.31524	6949.398	
77.40826	6955.771	
77.42446	6948.534	
77.51796	6964.762	
77.53469	6943.855	
77.62676	6955.521	
77.64163	6939.212	
77.73666	6945.755	
77.75403	6920.179	
77.85239	6942.938	
77.86673	6925.216	
77.96024	6962.038	
77.97826	6931.686	
78.07308	6950.65	
78.08831	6920.096	
78.18375	6963.923	
78.20139	6922.375	
78.29496	6952.126	
78.3099	6932.399	
78.40681	6946.548	
78.42183	6914.186	
78.51797	6936.983	
78.53195	6913.884	
78.62499	6937.516	
78.63925	6906.385	
78.73669	6934.86	
78.75171	6900.351	
78.8485	6943.067	
78.8629	6902.891	
78.9622	6917.024	
78.97703	6899.83	
79.07026	6932.028	
79.08529	6901.729	
79.18285	6933.343	
79.19821	6902.666	
79.29404	6926.672	
79.3092	6893.086	
79.40648	6896.6	
79.42349	6868.66	
79.51749	6918.824	
79.53221	6878.909	
79.63162	6896.836	
79.64648	6883.271	
79.73913	6895.142	
79.75401	6882.922	
79.85361	6906.403	
79.8686	6865.113	
79.96236	6911.489	
79.97737	6863.667	
80.07272	6905.869	
80.09113	6860.195	
80.18604	6887.981	
80.20071	6853.076	
80.29835	6892.226	
80.31346	6850.787	
80.41097	6879.29	
80.42556	6837.652	
80.5181	6869.902	
80.53288	6837.24	
80.62967	6867.249	
80.64828	6842.75	
80.74252	6869.369	
80.75721	6846.277	
80.85152	6880.205	
80.86621	6832.042	
80.96355	6869.856	
80.9781	6828.735	
81.07538	6832.139	
81.09038	6829.455	
81.18388	6842	
81.20205	6836.049	
81.29619	6853.306	
81.31111	6829.976	
81.40462	6859.521	
81.41958	6826.85	
81.5219	6873.183	
81.53667	6829.301	
81.63042	6855.517	
81.64561	6807.096	
81.73992	6843.102	
81.75435	6816.237	
81.85219	6832.467	
81.86767	6815.989	
81.96059	6843.571	
81.97601	6818.348	
82.07195	6853.419	
82.08633	6825.952	
82.18475	6853.308	
82.19923	6815.89	
82.29471	6855.528	
82.3097	6828.133	
82.40402	6854.303	
82.42208	6817.386	
82.51608	6850.191	
82.53158	6814.079	
82.62775	6855.646	
82.64182	6801.991	
82.73746	6847.707	
82.7551	6805.546	
82.8505	6853.497	
82.8656	6807.69	
82.95827	6847.307	
82.97301	6811.615	
83.07085	6826.883	
83.08572	6822.262	
83.18083	6830.973	
83.19566	6820.819	
83.29308	6825.598	
83.3113	6807.009	
83.40436	6841.496	
83.41945	6812.104	
83.51437	6813.489	
83.53082	6795.214	
83.623	6820.45	
83.63712	6808.498	
83.73302	6826.934	
83.7482	6780.247	
83.84413	6826.228	
83.85895	6797.422	
83.95501	6815.891	
83.97013	6784.251	
84.06551	6837.5	
84.08015	6802.557	
84.17571	6821.059	
84.19429	6777.16	
84.2907	6803.193	
84.30486	6776.188	
84.3987	6801.205	
84.41389	6758.025	
84.5135	6791.725	
84.52863	6759.275	
84.62105	6796.17	
84.63596	6752.333	
84.7303	6781.747	
84.74831	6750.463	
84.84407	6788.265	
84.85893	6749.47	
84.95359	6762.243	
84.96818	6723.45	
85.06352	6743.563	
85.07838	6715.619	
85.173	6746.104	
85.18803	6710.813	
85.28256	6742.329	
85.29684	6716.36	
85.39182	6736.61	
85.40676	6711.78	
85.50225	6722.684	
85.51693	6700.024	
85.61125	6715.004	
85.62646	6681.062	
85.7196	6712.688	
85.73417	6669.504	
85.83041	6703.419	
85.845	6673.64	
85.94109	6687.687	
85.95597	6651.123	
86.0509	6665.173	
86.06627	6646.781	
86.16011	6670.025	
86.17451	6634.135	
86.26955	6662.201	
86.28412	6629.641	
86.37935	6641.776	
86.39386	6593.63	
86.48787	6625.541	
86.5031	6578.12	
86.59835	6595.896	
86.61296	6561.798	
86.70807	6589.692	
86.72277	6554.696	
86.81873	6591.104	
86.83378	6557.49	
86.92779	6571.127	
86.94251	6538.837	
87.03663	6555.167	
87.05099	6523.883	
87.14754	6547.089	
87.16249	6504.949	
87.25634	6528.241	
87.27069	6500.894	
87.36614	6505.896	
87.38103	6476.157	
87.47555	6500.517	
87.4906	6450.516	
87.58657	6484.338	
87.60162	6454.133	
87.69484	6467.989	
87.70924	6436.226	
87.80231	6452.131	
87.81694	6423.088	
87.91341	6446.402	
87.92869	6407.096	
88.02207	6431.97	
88.03671	6386.462	
88.1326	6412.184	
88.14724	6370.64	
88.24062	6397.863	
88.25531	6353.509	
88.35031	6391.474	
88.36839	6343.657	
88.46185	6385.279	
88.47881	6334.158	
88.57082	6364.179	
88.5853	6326.96	
88.68151	6332.795	
88.69624	6308.186	
88.78979	6328.341	
88.80448	6296.397	
88.89967	6291.509	
88.91695	6283.431	
89.01044	6273.628	
89.02579	6261.977	
89.11858	6260.799	
89.13238	6232.703	
89.22913	6254.215	
89.24409	6223.396	
89.33978	6248.104	
89.35472	6211.047	
89.44846	6232.102	
89.46298	6211.195	
89.55712	6214.927	
89.572	6168.672	
89.66747	6177.815	
89.68194	6155.918	
89.77621	6180.288	
89.79139	6142.187	
89.88714	6154.916	
89.9015	6127.238	
89.99529	6144.77	
90.00982	6112.853	
90.10483	6138.228	
90.11938	6110.219	
90.21281	6115.731	
90.22793	6080.561	
90.32784	6091.333	
90.34255	6072.425	
90.4311	6095.301	
90.44572	6051.679	
90.54432	6059.315	
90.55939	6038.72	
90.65431	6046.14	
90.66905	6014.829	
90.7614	6048.716	
90.77755	6009.771	
90.87242	6034.474	
90.88734	5988.697	
90.98347	6010.957	
90.99869	5980.41	
91.09086	5994.12	
91.10553	5956.618	
91.20058	5974.133	
91.21502	5934.075	
91.31034	5960.752	
91.32507	5921.88	
91.41864	5949.067	
91.43344	5913.369	
91.52896	5929.494	
91.54572	5900.473	
91.63873	5924.581	
91.65374	5894.533	
91.74918	5888.09	
91.76468	5849.683	
91.85987	5893.816	
91.87422	5852.954	
91.96712	5890.613	
91.98199	5827.871	
92.07644	5863.715	
92.09107	5829.065	
92.1886	5842.655	
92.2036	5800.929	
92.29553	5815.456	
92.31017	5795.588	
92.40739	5818.223	
92.4221	5790.706	
92.51748	5789.529	
92.53253	5762.502	
92.62463	5775.162	
92.63925	5748.131	
92.7366	5779.455	
92.7513	5724.11	
92.84391	5764.893	
92.85883	5712.544	
92.95354	5739.485	
92.96806	5693.661	
93.06528	5703.305	
93.08011	5675.143	
93.17399	5699.282	
93.18891	5655.858	
93.28329	5664.64	
93.29839	5642.549	
93.39323	5675.514	
93.40787	5630.088	
93.50132	5649.371	
93.516	5622.516	
93.61369	5642.888	
93.62843	5609.954	
93.72248	5626.666	
93.73781	5590.946	
93.83205	5610.032	
93.84686	5574.31	
93.93844	5603.622	
93.95306	5561.596	
94.04786	5589.101	
94.06232	5550.427	
94.15015	5574.196	
94.16376	5521.699	
94.25105	5554.118	
94.26458	5523.407	
94.34811	5529.058	
94.36066	5495.627	
94.44109	5529.309	
94.45303	5489.216	
94.52872	5524.383	
94.5399	5487.008	
94.60986	5510.688	
94.62009	5464.061	
94.68271	5484.032	
94.6923	5458.584	
94.75217	5496.521	
94.76087	5456.772	
94.81313	5499.178	
94.82074	5439.609	
94.8661	5482.662	
94.87258	5428.712	
94.91082	5471.5	
94.91637	5434.548	
94.94657	5457.942	
94.95047	5423.531	
94.97214	5445.372	
94.97686	5415.986	
94.99315	5453.926	
