T[Â°C]	330nm [counts / mm]	S.D.	First derivative	S.D. of first derivative
19.99899	7829.218		-114.4272	
20.05298	7823.653		-114.3091	
20.10697	7818.081		-114.1897	
20.16096	7812.5		-114.0689	
20.21496	7806.909		-113.9469	
20.26895	7801.307		-113.8234	
20.32294	7795.695		-113.6987	
20.37693	7790.073		-113.5725	
20.43092	7784.438		-113.445	
20.48491	7778.789		-113.3161	
20.53891	7773.124		-113.1859	
20.5929	7767.442		-113.0543	
20.64689	7761.744		-112.9214	
20.70088	7756.028		-112.7872	
20.75487	7750.298		-112.6517	
20.80886	7744.555		-112.5151	
20.86285	7738.803		-112.3772	
20.91685	7733.041		-112.2382	
20.97084	7727.248		-112.0981	
21.02483	7721.13		-111.9569	
21.07882	7714.978		-111.8148	
21.13281	7708.803		-111.6718	
21.1868	7702.614		-111.5278	
21.2408	7696.399		-111.3831	
21.29479	7690.14		-111.2377	
21.34878	7683.829		-111.0917	
21.40277	7677.478		-110.945	
21.45676	7671.113		-110.7978	
21.51075	7664.756		-110.6501	
21.56474	7658.433		-110.502	
21.61873	7652.16		-110.3536	
21.67273	7645.936		-110.2049	
21.72672	7639.749		-110.056	
21.78071	7633.592		-109.907	
21.8347	7627.47		-109.7579	
21.88869	7621.396		-109.6087	
21.94268	7615.389		-109.4596	
21.99668	7609.455		-109.3105	
22.05067	7603.592		-109.1614	
22.10466	7597.785		-109.0123	
22.15865	7592.014		-108.863	
22.21264	7586.273		-108.7135	
22.26663	7580.572		-108.5634	
22.32063	7574.899		-108.4122	
22.37462	7569.233		-108.2591	
22.42861	7563.551		-108.1029	
22.4826	7557.833		-107.9417	
22.53659	7552.065		-107.7731	
22.59058	7546.233		-107.5948	
22.64457	7540.327		-107.4017	
22.69856	7534.341		-107.2107	
22.75256	7528.281		-107.0223	
22.80655	7522.157		-106.8369	
22.86054	7515.991		-106.6546	
22.91453	7509.826		-106.4759	
22.96852	7503.713		-106.3009	
23.02251	7497.693		-106.1299	
23.07651	7491.792		-105.9633	
23.1305	7486.027		-105.8012	
23.18449	7480.399		-105.6441	
23.23848	7474.892		-105.492	
23.29247	7469.479		-105.3451	
23.34646	7464.119		-105.2038	
23.40045	7458.764		-105.068	
23.45444	7453.382		-104.9379	
23.50844	7447.964		-104.8136	
23.56243	7442.52		-104.6952	
23.61642	7437.061		-104.5829	
23.67041	7431.602		-104.4764	
23.7244	7426.165		-104.376	
23.77839	7420.761		-104.2813	
23.83239	7415.406		-104.1924	
23.88638	7410.113		-104.1091	
23.94037	7404.883		-104.0313	
23.99436	7399.707		-103.9592	
24.04835	7394.555		-103.8925	
24.10234	7389.385		-103.8313	
24.15633	7384.163		-103.7753	
24.21033	7378.873		-103.7244	
24.26432	7373.507		-103.6783	
24.31831	7368.06		-103.6369	
24.3723	7362.528		-103.6001	
24.42629	7356.912		-103.5679	
24.48028	7351.228		-103.5403	
24.53428	7345.498		-103.5173	
24.58827	7339.747		-103.499	
24.64226	7333.997		-103.4854	
24.69625	7328.261		-103.4763	
24.75024	7322.54		-103.4717	
24.80423	7316.831		-103.4714	
24.85822	7311.127		-103.4752	
24.91221	7305.431		-103.4826	
24.96621	7299.745		-103.493	
25.0202	7294.069		-103.5057	
25.07419	7288.396		-103.5201	
25.12818	7282.719		-103.5351	
25.18217	7277.03		-103.55	
25.23616	7271.331		-103.564	
25.29016	7265.628		-103.576	
25.34415	7259.925		-103.5854	
25.39814	7254.225		-103.5915	
25.45213	7248.534		-103.5938	
25.50612	7242.857		-103.5916	
25.56011	7237.19		-103.5847	
25.61411	7231.52		-103.5727	
25.6681	7225.834		-103.5554	
25.72209	7220.138		-103.5325	
25.77608	7214.446		-103.5041	
25.83007	7208.775		-103.4699	
25.88406	7203.145		-103.4302	
25.93805	7197.565		-103.3849	
25.99204	7192.031		-103.3341	
26.04604	7186.524		-103.278	
26.10003	7181.021		-103.2165	
26.15402	7175.5		-103.1499	
26.20801	7169.953		-103.0781	
26.262	7164.372		-103.0013	
26.31599	7158.75		-102.9195	
26.36999	7153.085		-102.8331	
26.42398	7147.378		-102.7425	
26.47797	7141.641		-102.648	
26.53196	7135.884		-102.55	
26.58595	7130.123		-102.4492	
26.63994	7124.373		-102.346	
26.69393	7118.646		-102.2408	
26.74792	7112.956		-102.1342	
26.80192	7107.309		-102.0267	
26.85591	7101.7		-101.9186	
26.9099	7096.116		-101.81	
26.96389	7090.552		-101.701	
27.01788	7085.004		-101.5912	
27.07187	7079.476		-101.4805	
27.12587	7073.967		-101.3684	
27.17986	7068.483		-101.2547	
27.23385	7063.031		-101.1389	
27.28784	7057.627		-101.0209	
27.34183	7052.285		-100.9005	
27.39582	7047.008		-100.7779	
27.44981	7041.803		-100.6532	
27.50381	7036.674		-100.5271	
27.5578	7031.621		-100.4001	
27.61179	7026.619		-100.2732	
27.66578	7021.63		-100.1472	
27.71977	7016.616		-100.0233	
27.77376	7011.539		-99.90224	
27.82775	7006.379		-99.78518	
27.88175	7001.134		-99.67296	
27.93574	6995.813		-99.56638	
27.98973	6990.426		-99.46612	
28.04372	6984.99		-99.37268	
28.09771	6979.518		-99.28645	
28.1517	6974.021		-99.20766	
28.20569	6968.513		-99.13644	
28.25969	6962.999		-99.07282	
28.31368	6957.487		-99.01683	
28.36767	6951.98		-98.96836	
28.42166	6946.475		-98.92727	
28.47565	6940.97		-98.8933	
28.52964	6935.466		-98.86608	
28.58364	6929.965		-98.84513	
28.63763	6924.477		-98.82989	
28.69162	6919.007		-98.81971	
28.74561	6913.568		-98.81389	
28.7996	6908.173		-98.81161	
28.85359	6902.832		-98.81198	
28.90759	6897.546		-98.814	
28.96158	6892.31		-98.8166	
29.01557	6887.113		-98.81864	
29.06956	6881.948		-98.81895	
29.12355	6876.817		-98.81635	
29.17754	6871.722		-98.80968	
29.23153	6866.657		-98.79781	
29.28552	6861.61		-98.77972	
29.33952	6856.571		-98.75449	
29.39351	6851.531		-98.72138	
29.4475	6846.487		-98.67986	
29.50149	6841.441		-98.62969	
29.55548	6836.4		-98.5709	
29.60947	6831.362		-98.5038	
29.66347	6826.32		-98.42893	
29.71746	6821.253		-98.34709	
29.77145	6816.13		-98.25922	
29.82544	6810.93		-98.16643	
29.87943	6805.636		-98.06989	
29.93342	6800.236		-97.97087	
29.98741	6794.725		-97.87059	
30.0414	6789.103		-97.77026	
30.0954	6783.374		-97.67098	
30.14939	6777.559		-97.57375	
30.20338	6771.694		-97.47942	
30.25737	6765.827		-97.3888	
30.31136	6759.997		-97.30257	
30.36535	6754.231		-97.22131	
30.41935	6748.544		-97.14552	
30.47334	6742.937		-97.07546	
30.52733	6737.396		-97.01131	
30.58132	6731.915		-96.95302	
30.63531	6726.475		-96.90043	
30.6893	6721.062		-96.8532	
30.74329	6715.666		-96.81084	
30.79729	6710.282		-96.77275	
30.85128	6704.909		-96.73816	
30.90527	6699.545		-96.70623	
30.95926	6694.192		-96.67607	
31.01325	6688.866		-96.64675	
31.06724	6683.601		-96.61732	
31.12123	6678.427		-96.5869	
31.17523	6673.363		-96.55457	
31.22922	6668.42		-96.51946	
31.28321	6663.603		-96.48074	
31.3372	6658.898		-96.43762	
31.39119	6654.279		-96.38937	
31.44518	6649.715		-96.33534	
31.49917	6645.169		-96.27499	
31.55317	6640.606		-96.20792	
31.60716	6635.995		-96.13392	
31.66115	6631.311		-96.05302	
31.71514	6626.528		-95.9655	
31.76913	6621.641		-95.87189	
31.82312	6616.66		-95.77292	
31.87712	6611.613		-95.66953	
31.93111	6606.53		-95.56283	
31.9851	6601.431		-95.454	
32.03909	6596.322		-95.34433	
32.09308	6591.201		-95.23505	
32.14707	6586.07		-95.12735	
32.20107	6580.921		-95.02232	
32.25505	6575.743		-94.9209	
32.30905	6570.525		-94.82388	
32.36304	6565.265		-94.73189	
32.41703	6559.963		-94.64535	
32.47102	6554.618		-94.5645	
32.52501	6549.227		-94.48935	
32.57901	6543.8		-94.41975	
32.633	6538.35		-94.35544	
32.68699	6532.892		-94.29603	
32.74098	6527.44		-94.24113	
32.79497	6522.003		-94.19031	
32.84896	6516.59		-94.14314	
32.90295	6511.204		-94.09914	
32.95694	6505.85		-94.05781	
33.01094	6500.538		-94.01863	
33.06493	6495.277		-93.98107	
33.11892	6490.063		-93.94462	
33.17291	6484.884		-93.90877	
33.2269	6479.739		-93.87302	
33.2809	6474.628		-93.83684	
33.33488	6469.552		-93.79975	
33.38888	6464.52		-93.76125	
33.44287	6459.54		-93.72086	
33.49686	6454.613		-93.6781	
33.55085	6449.731		-93.63255	
33.60484	6444.876		-93.58386	
33.65883	6440.034		-93.53175	
33.71283	6435.183		-93.47606	
33.76682	6430.312		-93.41682	
33.82081	6425.418		-93.35417	
33.8748	6420.497		-93.28844	
33.92879	6415.546		-93.22008	
33.98278	6410.565		-93.1497	
34.03677	6405.561		-93.07802	
34.09077	6400.547		-93.00581	
34.14476	6395.542		-92.93391	
34.19875	6390.554		-92.86316	
34.25274	6385.574		-92.79433	
34.30673	6380.593		-92.72809	
34.36072	6375.606		-92.66501	
34.41471	6370.609		-92.60554	
34.4687	6365.603		-92.54997	
34.5227	6360.593		-92.49843	
34.57669	6355.587		-92.45092	
34.63068	6350.602		-92.4073	
34.68467	6345.643		-92.36736	
34.73866	6340.713		-92.33084	
34.79266	6335.809		-92.29743	
34.84665	6330.931		-92.26684	
34.90064	6326.076		-92.23872	
34.95463	6321.246		-92.21275	
35.00862	6316.443		-92.18851	
35.06261	6311.675		-92.16566	
35.1166	6306.938		-92.14384	
35.1706	6302.222		-92.12273	
35.22459	6297.514		-92.102	
35.27858	6292.791		-92.08135	
35.33257	6288.024		-92.06047	
35.38656	6283.192		-92.03902	
35.44055	6278.285		-92.01665	
35.49454	6273.309		-91.99303	
35.54853	6268.278		-91.96779	
35.60253	6263.211		-91.94056	
35.65652	6258.123		-91.91095	
35.71051	6253.02		-91.87857	
35.7645	6247.909		-91.84306	
35.81849	6242.79		-91.80409	
35.87249	6237.658		-91.76141	
35.92648	6232.507		-91.71484	
35.98047	6227.333		-91.66427	
36.03446	6222.139		-91.60965	
36.08845	6216.94		-91.55101	
36.14244	6211.761		-91.48843	
36.19643	6206.616		-91.42206	
36.25042	6201.507		-91.35205	
36.30442	6196.428		-91.27861	
36.35841	6191.371		-91.202	
36.4124	6186.327		-91.12247	
36.46639	6181.288		-91.04031	
36.52038	6176.248		-90.95583	
36.57438	6171.205		-90.86927	
36.62836	6166.167		-90.78093	
36.68236	6161.135		-90.69099	
36.73635	6156.119		-90.59955	
36.79034	6151.133		-90.50662	
36.84433	6146.191		-90.4122	
36.89832	6141.293		-90.31624	
36.95231	6136.43		-90.2187	
37.00631	6131.585		-90.11957	
37.0603	6126.74		-90.01888	
37.11429	6121.878		-89.91669	
37.16828	6116.999		-89.81322	
37.22227	6112.119		-89.70869	
37.27626	6107.25		-89.60338	
37.33025	6102.4		-89.49764	
37.38425	6097.566		-89.39183	
37.43824	6092.747		-89.28638	
37.49223	6087.95		-89.18172	
37.54622	6083.183		-89.07831	
37.60021	6078.45		-88.97659	
37.6542	6073.748		-88.87698	
37.70819	6069.072		-88.77985	
37.76219	6064.42		-88.68551	
37.81618	6059.786		-88.59416	
37.87017	6055.165		-88.50591	
37.92416	6050.553		-88.42081	
37.97815	6045.943		-88.33887	
38.03214	6041.333		-88.26005	
38.08614	6036.716		-88.18429	
38.14013	6032.097		-88.11153	
38.19412	6027.48		-88.04171	
38.24811	6022.87		-87.97475	
38.3021	6018.271		-87.91066	
38.35609	6013.692		-87.84947	
38.41008	6009.137		-87.79128	
38.46408	6004.604		-87.73624	
38.51807	6000.076		-87.68453	
38.57206	5995.538		-87.63641	
38.62605	5990.972		-87.59216	
38.68004	5986.362		-87.55202	
38.73403	5981.701		-87.51618	
38.78802	5976.993		-87.4847	
38.84201	5972.247		-87.45755	
38.89601	5967.471		-87.43465	
38.95	5962.681		-87.41584	
39.00399	5957.889		-87.40096	
39.05798	5953.111		-87.38982	
39.11197	5948.35		-87.38226	
39.16597	5943.604		-87.37809	
39.21996	5938.873		-87.37713	
39.27395	5934.157		-87.37919	
39.32794	5929.447		-87.38412	
39.38193	5924.722		-87.39173	
39.43592	5919.965		-87.40183	
39.48991	5915.172		-87.41421	
39.5439	5910.35		-87.42857	
39.5979	5905.5		-87.44461	
39.65189	5900.63		-87.46194	
39.70588	5895.744		-87.48016	
39.75987	5890.845		-87.49883	
39.81386	5885.941		-87.51744	
39.86786	5881.045		-87.53539	
39.92184	5876.171		-87.55197	
39.97584	5871.331		-87.56648	
40.02983	5866.527		-87.57818	
40.08382	5861.759		-87.5863	
40.13781	5857.027		-87.59005	
40.1918	5852.324		-87.58865	
40.24579	5847.636		-87.58135	
40.29979	5842.946		-87.5675	
40.35378	5838.252		-87.54658	
40.40777	5833.561		-87.51821	
40.46176	5828.877		-87.48221	
40.51575	5824.203		-87.43855	
40.56974	5819.538		-87.38734	
40.62373	5814.877		-87.32891	
40.67773	5810.222		-87.26366	
40.73172	5805.573		-87.19211	
40.78571	5800.929		-87.11485	
40.8397	5796.29		-87.03251	
40.89369	5791.649		-86.94574	
40.94768	5787.004		-86.85521	
41.00167	5782.353		-86.76154	
41.05567	5777.694		-86.66534	
41.10966	5773.021		-86.56726	
41.16365	5768.319		-86.46786	
41.21764	5763.578		-86.36774	
41.27163	5758.806		-86.26744	
41.32562	5754.019		-86.16755	
41.37962	5749.227		-86.06858	
41.43361	5744.44		-85.97105	
41.4876	5739.665		-85.87539	
41.54159	5734.897		-85.78201	
41.59558	5730.126		-85.69126	
41.64957	5725.341		-85.60346	
41.70356	5720.529		-85.51886	
41.75756	5715.694		-85.43771	
41.81155	5710.843		-85.36022	
41.86554	5705.99		-85.28658	
41.91953	5701.147		-85.21684	
41.97352	5696.329		-85.15098	
42.02751	5691.549		-85.08891	
42.0815	5686.832		-85.03042	
42.13549	5682.205		-84.97528	
42.18949	5677.683		-84.92316	
42.24348	5673.265		-84.8737	
42.29747	5668.932		-84.82652	
42.35146	5664.662		-84.7813	
42.40545	5660.432		-84.73775	
42.45945	5656.219		-84.6957	
42.51344	5652.012		-84.65498	
42.56743	5647.798		-84.61548	
42.62142	5643.57		-84.57711	
42.67541	5639.318		-84.53981	
42.7294	5635.044		-84.50361	
42.78339	5630.749		-84.46861	
42.83738	5626.421		-84.43497	
42.89138	5622.051		-84.40298	
42.94537	5617.636		-84.37293	
42.99936	5613.179		-84.3452	
43.05335	5608.69		-84.32008	
43.10734	5604.181		-84.29787	
43.16133	5599.658		-84.27878	
43.21532	5595.122		-84.26295	
43.26932	5590.569		-84.2505	
43.32331	5585.991		-84.24139	
43.3773	5581.379		-84.23552	
43.43129	5576.739		-84.2327	
43.48528	5572.077		-84.23267	
43.53927	5567.402		-84.23515	
43.59327	5562.722		-84.23978	
43.64725	5558.048		-84.24625	
43.70125	5553.387		-84.25416	
43.75524	5548.748		-84.26314	
43.80923	5544.134		-84.27283	
43.86322	5539.542		-84.28291	
43.91721	5534.977		-84.29299	
43.97121	5530.435		-84.30264	
44.0252	5525.907		-84.31137	
44.07919	5521.39		-84.31864	
44.13318	5516.877		-84.32387	
44.18717	5512.363		-84.32645	
44.24116	5507.842		-84.32574	
44.29515	5503.316		-84.32112	
44.34915	5498.781		-84.31198	
44.40314	5494.221		-84.29778	
44.45713	5489.634		-84.27802	
44.51112	5485.03		-84.2523	
44.56511	5480.415		-84.2203	
44.6191	5475.786		-84.18183	
44.6731	5471.129		-84.13681	
44.72709	5466.444		-84.08529	
44.78108	5461.742		-84.02743	
44.83507	5457.041		-83.96355	
44.88906	5452.344		-83.89406	
44.94305	5447.651		-83.81951	
44.99704	5442.953		-83.74055	
45.05104	5438.245		-83.65791	
45.10503	5433.529		-83.57235	
45.15902	5428.823		-83.48463	
45.21301	5424.146		-83.39552	
45.267	5419.51		-83.30571	
45.32099	5414.912		-83.21584	
45.37498	5410.349		-83.12639	
45.42897	5405.816		-83.03776	
45.48297	5401.3		-82.95024	
45.53696	5396.782		-82.86409	
45.59095	5392.254		-82.77946	
45.64494	5387.72		-82.69651	
45.69893	5383.191		-82.61533	
45.75293	5378.675		-82.53598	
45.80692	5374.17		-82.45853	
45.86091	5369.678		-82.383	
45.9149	5365.215		-82.30943	
45.96889	5360.792		-82.23788	
46.02288	5356.42		-82.1684	
46.07687	5352.1		-82.10103	
46.13086	5347.829		-82.03577	
46.18486	5343.595		-81.97256	
46.23885	5339.396		-81.91129	
46.29284	5335.218		-81.8518	
46.34683	5331.044		-81.79384	
46.40082	5326.853		-81.73713	
46.45481	5322.629		-81.68132	
46.5088	5318.376		-81.62606	
46.5628	5314.107		-81.57097	
46.61679	5309.831		-81.51575	
46.67078	5305.553		-81.46017	
46.72477	5301.286		-81.40407	
46.77876	5297.047		-81.34738	
46.83275	5292.854		-81.29013	
46.88675	5288.704		-81.2324	
46.94073	5284.59		-81.17433	
46.99473	5280.488		-81.11614	
47.04872	5276.371		-81.05811	
47.10271	5272.214		-81.00051	
47.1567	5268		-80.94358	
47.21069	5263.721		-80.88753	
47.26469	5259.368		-80.8325	
47.31868	5254.94		-80.77856	
47.37267	5250.443		-80.72569	
47.42666	5245.895		-80.67378	
47.48065	5241.318		-80.62264	
47.53464	5236.729		-80.57205	
47.58863	5232.139		-80.52177	
47.64263	5227.558		-80.47154	
47.69662	5222.996		-80.42114	
47.75061	5218.456		-80.37026	
47.8046	5213.934		-80.3186	
47.85859	5209.428		-80.26579	
47.91258	5204.945		-80.21152	
47.96658	5200.481		-80.15549	
48.02057	5196.027		-80.09749	
48.07456	5191.572		-80.03734	
48.12855	5187.11		-79.97493	
48.18254	5182.635		-79.9102	
48.23653	5178.15		-79.84315	
48.29052	5173.664		-79.77374	
48.34452	5169.194		-79.70197	
48.39851	5164.753		-79.62785	
48.4525	5160.351		-79.55134	
48.50649	5155.982		-79.47241	
48.56048	5151.642		-79.39098	
48.61447	5147.325		-79.307	
48.66846	5143.022		-79.22038	
48.72245	5138.732		-79.13116	
48.77645	5134.454		-79.03936	
48.83044	5130.188		-78.94512	
48.88443	5125.934		-78.84864	
48.93842	5121.694		-78.75021	
48.99241	5117.469		-78.65016	
49.04641	5113.267		-78.54897	
49.1004	5109.095		-78.44713	
49.15439	5104.945		-78.34512	
49.20838	5100.81		-78.24342	
49.26237	5096.672		-78.1425	
49.31636	5092.512		-78.04281	
49.37035	5088.319		-77.94474	
49.42434	5084.101		-77.84866	
49.47834	5079.874		-77.75491	
49.53233	5075.654		-77.6638	
49.58632	5071.456		-77.57561	
49.64031	5067.298		-77.49062	
49.6943	5063.189		-77.409	
49.74829	5059.132		-77.33089	
49.80228	5055.123		-77.25644	
49.85628	5051.157		-77.18571	
49.91027	5047.231		-77.11884	
49.96426	5043.336		-77.05598	
50.01825	5039.457		-76.99726	
50.07224	5035.578		-76.94286	
50.12623	5031.678		-76.89288	
50.18023	5027.737		-76.84744	
50.23421	5023.743		-76.8066	
50.28821	5019.698		-76.77036	
50.3422	5015.611		-76.73865	
50.39619	5011.496		-76.71135	
50.45018	5007.362		-76.68828	
50.50417	5003.215		-76.66918	
50.55817	4999.063		-76.65372	
50.61216	4994.915		-76.64156	
50.66615	4990.776		-76.63226	
50.72014	4986.653		-76.62539	
50.77413	4982.551		-76.62049	
50.82812	4978.46		-76.61708	
50.88211	4974.371		-76.61463	
50.93611	4970.267		-76.61259	
50.9901	4966.145		-76.6104	
51.04409	4962.004		-76.60751	
51.09808	4957.848		-76.60332	
51.15207	4953.678		-76.59726	
51.20606	4949.497		-76.58878	
51.26006	4945.298		-76.57731	
51.31404	4941.08		-76.56232	
51.36804	4936.837		-76.54333	
51.42203	4932.573		-76.51987	
51.47602	4928.288		-76.49158	
51.53001	4923.981		-76.45818	
51.584	4919.66		-76.4194	
51.638	4915.333		-76.37499	
51.69199	4911.02		-76.32471	
51.74598	4906.741		-76.26829	
51.79997	4902.51		-76.20556	
51.85396	4898.332		-76.13641	
51.90795	4894.211		-76.0609	
51.96194	4890.14		-75.97919	
52.01593	4886.1		-75.89157	
52.06993	4882.059		-75.79843	
52.12392	4877.994		-75.70023	
52.17791	4873.89		-75.59747	
52.2319	4869.744		-75.49075	
52.28589	4865.564		-75.38069	
52.33989	4861.36		-75.26794	
52.39388	4857.134		-75.15316	
52.44787	4852.884		-75.03698	
52.50186	4848.615		-74.92004	
52.55585	4844.338		-74.80291	
52.60984	4840.066		-74.68616	
52.66383	4835.809		-74.57033	
52.71782	4831.585		-74.45593	
52.77182	4827.406		-74.34346	
52.82581	4823.274		-74.23337	
52.8798	4819.194		-74.12604	
52.93379	4815.167		-74.02177	
52.98778	4811.187		-73.92082	
53.04177	4807.245		-73.8233	
53.09576	4803.321		-73.72928	
53.14976	4799.395		-73.63873	
53.20375	4795.457		-73.55161	
53.25774	4791.499		-73.46783	
53.31173	4787.52		-73.38733	
53.36572	4783.54		-73.31007	
53.41971	4779.585		-73.23605	
53.47371	4775.686		-73.16531	
53.52769	4771.857		-73.09796	
53.58169	4768.105		-73.03405	
53.63568	4764.427		-72.97363	
53.68967	4760.825		-72.91665	
53.74366	4757.295		-72.86305	
53.79765	4753.828		-72.81275	
53.85165	4750.407		-72.76569	
53.90564	4747.015		-72.72183	
53.95963	4743.623		-72.68122	
54.01362	4740.195		-72.64391	
54.06761	4736.689		-72.61	
54.1216	4733.074		-72.57962	
54.17559	4729.338		-72.55296	
54.22959	4725.494		-72.53025	
54.28358	4721.568		-72.51182	
54.33757	4717.591		-72.49796	
54.39156	4713.584		-72.48897	
54.44555	4709.563		-72.48508	
54.49954	4705.544		-72.48645	
54.55354	4701.54		-72.49311	
54.60752	4697.557		-72.505	
54.66152	4693.599		-72.52198	
54.71551	4689.662		-72.54381	
54.7695	4685.722		-72.57015	
54.82349	4681.753		-72.60056	
54.87748	4677.742		-72.63442	
54.93148	4673.686		-72.67099	
54.98547	4669.586		-72.70937	
55.03946	4665.457		-72.74857	
55.09345	4661.312		-72.78753	
55.14744	4657.171		-72.82511	
55.20143	4653.047		-72.8602	
55.25542	4648.94		-72.89172	
55.30941	4644.851		-72.91866	
55.36341	4640.786		-72.94012	
55.4174	4636.752		-72.95527	
55.47139	4632.754		-72.96336	
55.52538	4628.79		-72.96372	
55.57937	4624.853		-72.9557	
55.63337	4620.937		-72.93871	
55.68736	4617.033		-72.9122	
55.74135	4613.137		-72.87574	
55.79534	4609.243		-72.82899	
55.84933	4605.338		-72.7717	
55.90332	4601.413		-72.70379	
55.95731	4597.461		-72.6253	
56.0113	4593.476		-72.53643	
56.0653	4589.45		-72.43751	
56.11929	4585.386		-72.32903	
56.17328	4581.298		-72.21163	
56.22727	4577.21		-72.08616	
56.28126	4573.138		-71.9536	
56.33525	4569.092		-71.81503	
56.38924	4565.068		-71.67159	
56.44324	4561.061		-71.52446	
56.49723	4557.059		-71.37481	
56.55122	4553.053		-71.22375	
56.60521	4549.037		-71.07246	
56.6592	4545.016		-70.92201	
56.71319	4540.995		-70.77355	
56.76719	4536.972		-70.62808	
56.82117	4532.952		-70.48652	
56.87517	4528.938		-70.34956	
56.92916	4524.939		-70.21772	
56.98315	4520.969		-70.09129	
57.03714	4517.035		-69.97037	
57.09113	4513.154		-69.85493	
57.14513	4509.331		-69.74478	
57.19912	4505.564		-69.63969	
57.25311	4501.849		-69.5393	
57.3071	4498.183		-69.44324	
57.36109	4494.565		-69.35104	
57.41508	4490.993		-69.26219	
57.46907	4487.458		-69.17615	
57.52307	4483.958		-69.09233	
57.57706	4480.488		-69.01014	
57.63105	4477.042		-68.92893	
57.68504	4473.625		-68.84811	
57.73903	4470.25		-68.76707	
57.79302	4466.92		-68.68532	
57.84702	4463.628		-68.60236	
57.901	4460.369		-68.51785	
57.955	4457.124		-68.4315	
58.00899	4453.878		-68.34317	
58.06298	4450.61		-68.25285	
58.11697	4447.304		-68.16065	
58.17096	4443.947		-68.06683	
58.22496	4440.529		-67.97175	
58.27895	4437.052		-67.87588	
58.33294	4433.52		-67.77969	
58.38693	4429.941		-67.68372	
58.44092	4426.326		-67.5885	
58.49491	4422.679		-67.49461	
58.5489	4419.003		-67.40257	
58.60289	4415.304		-67.313	
58.65689	4411.583		-67.22647	
58.71088	4407.844		-67.14358	
58.76487	4404.082		-67.06484	
58.81886	4400.294		-66.99068	
58.87285	4396.473		-66.92133	
58.92685	4392.617		-66.85686	
58.98083	4388.724		-66.79716	
59.03483	4384.797		-66.74191	
59.08882	4380.843		-66.69067	
59.14281	4376.863		-66.64285	
59.1968	4372.861		-66.59776	
59.25079	4368.842		-66.55453	
59.30478	4364.819		-66.51225	
59.35878	4360.813		-66.46983	
59.41277	4356.84		-66.4261	
59.46676	4352.918		-66.37981	
59.52075	4349.064		-66.32967	
59.57474	4345.292		-66.27445	
59.62873	4341.604		-66.21284	
59.68272	4337.997		-66.1436	
59.73672	4334.462		-66.06548	
59.79071	4330.977		-65.97734	
59.8447	4327.52		-65.87808	
59.89869	4324.075		-65.76676	
59.95268	4320.633		-65.64254	
60.00667	4317.194		-65.5048	
60.06067	4313.759		-65.35309	
60.11465	4310.337		-65.18722	
60.16865	4306.936		-65.00717	
60.22264	4303.567		-64.81318	
60.27663	4300.234		-64.60564	
60.33062	4296.934		-64.38506	
60.38461	4293.661		-64.15211	
60.43861	4290.417		-63.90755	
60.4926	4287.196		-63.65231	
60.54659	4283.983		-63.38735	
60.60058	4280.756		-63.11376	
60.65457	4277.489		-62.83257	
60.70856	4274.163		-62.54485	
60.76255	4270.767		-62.25159	
60.81655	4267.292		-61.95382	
60.87054	4263.74		-61.65244	
60.92453	4260.121		-61.34824	
60.97852	4256.449		-61.04194	
61.03251	4252.753		-60.73409	
61.0865	4249.063		-60.42518	
61.1405	4245.406		-60.11549	
61.19448	4241.794		-59.80524	
61.24848	4238.235		-59.49435	
61.30247	4234.733		-59.18271	
61.35646	4231.288		-58.86994	
61.41045	4227.894		-58.5556	
61.46444	4224.544		-58.23903	
61.51844	4221.241		-57.9195	
61.57243	4217.993		-57.59622	
61.62642	4214.805		-57.26817	
61.68041	4211.676		-56.93433	
61.7344	4208.605		-56.59352	
61.78839	4205.584		-56.24454	
61.84238	4202.61		-55.88616	
61.89637	4199.678		-55.51723	
61.95037	4196.8		-55.13655	
62.00436	4193.984		-54.74309	
62.05835	4191.226		-54.33582	
62.11234	4188.507		-53.91394	
62.16633	4185.82		-53.47672	
62.22033	4183.153		-53.02349	
62.27431	4180.499		-52.55381	
62.32831	4177.849		-52.06721	
62.3823	4175.199		-51.5635	
62.43629	4172.544		-51.04245	
62.49028	4169.885		-50.50413	
62.54427	4167.222		-49.94853	
62.59826	4164.543		-49.37584	
62.65226	4161.839		-48.78614	
62.70625	4159.099		-48.17961	
62.76024	4156.321		-47.55629	
62.81423	4153.507		-46.91633	
62.86822	4150.666		-46.25986	
62.92221	4147.808		-45.58685	
62.9762	4144.944		-44.89736	
63.0302	4142.079		-44.19118	
63.08419	4139.226		-43.46821	
63.13818	4136.405		-42.72805	
63.19217	4133.643		-41.97034	
63.24616	4130.959		-41.19443	
63.30015	4128.363		-40.39968	
63.35415	4125.845		-39.58519	
63.40813	4123.396		-38.75004	
63.46213	4121.007		-37.89301	
63.51612	4118.679		-37.01291	
63.57011	4116.41		-36.10842	
63.6241	4114.198		-35.17797	
63.67809	4112.044		-34.22003	
63.73209	4109.955		-33.23277	
63.78608	4107.938		-32.21455	
63.84007	4105.997		-31.1635	
63.89406	4104.125		-30.07796	
63.94805	4102.324		-28.95603	
64.00204	4100.593		-27.79601	
64.05603	4098.932		-26.59643	
64.11002	4097.334		-25.3552	
64.16402	4095.796		-24.07085	
64.21801	4094.315		-22.74174	
64.272	4092.893		-21.36628	
64.32599	4091.53		-19.94323	
64.37998	4090.218		-18.47067	
64.43398	4088.956		-16.94751	
64.48797	4087.744		-15.37251	
64.54195	4086.594		-13.74488	
64.59595	4085.51		-12.06303	
64.64994	4084.491		-10.32622	
64.70393	4083.536		-8.533545	
64.75793	4082.646		-6.684108	
64.81191	4081.819		-4.777444	
64.86591	4081.061		-2.812129	
64.9199	4080.382		-0.7876259	
64.97389	4079.79		1.296973	
65.02788	4079.286		3.442242	
65.08187	4078.867		5.64995	
65.13586	4078.537		7.920977	
65.18986	4078.308		10.2567	
65.24384	4078.195		12.65819	
65.29784	4078.209		15.12787	
65.35183	4078.353		17.66724	
65.40582	4078.627		20.27833	
65.45982	4079.036		22.96336	
65.5138	4079.582		25.72414	
65.56779	4080.267		28.56395	
65.62179	4081.085		31.48483	
65.67578	4082.022		34.48934	
65.72977	4083.067		37.57948	
65.78376	4084.231		40.75886	
65.83775	4085.532		44.02968	
65.89175	4086.999		47.39469	
65.94573	4088.65		50.85601	
65.99973	4090.505		54.41753	
66.05372	4092.585		58.08155	
66.10771	4094.892		61.85097	
66.16171	4097.422		65.72879	
66.21569	4100.175		69.71723	
66.26968	4103.154		73.82058	
66.32368	4106.349		78.04124	
66.37767	4109.75		82.38235	
66.43166	4113.348		86.8462	
66.48565	4117.148		91.43732	
66.53964	4121.157		96.1582	
66.59364	4125.384		101.012	
66.64762	4129.84		106.0011	
66.70161	4134.541		111.13	
66.75561	4139.491		116.4011	
66.8096	4144.696		121.8173	
66.86359	4150.162		127.3816	
66.91758	4155.902		133.0962	
66.97157	4161.92		138.9655	
67.02557	4168.21		144.992	
67.07956	4174.769		151.1788	
67.13354	4181.599		157.5283	
67.18754	4188.711		164.0459	
67.24153	4196.116		170.7347	
67.29552	4203.82		177.5986	
67.34951	4211.832		184.6411	
67.4035	4220.159		191.8688	
67.4575	4228.816		199.2857	
67.51149	4237.823		206.8968	
67.56548	4247.209		214.7074	
67.61947	4256.996		222.7216	
67.67346	4267.2		230.9467	
67.72746	4277.833		239.3866	
67.78145	4288.91		248.0461	
67.83543	4300.443		256.9285	
67.88943	4312.453		266.0402	
67.94342	4324.954		275.3835	
67.99741	4337.958		284.9614	
68.05141	4351.464		294.7758	
68.10539	4365.458		304.827	
68.15939	4379.937		315.118	
68.21338	4394.905		325.6473	
68.26737	4410.379		336.4134	
68.32136	4426.379		347.4126	
68.37535	4442.924		358.6447	
68.42934	4460.032		370.1044	
68.48334	4477.714		381.7866	
68.53732	4495.983		393.684	
68.59132	4514.863		405.7934	
68.64531	4534.375		418.1057	
68.6993	4554.541		430.6127	
68.7533	4575.368		443.3049	
68.80728	4596.861		456.1705	
68.86127	4619.043		469.202	
68.91527	4641.921		482.3855	
68.96926	4665.51		495.7081	
69.02325	4689.816		509.1541	
69.07724	4714.864		522.7128	
69.13123	4740.671		536.3668	
69.18523	4767.262		550.0999	
69.23921	4794.654		563.8933	
69.29321	4822.869		577.7335	
69.3472	4851.917		591.6004	
69.40119	4881.824		605.4755	
69.45518	4912.625		619.3396	
69.50917	4944.354		633.1714	
69.56316	4977.062		646.9552	
69.61716	5010.779		660.6688	
69.67115	5045.545		674.2916	
69.72514	5081.388		687.8011	
69.77913	5118.341		701.1799	
69.83312	5156.418		714.4043	
69.88712	5195.654		727.4523	
69.9411	5236.087		740.2996	
69.99509	5277.773		752.9266	
70.04909	5320.725		765.3082	
70.10308	5364.94		777.42	
70.15707	5410.396		789.2375	
70.21106	5457.053		800.7338	
70.26505	5504.88		811.8867	
70.31905	5553.814		822.6685	
70.37304	5603.792		833.0531	
70.42702	5654.735		843.0129	
70.48102	5706.581		852.5247	
70.53501	5759.255		861.5612	
70.589	5812.691		870.0974	
70.64299	5866.812		878.1075	
70.69698	5921.559		885.5702	
70.75098	5976.844		892.4617	
70.80497	6032.599		898.7605	
70.85896	6088.769		904.4462	
70.91295	6145.314		909.4996	
70.96694	6202.221		913.9045	
71.02094	6259.456		917.6446	
71.07493	6317		920.706	
71.12891	6374.822		923.0762	
71.18291	6432.914		924.7456	
71.2369	6491.231		925.7056	
71.29089	6549.728		925.95	
71.34489	6608.353		925.4746	
71.39887	6667.056		924.2778	
71.45287	6725.813		922.3593	
71.50686	6784.58		919.7215	
71.56085	6843.317		916.3691	
71.61484	6901.982		912.3096	
71.66883	6960.564		907.5505	
71.72282	7019.026		902.1033	
71.77682	7077.332		895.9809	
71.8308	7135.395		889.1992	
71.8848	7193.145		881.7729	
71.93879	7250.485		873.7213	
71.99278	7307.328		865.0641	
72.04678	7363.571		855.8227	
72.10076	7419.106		846.0207	
72.15475	7473.837		835.6788	
72.20875	7527.64		824.8226	
72.26274	7580.402		813.4769	
72.31673	7632.002		801.6686	
72.37072	7682.341		789.4203	
72.42471	7731.319		776.7595	
72.47871	7778.872		763.712	
72.53269	7824.959		750.3062	
72.58669	7869.579		736.5645	
72.64068	7912.723		722.515	
72.69467	7954.387		708.184	
72.74866	7994.568		693.5978	
72.80265	8033.241		678.7849	
72.85664	8070.413		663.7672	
72.91064	8106.084		648.5728	
72.96463	8140.27		633.228	
73.01862	8172.979		617.7609	
73.07261	8204.243		602.1931	
73.1266	8234.098		586.5527	
73.1806	8262.597		570.8654	
73.23458	8289.79		555.1592	
73.28857	8315.731		539.4551	
73.34257	8340.46		523.7807	
73.39656	8364.011		508.1607	
73.45055	8386.425		492.6194	
73.50454	8407.741		477.1829	
73.55853	8428.003		461.87	
73.61253	8447.249		446.7051	
73.66652	8465.532		431.7098	
73.7205	8482.923		416.9071	
73.7745	8499.498		402.3124	
73.82849	8515.318		387.9469	
73.88248	8530.439		373.8282	
73.93647	8544.899		359.9752	
73.99046	8558.737		346.3995	
74.04446	8571.989		333.1175	
74.09845	8584.685		320.1422	
74.15244	8596.841		307.4852	
74.20643	8608.468		295.1584	
74.26042	8619.58		283.1671	
74.31441	8630.187		271.5198	
74.36841	8640.29		260.2221	
74.42239	8649.901		249.2788	
74.47639	8659.041		238.6888	
74.53038	8667.729		228.4536	
74.58437	8675.999		218.5714	
74.63837	8683.884		209.0389	
74.69235	8691.42		199.8526	
74.74635	8698.642		191.0037	
74.80034	8705.572		182.4858	
74.85433	8712.234		174.2903	
74.90832	8718.652		166.4087	
74.96231	8724.846		158.8284	
75.0163	8730.809		151.5394	
75.0703	8736.536		144.5304	
75.12428	8742.029		137.7905	
75.17828	8747.303		131.3061	
75.23227	8752.361		125.0664	
75.28626	8757.212		119.0598	
75.34026	8761.849		113.2752	
75.39424	8766.272		107.7022	
75.44823	8770.492		102.3287	
75.50223	8774.528		97.14509	
75.55622	8778.393		92.14159	
75.61021	8782.094		87.3095	
75.6642	8785.638		82.63858	
75.71819	8789.046		78.12115	
75.77219	8792.34		73.7494	
75.82617	8795.536		69.51659	
75.88017	8798.643		65.41473	
75.93416	8801.652		61.43814	
75.98815	8804.563		57.58092	
76.04214	8807.362		53.83761	
76.09613	8810.041		50.20368	
76.15012	8812.581		46.67344	
76.20412	8814.961		43.24311	
76.25811	8817.168		39.90866	
76.3121	8819.193		36.66681	
76.36609	8821.045		33.51308	
76.42008	8822.732		30.44456	
76.47408	8824.272		27.458	
76.52806	8825.683		24.55057	
76.58205	8826.989		21.71822	
76.63605	8828.201		18.95814	
76.69004	8829.317		16.26709	
76.74403	8830.333		13.64183	
76.79802	8831.229		11.07945	
76.85201	8831.973		8.575991	
76.90601	8832.512		6.128621	
76.96	8832.79		3.734243	
77.01398	8832.755		1.390201	
77.06798	8832.369		-0.9070265	
77.12197	8831.622		-3.1598	
77.17596	8830.526		-5.370626	
77.22995	8829.119		-7.541473	
77.28394	8827.45		-9.674973	
77.33794	8825.562		-11.77254	
77.39193	8823.495		-13.83558	
77.44592	8821.301		-15.86514	
77.49991	8819.031		-17.86165	
77.5539	8816.723		-19.82603	
77.60789	8814.382		-21.75797	
77.66189	8811.999		-23.65715	
77.71587	8809.562		-25.52265	
77.76987	8807.052		-27.35399	
77.82386	8804.465		-29.1496	
77.87785	8801.802		-30.90788	
77.93185	8799.068		-32.62702	
77.98583	8796.282		-34.30485	
78.03983	8793.478		-35.9398	
78.09382	8790.7		-37.52956	
78.14781	8787.99		-39.0721	
78.2018	8785.386		-40.56531	
78.25579	8782.909		-42.00792	
78.30978	8780.571		-43.39825	
78.36378	8778.362		-44.73505	
78.41776	8776.261		-46.01712	
78.47176	8774.219		-47.24402	
78.52575	8772.184		-48.41508	
78.57974	8770.092		-49.53008	
78.63374	8767.891		-50.58915	
78.68772	8765.55		-51.59255	
78.74171	8763.063		-52.54129	
78.79571	8760.434		-53.43623	
78.8497	8757.665		-54.27872	
78.90369	8754.775		-55.07028	
78.95768	8751.787		-55.81301	
79.01167	8748.717		-56.50889	
79.06567	8745.569		-57.16015	
79.11965	8742.334		-57.76909	
79.17365	8738.993		-58.33823	
79.22764	8735.53		-58.86981	
79.28163	8731.935		-59.36603	
79.33562	8728.188		-59.82891	
79.38961	8724.285		-60.26016	
79.4436	8720.227		-60.66144	
79.4976	8716.036		-61.03396	
79.55159	8711.754		-61.3788	
79.60558	8707.418		-61.69683	
79.65957	8703.057		-61.98891	
79.71356	8698.697		-62.25564	
79.76756	8694.379		-62.49749	
79.82154	8690.135		-62.71474	
79.87553	8685.989		-62.90755	
79.92953	8681.954		-63.0758	
79.98352	8678.036		-63.21932	
80.03751	8674.225		-63.33781	
80.0915	8670.497		-63.43098	
80.14549	8666.818		-63.4985	
80.19949	8663.159		-63.54012	
80.25348	8659.501		-63.55568	
80.30746	8655.834		-63.54523	
80.36146	8652.17		-63.50893	
80.41545	8648.53		-63.44718	
80.46944	8644.937		-63.36056	
80.52344	8641.405		-63.24997	
80.57742	8637.95		-63.11657	
80.63142	8634.575		-62.96174	
80.68541	8631.283		-62.78714	
80.7394	8628.052		-62.59467	
80.79339	8624.85		-62.38649	
80.84738	8621.638		-62.16493	
80.90137	8618.388		-61.93264	
80.95537	8615.076		-61.6925	
81.00935	8611.703		-61.44762	
81.06335	8608.27		-61.20114	
81.11734	8604.775		-60.95641	
81.17133	8601.222		-60.71674	
81.22533	8597.625		-60.48542	
81.27931	8594.007		-60.26563	
81.33331	8590.389		-60.06021	
81.3873	8586.791		-59.87177	
81.44129	8583.229		-59.70258	
81.49528	8579.721		-59.55453	
81.54927	8576.288		-59.42915	
81.60326	8572.953		-59.32771	
81.65726	8569.728		-59.25119	
81.71124	8566.625		-59.20036	
81.76524	8563.654		-59.17574	
81.81923	8560.811		-59.17771	
81.87322	8558.093		-59.20645	
81.92722	8555.488		-59.26201	
81.9812	8552.986		-59.34435	
82.03519	8550.572		-59.45338	
82.08919	8548.239		-59.58898	
82.14318	8545.975		-59.75101	
82.19717	8543.755		-59.9393	
82.25116	8541.556		-60.15384	
82.30515	8539.349		-60.39459	
82.35915	8537.119		-60.66159	
82.41313	8534.856		-60.95495	
82.46712	8532.553		-61.27496	
82.52112	8530.208		-61.62195	
82.57511	8527.815		-61.9964	
82.6291	8525.361		-62.39889	
82.68309	8522.827		-62.83002	
82.73708	8520.195		-63.29063	
82.79108	8517.437		-63.78148	
82.84507	8514.528		-64.30344	
82.89906	8511.454		-64.85732	
82.95305	8508.212		-65.44428	
83.00704	8504.813		-66.06526	
83.06104	8501.25		-66.72129	
83.11502	8497.522		-67.41331	
83.16901	8493.646		-68.14259	
83.22301	8489.651		-68.91006	
83.277	8485.59		-69.71677	
83.33099	8481.499		-70.56363	
83.38498	8477.401		-71.45127	
83.43897	8473.307		-72.3805	
83.49297	8469.215		-73.35147	
83.54696	8465.115		-74.36414	
83.60094	8460.994		-75.41801	
83.65494	8456.834		-76.51269	
83.70893	8452.623		-77.64707	
83.76292	8448.348		-78.81992	
83.81692	8444.011		-80.02981	
83.8709	8439.619		-81.27487	
83.9249	8435.195		-82.55365	
83.97889	8430.773		-83.86401	
84.03288	8426.385		-85.20393	
84.08687	8422.051		-86.57117	
84.14086	8417.769		-87.9641	
84.19485	8413.513		-89.38055	
84.24885	8409.232		-90.81866	
84.30283	8404.878		-92.27638	
84.35683	8400.415		-93.75236	
84.41082	8395.828		-95.24467	
84.46481	8391.112		-96.75162	
84.51881	8386.278		-98.27156	
84.57279	8381.342		-99.80263	
84.62679	8376.313		-101.3436	
84.68078	8371.21		-102.8927	
84.73477	8366.033		-104.4481	
84.78876	8360.782		-106.0081	
84.84275	8355.448		-107.5714	
84.89674	8350.037		-109.1361	
84.95074	8344.557		-110.7006	
85.00472	8339.002		-112.263	
85.05872	8333.346		-113.822	
85.11271	8327.553		-115.3757	
85.1667	8321.591		-116.9223	
85.2207	8315.443		-118.4602	
85.27468	8309.108		-119.9877	
85.32867	8302.596		-121.5035	
85.38267	8295.931		-123.0062	
85.43666	8289.146		-124.4944	
85.49065	8282.272		-125.9669	
85.54464	8275.323		-127.4229	
85.59863	8268.319		-128.8613	
85.65263	8261.267		-130.2814	
85.70661	8254.16		-131.6822	
85.7606	8246.966		-133.0634	
85.8146	8239.644		-134.4243	
85.86859	8232.14		-135.7643	
85.92258	8224.434		-137.0827	
85.97657	8216.521		-138.3786	
86.03056	8208.421		-139.6518	
86.08456	8200.165		-140.9015	
86.13855	8191.792		-142.1271	
86.19254	8183.327		-143.3282	
86.24653	8174.787		-144.5051	
86.30052	8166.171		-145.6576	
86.35452	8157.484		-146.7859	
86.4085	8148.719		-147.8902	
86.46249	8139.868		-148.9714	
86.51649	8130.923		-150.0299	
86.57048	8121.889		-151.0662	
86.62447	8112.767		-152.0811	
86.67846	8103.571		-153.0746	
86.73245	8094.307		-154.0475	
86.78645	8084.984		-154.9999	
86.84044	8075.621		-155.9318	
86.89442	8066.246		-156.8432	
86.94842	8056.889		-157.7345	
87.00241	8047.587		-158.6052	
87.0564	8038.361		-159.4552	
87.1104	8029.227		-160.2841	
87.16438	8020.194		-161.0911	
87.21838	8011.259		-161.876	
87.27237	8002.408		-162.6378	
87.32636	7993.618		-163.3757	
87.38035	7984.868		-164.0891	
87.43434	7976.135		-164.7773	
87.48833	7967.416		-165.4397	
87.54233	7958.716		-166.076	
87.59631	7950.065		-166.686	
87.65031	7941.477		-167.2699	
87.7043	7932.962		-167.8282	
87.75829	7924.523		-168.3616	
87.81229	7916.146		-168.8711	
87.86627	7907.806		-169.3579	
87.92027	7899.47		-169.8237	
87.97426	7891.106		-170.2698	
88.02825	7882.681		-170.6981	
88.08224	7874.164		-171.11	
88.13623	7865.519		-171.5073	
88.19022	7856.727		-171.8915	
88.24422	7847.772		-172.2641	
88.2982	7838.653		-172.6263	
88.3522	7829.381		-172.9797	
88.40619	7819.995		-173.3255	
88.46018	7810.529		-173.665	
88.51418	7801.004		-173.9992	
88.56816	7791.44		-174.3293	
88.62215	7781.848		-174.656	
88.67615	7772.229		-174.9801	
88.73014	7762.549		-175.3018	
88.78413	7752.774		-175.6213	
88.83812	7742.867		-175.9385	
88.89211	7732.817		-176.253	
88.94611	7722.627		-176.5643	
89.00009	7712.318		-176.8715	
89.05408	7701.905		-177.1739	
89.10808	7691.432		-177.47	
89.16207	7680.948		-177.7587	
89.21606	7670.519		-178.0383	
89.27005	7660.193		-178.3071	
89.32404	7650.003		-178.5635	
89.37804	7639.951		-178.8057	
89.43203	7630.029		-179.032	
89.48602	7620.204		-179.2404	
89.54001	7610.454		-179.4296	
89.594	7600.755		-179.5976	
89.64799	7591.083		-179.7433	
89.70198	7581.417		-179.8653	
89.75597	7571.738		-179.9629	
89.80997	7562.021		-180.0354	
89.86396	7552.26		-180.0829	
89.91795	7542.456		-180.1057	
89.97194	7532.635		-180.1046	
90.02593	7522.827		-180.0808	
90.07993	7513.059		-180.0359	
90.13392	7503.341		-179.9719	
90.1879	7493.671		-179.8907	
90.2419	7484.016		-179.7946	
90.29589	7474.346		-179.6858	
90.34988	7464.622		-179.5663	
90.40388	7454.818		-179.4386	
90.45786	7444.904		-179.3046	
90.51186	7434.86		-179.1665	
90.56585	7424.693		-179.0263	
90.61984	7414.44		-178.8857	
90.67383	7404.146		-178.7465	
90.72782	7393.864		-178.61	
90.78181	7383.646		-178.4778	
90.83581	7373.526		-178.3511	
90.88979	7363.529		-178.2309	
90.94379	7353.664		-178.1183	
90.99778	7343.928		-178.014	
91.05177	7334.313		-177.9189	
91.10577	7324.803		-177.8332	
91.15975	7315.383		-177.7573	
91.21375	7306.04		-177.6912	
91.26774	7296.763		-177.6346	
91.32173	7287.552		-177.5872	
91.37572	7278.412		-177.5484	
91.42971	7269.331		-177.5175	
91.4837	7260.302		-177.4939	
91.5377	7251.331		-177.4765	
91.59168	7242.424		-177.4644	
91.64568	7233.58		-177.4564	
91.69967	7224.797		-177.4517	
91.75366	7216.054		-177.4493	
91.80766	7207.316		-177.4484	
91.86164	7198.552		-177.4481	
91.91563	7189.718		-177.448	
91.96963	7180.787		-177.4476	
92.02362	7171.742		-177.4468	
92.07761	7162.577		-177.4455	
92.1316	7153.285		-177.444	
92.18559	7143.869		-177.4427	
92.23959	7134.341		-177.4422	
92.29357	7124.724		-177.4433	
92.34756	7115.031		-177.4465	
92.40156	7105.279		-177.4526	
92.45555	7095.48		-177.4873	
92.50954	7085.647		-177.5125	
92.56353	7075.777		-177.5315	
92.61752	7065.86		-177.5475	
92.67152	7055.902		-177.5629	
92.72551	7045.92		-177.5789	
92.7795	7035.929		-177.5966	
92.83349	7025.938		-177.6163	
92.88748	7015.955		-177.6384	
92.94147	7005.98		-177.6626	
92.99546	6996.009		-177.6891	
93.04945	6986.038		-177.7176	
93.10345	6976.063		-177.7479	
93.15744	6966.094		-177.7798	
93.21143	6956.134		-177.8132	
93.26542	6946.197		-177.8477	
93.31941	6936.282		-177.8831	
93.37341	6926.398		-177.9194	
93.4274	6916.529		-177.9561	
93.48138	6906.67		-177.9933	
93.53538	6896.815		-178.0305	
93.58937	6886.961		-178.0678	
93.64336	6877.117		-178.1048	
93.69736	6867.297		-178.1414	
93.75134	6857.515		-178.1775	
93.80534	6847.786		-178.2128	
93.85933	6838.112		-178.2472	
93.91332	6828.484		-178.2806	
93.96731	6818.881		-178.3128	
94.0213	6809.298		-178.3437	
94.07529	6799.814		-178.3732	
94.12929	6790.437		-178.4012	
94.18327	6781.125		-178.4275	
94.23727	6771.842		-178.4521	
94.29126	6762.577		-178.4749	
94.34525	6753.318		-178.4959	
94.39925	6744.065		-178.515	
94.45323	6734.815		-178.5321	
94.50723	6725.567		-178.5473	
94.56122	6716.322		-178.5605	
94.61521	6707.082		-178.5717	
94.6692	6697.848		-178.5808	
94.72319	6688.619		-178.588	
94.77718	6679.397		-178.5932	
94.83118	6670.183		-178.5964	
94.88516	6660.979		-178.5977	
94.93916	6651.785		-178.597	
94.99315	6642.605		-178.5945	
