T[Â°C]	350nm [counts / mm]	S.D.	First derivative	S.D. of first derivative
19.99924	6981.967		-105.5985	
20.05323	6976.188		-105.4131	
20.10722	6970.416		-105.2287	
20.16121	6964.652		-105.0455	
20.2152	6958.895		-104.8634	
20.26919	6953.146		-104.6825	
20.32318	6947.406		-104.503	
20.37717	6941.676		-104.3248	
20.43116	6935.956		-104.148	
20.48515	6930.246		-103.9727	
20.53914	6924.547		-103.7989	
20.59313	6918.857		-103.6267	
20.64712	6913.176		-103.4561	
20.70111	6907.501		-103.2872	
20.7551	6901.833		-103.1201	
20.80909	6896.167		-102.9548	
20.86308	6890.503		-102.7912	
20.91707	6884.843		-102.6296	
20.97106	6879.198		-102.4699	
21.02505	6873.653		-102.3121	
21.07904	6868.076		-102.1562	
21.13303	6862.47		-102.0023	
21.18702	6856.841		-101.8504	
21.24101	6851.207		-101.7004	
21.295	6845.585		-101.5523	
21.34899	6839.992		-101.4061	
21.40298	6834.435		-101.2618	
21.45697	6828.908		-101.1193	
21.51097	6823.417		-100.9785	
21.56495	6817.972		-100.8393	
21.61894	6812.577		-100.7018	
21.67294	6807.225		-100.5657	
21.72692	6801.906		-100.4309	
21.78092	6796.613		-100.2973	
21.83491	6791.339		-100.1648	
21.8889	6786.077		-100.0331	
21.94289	6780.827		-99.90209	
21.99688	6775.589		-99.77149	
22.05087	6770.357		-99.64104	
22.10486	6765.136		-99.51045	
22.15885	6759.93		-99.37937	
22.21284	6754.75		-99.24746	
22.26683	6749.608		-99.11438	
22.32082	6744.517		-98.97983	
22.37481	6739.484		-98.84372	
22.4288	6734.512		-98.70625	
22.48279	6729.594		-98.56818	
22.53678	6724.716		-98.43102	
22.59077	6719.859		-98.29687	
22.64476	6715.004		-98.24335	
22.69875	6710.132		-98.19524	
22.75274	6705.225		-98.15292	
22.80673	6700.276		-98.11684	
22.86072	6695.283		-98.08742	
22.91471	6690.233		-98.06506	
22.9687	6685.117		-98.05015	
23.02269	6679.934		-98.04298	
23.07668	6674.688		-98.04379	
23.13067	6669.385		-98.05267	
23.18466	6664.033		-98.06956	
23.23865	6658.644		-98.09428	
23.29264	6653.232		-98.12646	
23.34663	6647.807		-98.16563	
23.40062	6642.363		-98.21116	
23.45461	6636.898		-98.26225	
23.5086	6631.412		-98.31802	
23.56259	6625.91		-98.3775	
23.61658	6620.396		-98.4397	
23.67057	6614.872		-98.50352	
23.72456	6609.342		-98.56789	
23.77855	6603.808		-98.63172	
23.83254	6598.27		-98.69393	
23.88653	6592.735		-98.75346	
23.94052	6587.212		-98.80934	
23.99451	6581.709		-98.86064	
24.0485	6576.231		-98.90653	
24.10249	6570.771		-98.94626	
24.15648	6565.325		-98.97911	
24.21047	6559.895		-99.00444	
24.26447	6554.488		-99.02165	
24.31845	6549.114		-99.03025	
24.37244	6543.781		-99.02985	
24.42644	6538.482		-99.02017	
24.48042	6533.215		-99.0011	
24.53442	6527.978		-98.97266	
24.58841	6522.767		-98.93503	
24.6424	6517.573		-98.88856	
24.69639	6512.39		-98.83372	
24.75038	6507.201		-98.77113	
24.80437	6501.991		-98.70148	
24.85836	6496.743		-98.6256	
24.91235	6491.437		-98.54435	
24.96634	6486.051		-98.45866	
25.02033	6480.574		-98.36953	
25.07432	6475.004		-98.27801	
25.12831	6469.352		-98.18517	
25.1823	6463.623		-98.09209	
25.23629	6457.843		-97.99974	
25.29028	6452.054		-97.90903	
25.34427	6446.302		-97.82071	
25.39826	6440.617		-97.73537	
25.45225	6435.016		-97.65336	
25.50624	6429.506		-97.57487	
25.56023	6424.075		-97.49992	
25.61422	6418.709		-97.42838	
25.66821	6413.396		-97.36005	
25.7222	6408.129		-97.29462	
25.77619	6402.904		-97.23181	
25.83018	6397.712		-97.17125	
25.88417	6392.555		-97.11259	
25.93816	6387.438		-97.05549	
25.99215	6382.378		-96.99963	
26.04614	6377.384		-96.9448	
26.10013	6372.452		-96.89081	
26.15412	6367.582		-96.83755	
26.20811	6362.768		-96.78489	
26.2621	6358.002		-96.73277	
26.31609	6353.278		-96.68107	
26.37008	6348.582		-96.6297	
26.42407	6343.89		-96.57855	
26.47806	6339.178		-96.5275	
26.53205	6334.42		-96.47645	
26.58604	6329.592		-96.42529	
26.64003	6324.682		-96.37393	
26.69402	6319.687		-96.32235	
26.74801	6314.615		-96.27058	
26.802	6309.481		-96.21873	
26.85599	6304.305		-96.16702	
26.90998	6299.098		-96.11569	
26.96397	6293.862		-96.06504	
27.01797	6288.6		-96.01542	
27.07195	6283.312		-95.96719	
27.12594	6277.987		-95.92075	
27.17994	6272.612		-95.87643	
27.23392	6267.187		-95.83452	
27.28792	6261.721		-95.79518	
27.34191	6256.23		-95.75848	
27.3959	6250.731		-95.72435	
27.44989	6245.245		-95.69261	
27.50388	6239.793		-95.66296	
27.55787	6234.392		-95.63501	
27.61186	6229.04		-95.60832	
27.66585	6223.73		-95.58236	
27.71984	6218.456		-95.55659	
27.77383	6213.211		-95.53045	
27.82782	6207.992		-95.50344	
27.88181	6202.793		-95.47512	
27.9358	6197.61		-95.44505	
27.98979	6192.444		-95.41285	
28.04378	6187.297		-95.37821	
28.09777	6182.17		-95.34089	
28.15176	6177.061		-95.30074	
28.20575	6171.958		-95.25769	
28.25974	6166.853		-95.21178	
28.31373	6161.731		-95.16304	
28.36772	6156.589		-95.11157	
28.42171	6151.432		-95.05744	
28.4757	6146.258		-95.00072	
28.52969	6141.071		-94.94147	
28.58368	6135.869		-94.87976	
28.63767	6130.644		-94.81564	
28.69166	6125.394		-94.74914	
28.74565	6120.12		-94.68034	
28.79964	6114.827		-94.6094	
28.85363	6109.529		-94.5365	
28.90762	6104.248		-94.46191	
28.96161	6099.005		-94.38599	
29.0156	6093.818		-94.30912	
29.06959	6088.691		-94.23173	
29.12358	6083.618		-94.15421	
29.17757	6078.592		-94.07697	
29.23156	6073.605		-94.00036	
29.28555	6068.646		-93.92474	
29.33954	6063.702		-93.8504	
29.39353	6058.761		-93.77763	
29.44752	6053.825		-93.70666	
29.50151	6048.909		-93.63771	
29.5555	6044.023		-93.57101	
29.60949	6039.18		-93.5067	
29.66348	6034.388		-93.44495	
29.71747	6029.648		-93.38591	
29.77147	6024.95		-93.32977	
29.82545	6020.279		-93.27679	
29.87944	6015.618		-93.22732	
29.93344	6010.941		-93.18169	
29.98742	6006.226		-93.14031	
30.04142	6001.448		-93.10352	
30.09541	5996.593		-93.07168	
30.1494	5991.655		-93.04508	
30.20339	5986.64		-93.02406	
30.25738	5981.556		-93.00892	
30.31137	5976.415		-92.99995	
30.36536	5971.234		-92.99746	
30.41935	5966.019		-93.00165	
30.47334	5960.78		-93.01268	
30.52733	5955.531		-93.03065	
30.58132	5950.287		-93.05553	
30.63531	5945.064		-93.08714	
30.6893	5939.871		-93.12515	
30.74329	5934.708		-93.16913	
30.79728	5929.571		-93.21847	
30.85127	5924.457		-93.27245	
30.90526	5919.364		-93.3303	
30.95925	5914.292		-93.39114	
31.01324	5909.244		-93.45406	
31.06723	5904.217		-93.51808	
31.12122	5899.207		-93.58217	
31.17521	5894.212		-93.64525	
31.2292	5889.236		-93.70626	
31.28319	5884.278		-93.76416	
31.33718	5879.338		-93.81795	
31.39117	5874.411		-93.86671	
31.44516	5869.494		-93.90965	
31.49915	5864.572		-93.94608	
31.55314	5859.631		-93.97542	
31.60713	5854.665		-93.99717	
31.66112	5849.679		-94.01093	
31.71511	5844.69		-94.0164	
31.7691	5839.708		-94.01344	
31.82309	5834.74		-94.00208	
31.87708	5829.786		-93.98252	
31.93107	5824.834		-93.9551	
31.98506	5819.864		-93.92029	
32.03905	5814.853		-93.87865	
32.09304	5809.778		-93.83085	
32.14703	5804.634		-93.77763	
32.20102	5799.417		-93.7198	
32.25501	5794.141		-93.65824	
32.30901	5788.822		-93.59393	
32.363	5783.467		-93.52789	
32.41698	5778.077		-93.46115	
32.47097	5772.661		-93.39472	
32.52496	5767.237		-93.32955	
32.57896	5761.831		-93.26646	
32.63295	5756.466		-93.20615	
32.68694	5751.152		-93.14913	
32.74092	5745.885		-93.09573	
32.79491	5740.652		-93.04615	
32.84891	5735.442		-93.00039	
32.9029	5730.238		-92.95833	
32.95689	5725.034		-92.91973	
33.01088	5719.835		-92.8843	
33.06487	5714.644		-92.85165	
33.11886	5709.466		-92.82135	
33.17285	5704.317		-92.79289	
33.22684	5699.216		-92.76574	
33.28083	5694.179		-92.73934	
33.33482	5689.215		-92.71315	
33.38881	5684.334		-92.68665	
33.4428	5679.542		-92.65936	
33.49679	5674.829		-92.63087	
33.55078	5670.177		-92.60078	
33.60477	5665.556		-92.56872	
33.65876	5660.948		-92.53434	
33.71275	5656.339		-92.49736	
33.76674	5651.723		-92.45752	
33.82073	5647.094		-92.41463	
33.87472	5642.458		-92.36859	
33.92871	5637.819		-92.31934	
33.9827	5633.169		-92.26688	
34.03669	5628.491		-92.21124	
34.09068	5623.767		-92.15254	
34.14467	5618.991		-92.09097	
34.19866	5614.172		-92.0268	
34.25265	5609.328		-91.96041	
34.30664	5604.473		-91.8922	
34.36063	5599.605		-91.82259	
34.41462	5594.709		-91.75197	
34.46861	5589.777		-91.68073	
34.5226	5584.802		-91.60918	
34.57659	5579.787		-91.53759	
34.63058	5574.738		-91.46616	
34.68457	5569.659		-91.39503	
34.73856	5564.551		-91.32433	
34.79255	5559.421		-91.25413	
34.84654	5554.268		-91.18441	
34.90053	5549.089		-91.11514	
34.95452	5543.89		-91.04621	
35.00851	5538.672		-90.97756	
35.0625	5533.437		-90.90908	
35.11649	5528.201		-90.84068	
35.17048	5522.988		-90.77223	
35.22448	5517.825		-90.70363	
35.27847	5512.728		-90.63476	
35.33245	5507.702		-90.56554	
35.38644	5502.746		-90.49592	
35.44043	5497.849		-90.42585	
35.49443	5492.989		-90.35533	
35.54842	5488.134		-90.28439	
35.60241	5483.253		-90.2131	
35.65639	5478.331		-90.14156	
35.71039	5473.368		-90.0699	
35.76438	5468.372		-89.9983	
35.81837	5463.35		-89.92692	
35.87236	5458.319		-89.8559	
35.92635	5453.3		-89.78536	
35.98034	5448.311		-89.71542	
36.03433	5443.361		-89.64616	
36.08832	5438.455		-89.57767	
36.14231	5433.591		-89.51003	
36.1963	5428.766		-89.44335	
36.25029	5423.97		-89.37771	
36.30428	5419.197		-89.31321	
36.35827	5414.435		-89.24989	
36.41226	5409.666		-89.18777	
36.46625	5404.879		-89.12679	
36.52024	5400.077		-89.06694	
36.57423	5395.274		-89.00819	
36.62822	5390.492		-88.95056	
36.68221	5385.748		-88.89417	
36.7362	5381.058		-88.83923	
36.79019	5376.441		-88.78596	
36.84418	5371.91		-88.73469	
36.89817	5367.471		-88.68567	
36.95216	5363.12		-88.63916	
37.00615	5358.836		-88.59539	
37.06014	5354.587		-88.55458	
37.11413	5350.335		-88.51688	
37.16812	5346.048		-88.48234	
37.22211	5341.704		-88.45091	
37.2761	5337.288		-88.42249	
37.33009	5332.789		-88.39688	
37.38408	5328.213		-88.37386	
37.43807	5323.569		-88.35318	
37.49206	5318.867		-88.33458	
37.54605	5314.117		-88.31786	
37.60004	5309.329		-88.30289	
37.65403	5304.511		-88.28963	
37.70802	5299.68		-88.27803	
37.76201	5294.842		-88.26813	
37.81601	5289.995		-88.25989	
37.87	5285.13		-88.25321	
37.92398	5280.231		-88.24796	
37.97797	5275.291		-88.24394	
38.03196	5270.307		-88.24088	
38.08596	5265.281		-88.23842	
38.13995	5260.217		-88.23611	
38.19394	5255.116		-88.23343	
38.24792	5249.99		-88.22981	
38.30191	5244.859		-88.22462	
38.35591	5239.744		-88.21716	
38.4099	5234.662		-88.2067	
38.46389	5229.631		-88.19246	
38.51788	5224.659		-88.17374	
38.57187	5219.75		-88.14983	
38.62586	5214.901		-88.12016	
38.67985	5210.107		-88.08421	
38.73384	5205.362		-88.04162	
38.78783	5200.655		-87.99211	
38.84182	5195.973		-87.93554	
38.89581	5191.301		-87.87185	
38.9498	5186.628		-87.80109	
39.00379	5181.947		-87.72345	
39.05778	5177.243		-87.63921	
39.11177	5172.5		-87.54871	
39.16576	5167.717		-87.45235	
39.21975	5162.897		-87.3505	
39.27374	5158.048		-87.24352	
39.32773	5153.181		-87.13176	
39.38172	5148.303		-87.01552	
39.43571	5143.424		-86.89515	
39.4897	5138.557		-86.77098	
39.54369	5133.711		-86.64339	
39.59768	5128.892		-86.51279	
39.65167	5124.102		-86.37968	
39.70566	5119.356		-86.24461	
39.75965	5114.66		-86.10816	
39.81364	5110.009		-85.97099	
39.86763	5105.39		-85.8337	
39.92162	5100.788		-85.6969	
39.97561	5096.199		-85.56123	
40.0296	5091.624		-85.42725	
40.08359	5087.056		-85.29552	
40.13758	5082.489		-85.16653	
40.19157	5077.922		-85.0407	
40.24556	5073.368		-84.91843	
40.29955	5068.837		-84.8	
40.35354	5064.348		-84.68563	
40.40753	5059.913		-84.57545	
40.46152	5055.546		-84.46953	
40.51551	5051.239		-84.36796	
40.5695	5046.976		-84.27077	
40.62349	5042.745		-84.17801	
40.67748	5038.54		-84.08968	
40.73148	5034.344		-84.00584	
40.78547	5030.139		-83.92655	
40.83945	5025.901		-83.85191	
40.89344	5021.613		-83.78205	
40.94744	5017.269		-83.71714	
41.00143	5012.868		-83.65741	
41.05542	5008.415		-83.60313	
41.10941	5003.917		-83.55458	
41.16339	4999.388		-83.51212	
41.21739	4994.838		-83.47605	
41.27138	4990.279		-83.44672	
41.32537	4985.716		-83.42435	
41.37936	4981.159		-83.40912	
41.43335	4976.617		-83.40108	
41.48734	4972.09		-83.40019	
41.54133	4967.576		-83.40622	
41.59532	4963.061		-83.41879	
41.64931	4958.531		-83.43732	
41.7033	4953.984		-83.46112	
41.75729	4949.424		-83.4894	
41.81128	4944.86		-83.52126	
41.86527	4940.306		-83.55578	
41.91926	4935.768		-83.592	
41.97325	4931.254		-83.62895	
42.02724	4926.765		-83.66568	
42.08123	4922.292		-83.70131	
42.13522	4917.825		-83.73499	
42.18921	4913.351		-83.76596	
42.2432	4908.862		-83.7935	
42.29719	4904.352		-83.81698	
42.35118	4899.82		-83.83575	
42.40517	4895.28		-83.84921	
42.45916	4890.745		-83.85683	
42.51315	4886.214		-83.85814	
42.56714	4881.687		-83.85275	
42.62113	4877.164		-83.84035	
42.67512	4872.65		-83.82069	
42.72911	4868.151		-83.79367	
42.7831	4863.663		-83.7593	
42.83709	4859.183		-83.71776	
42.89108	4854.708		-83.66933	
42.94507	4850.233		-83.61446	
42.99906	4845.75		-83.55372	
43.05305	4841.244		-83.48773	
43.10704	4836.696		-83.41726	
43.16103	4832.092		-83.34317	
43.21502	4827.426		-83.26643	
43.26901	4822.695		-83.18806	
43.32301	4817.904		-83.10908	
43.377	4813.07		-83.03048	
43.43098	4808.221		-82.95319	
43.48497	4803.385		-82.87802	
43.53896	4798.585		-82.80566	
43.59296	4793.833		-82.7366	
43.64695	4789.136		-82.67119	
43.70094	4784.485		-82.60954	
43.75492	4779.868		-82.55159	
43.80891	4775.274		-82.49717	
43.86291	4770.689		-82.44595	
43.9169	4766.111		-82.39753	
43.97089	4761.537		-82.3514	
44.02488	4756.97		-82.30704	
44.07887	4752.423		-82.26385	
44.13286	4747.91		-82.2213	
44.18685	4743.449		-82.17889	
44.24084	4739.057		-82.13619	
44.29483	4734.744		-82.0929	
44.34882	4730.509		-82.04875	
44.40281	4726.341		-82.00352	
44.4568	4722.234		-81.95702	
44.51079	4718.186		-81.90906	
44.56478	4714.191		-81.8595	
44.61877	4710.235		-81.80817	
44.67276	4706.296		-81.75495	
44.72675	4702.351		-81.6997	
44.78074	4698.379		-81.64233	
44.83473	4694.363		-81.58284	
44.88872	4690.292		-81.52132	
44.94271	4686.167		-81.45797	
44.9967	4681.997		-81.39316	
45.05069	4677.787		-81.32732	
45.10468	4673.537		-81.26101	
45.15867	4669.252		-81.19489	
45.21266	4664.944		-81.12975	
45.26665	4660.615		-81.06637	
45.32064	4656.257		-81.00557	
45.37463	4651.867		-80.94813	
45.42862	4647.437		-80.89474	
45.48261	4642.96		-80.84596	
45.5366	4638.426		-80.8022	
45.59059	4633.832		-80.76367	
45.64458	4629.192		-80.73042	
45.69857	4624.521		-80.70232	
45.75256	4619.834		-80.67913	
45.80655	4615.139		-80.66039	
45.86054	4610.447		-80.64555	
45.91454	4605.774		-80.63392	
45.96852	4601.134		-80.62476	
46.02251	4596.537		-80.61723	
46.0765	4591.986		-80.61042	
46.13049	4587.479		-80.60341	
46.18449	4583.018		-80.59528	
46.23848	4578.607		-80.58514	
46.29247	4574.245		-80.5722	
46.34645	4569.922		-80.55573	
46.40044	4565.625		-80.53509	
46.45444	4561.343		-80.50972	
46.50843	4557.071		-80.47913	
46.56242	4552.803		-80.44286	
46.61641	4548.535		-80.40059	
46.67039	4544.256		-80.35198	
46.72439	4539.966		-80.29681	
46.77838	4535.666		-80.23489	
46.83237	4531.355		-80.16618	
46.88636	4527.033		-80.09065	
46.94035	4522.704		-80.0085	
46.99434	4518.386		-79.92	
47.04833	4514.085		-79.82564	
47.10232	4509.799		-79.72601	
47.15631	4505.521		-79.62181	
47.2103	4501.249		-79.51389	
47.26429	4496.988		-79.40315	
47.31828	4492.738		-79.29066	
47.37227	4488.49		-79.17747	
47.42626	4484.235		-79.06464	
47.48025	4479.958		-78.9532	
47.53424	4475.649		-78.84406	
47.58823	4471.3		-78.73803	
47.64222	4466.914		-78.63577	
47.69621	4462.499		-78.5378	
47.7502	4458.068		-78.4445	
47.80419	4453.635		-78.35613	
47.85818	4449.214		-78.27275	
47.91217	4444.82		-78.19434	
47.96616	4440.472		-78.12071	
48.02015	4436.188		-78.05164	
48.07414	4431.982		-77.98675	
48.12813	4427.861		-77.92565	
48.18212	4423.812		-77.86791	
48.23611	4419.818		-77.81308	
48.2901	4415.852		-77.7607	
48.34409	4411.887		-77.71038	
48.39808	4407.91		-77.66171	
48.45207	4403.905		-77.61433	
48.50606	4399.868		-77.56793	
48.56005	4395.801		-77.52222	
48.61404	4391.716		-77.47696	
48.66803	4387.632		-77.4319	
48.72202	4383.567		-77.38687	
48.77601	4379.533		-77.34173	
48.83001	4375.53		-77.29636	
48.884	4371.551		-77.25073	
48.93798	4367.589		-77.20484	
48.99197	4363.64		-77.15875	
49.04596	4359.689		-77.11263	
49.09996	4355.721		-77.06664	
49.15395	4351.719		-77.02101	
49.20794	4347.672		-76.97604	
49.26192	4343.572		-76.93198	
49.31592	4339.419		-76.88921	
49.36991	4335.214		-76.84804	
49.4239	4330.959		-76.80883	
49.47789	4326.659		-76.77193	
49.53188	4322.321		-76.73766	
49.58587	4317.955		-76.70634	
49.63986	4313.577		-76.6782	
49.69385	4309.201		-76.65337	
49.74784	4304.836		-76.63192	
49.80183	4300.489		-76.61382	
49.85582	4296.159		-76.59889	
49.90981	4291.84		-76.58687	
49.9638	4287.531		-76.57732	
50.01779	4283.236		-76.56973	
50.07178	4278.967		-76.56342	
50.12577	4274.726		-76.55772	
50.17976	4270.518		-76.55191	
50.23375	4266.348		-76.54526	
50.28774	4262.217		-76.53709	
50.34173	4258.129		-76.52676	
50.39572	4254.081		-76.5137	
50.44971	4250.065		-76.49741	
50.5037	4246.066		-76.47746	
50.55769	4242.071		-76.45352	
50.61168	4238.072		-76.42532	
50.66567	4234.064		-76.39266	
50.71966	4230.04		-76.35537	
50.77365	4225.995		-76.31335	
50.82764	4221.928		-76.26656	
50.88163	4217.837		-76.215	
50.93562	4213.724		-76.15878	
50.98961	4209.598		-76.09801	
51.0436	4205.47		-76.03294	
51.09759	4201.352		-75.96381	
51.15158	4197.251		-75.89101	
51.20557	4193.174		-75.81493	
51.25956	4189.122		-75.73605	
51.31355	4185.093		-75.65484	
51.36754	4181.083		-75.57185	
51.42154	4177.072		-75.48758	
51.47552	4173.041		-75.40263	
51.52951	4168.968		-75.31757	
51.5835	4164.843		-75.23299	
51.63749	4160.665		-75.14944	
51.69149	4156.439		-75.06743	
51.74548	4152.182		-74.98743	
51.79947	4147.909		-74.90984	
51.85345	4143.64		-74.83492	
51.90744	4139.394		-74.76288	
51.96144	4135.193		-74.6938	
52.01543	4131.054		-74.62768	
52.06942	4126.98		-74.56438	
52.12341	4122.969		-74.5037	
52.17739	4119.014		-74.44538	
52.23139	4115.101		-74.38908	
52.28538	4111.214		-74.33448	
52.33937	4107.336		-74.28123	
52.39336	4103.448		-74.22901	
52.44735	4099.524		-74.1775	
52.50134	4095.552		-74.1264	
52.55533	4091.535		-74.07552	
52.60932	4087.491		-74.02464	
52.66331	4083.441		-73.97359	
52.7173	4079.406		-73.92222	
52.77129	4075.404		-73.87042	
52.82528	4071.448		-73.81816	
52.87927	4067.539		-73.76539	
52.93326	4063.677		-73.71207	
52.98725	4059.859		-73.65819	
53.04124	4056.078		-73.6037	
53.09523	4052.316		-73.54858	
53.14922	4048.552		-73.49277	
53.20321	4044.767		-73.43626	
53.2572	4040.949		-73.37894	
53.31119	4037.089		-73.3208	
53.36518	4033.181		-73.2618	
53.41917	4029.228		-73.20195	
53.47316	4025.244		-73.14134	
53.52715	4021.242		-73.08011	
53.58114	4017.23		-73.01846	
53.63513	4013.215		-72.95662	
53.68912	4009.202		-72.89481	
53.74311	4005.194		-72.83324	
53.7971	4001.193		-72.77212	
53.85109	3997.198		-72.71158	
53.90508	3993.209		-72.65168	
53.95907	3989.23		-72.59241	
54.01306	3985.255		-72.5337	
54.06705	3981.281		-72.47537	
54.12104	3977.306		-72.41727	
54.17503	3973.327		-72.35919	
54.22902	3969.341		-72.30091	
54.28301	3965.358		-72.24221	
54.33701	3961.392		-72.18293	
54.391	3957.451		-72.12292	
54.44498	3953.536		-72.06213	
54.49897	3949.642		-72.00047	
54.55297	3945.761		-71.93793	
54.60696	3941.89		-71.87452	
54.66095	3938.026		-71.8103	
54.71494	3934.17		-71.74536	
54.76892	3930.314		-71.67986	
54.82292	3926.453		-71.61399	
54.87691	3922.576		-71.548	
54.9309	3918.677		-71.48207	
54.98489	3914.759		-71.41637	
55.03888	3910.831		-71.35103	
55.09287	3906.899		-71.28613	
55.14686	3902.979		-71.2217	
55.20085	3899.082		-71.15771	
55.25484	3895.218		-71.09409	
55.30883	3891.378		-71.03072	
55.36282	3887.547		-70.9675	
55.41681	3883.714		-70.90435	
55.4708	3879.871		-70.84122	
55.52479	3876.021		-70.77812	
55.57878	3872.166		-70.71509	
55.63277	3868.312		-70.65216	
55.68676	3864.472		-70.58942	
55.74075	3860.655		-70.52694	
55.79474	3856.868		-70.46482	
55.84873	3853.112		-70.40313	
55.90272	3849.388		-70.34193	
55.95671	3845.69		-70.28127	
56.0107	3842.01		-70.22112	
56.06469	3838.343		-70.16149	
56.11868	3834.687		-70.10231	
56.17267	3831.039		-70.04349	
56.22666	3827.398		-69.98495	
56.28065	3823.761		-69.92664	
56.33464	3820.12		-69.86849	
56.38863	3816.469		-69.81052	
56.44262	3812.806		-69.75275	
56.49661	3809.128		-69.69528	
56.5506	3805.435		-69.63824	
56.60459	3801.725		-69.58181	
56.65858	3798.001		-69.52625	
56.71257	3794.264		-69.47184	
56.76656	3790.52		-69.41889	
56.82055	3786.772		-69.36771	
56.87454	3783.018		-69.31858	
56.92854	3779.251		-69.27172	
56.98252	3775.47		-69.22731	
57.03651	3771.671		-69.18542	
57.0905	3767.861		-69.14608	
57.14449	3764.042		-69.10921	
57.19849	3760.222		-69.07466	
57.25248	3756.406		-69.04224	
57.30647	3752.596		-69.01163	
57.36045	3748.787		-68.98248	
57.41444	3744.978		-68.95435	
57.46844	3741.174		-68.9268	
57.52243	3737.379		-68.89933	
57.57642	3733.59		-68.87142	
57.63041	3729.804		-68.84254	
57.68439	3726.028		-68.81212	
57.73839	3722.267		-68.77962	
57.79238	3718.521		-68.7445	
57.84637	3714.795		-68.70619	
57.90036	3711.089		-68.66418	
57.95435	3707.401		-68.61797	
58.00834	3703.726		-68.56711	
58.06233	3700.057		-68.51116	
58.11632	3696.39		-68.44971	
58.17031	3692.726		-68.38239	
58.2243	3689.068		-68.30886	
58.27829	3685.417		-68.22889	
58.33228	3681.775		-68.1423	
58.38627	3678.145		-68.04893	
58.44026	3674.528		-67.94878	
58.49425	3670.921		-67.84184	
58.54824	3667.323		-67.7283	
58.60223	3663.729		-67.60841	
58.65622	3660.135		-67.48251	
58.71021	3656.536		-67.35104	
58.7642	3652.931		-67.21445	
58.81819	3649.313		-67.07324	
58.87218	3645.668		-66.92789	
58.92617	3641.989		-66.77892	
58.98016	3638.271		-66.62679	
59.03415	3634.516		-66.47199	
59.08814	3630.729		-66.31493	
59.14213	3626.915		-66.15597	
59.19612	3623.085		-65.99536	
59.25011	3619.254		-65.83329	
59.3041	3615.436		-65.66981	
59.35809	3611.646		-65.50493	
59.41208	3607.89		-65.33852	
59.46607	3604.17		-65.1704	
59.52006	3600.483		-65.00036	
59.57405	3596.821		-64.82808	
59.62804	3593.182		-64.65325	
59.68203	3589.57		-64.47549	
59.73602	3585.99		-64.29436	
59.79002	3582.447		-64.10941	
59.84401	3578.945		-63.92025	
59.89799	3575.487		-63.72644	
59.95198	3572.07		-63.52763	
60.00597	3568.689		-63.3235	
60.05997	3565.341		-63.11377	
60.11396	3562.032		-62.89825	
60.16795	3558.767		-62.67677	
60.22194	3555.542		-62.44925	
60.27592	3552.352		-62.21572	
60.32992	3549.186		-61.97622	
60.38391	3546.037		-61.73093	
60.4379	3542.892		-61.48003	
60.49189	3539.743		-61.2238	
60.54588	3536.578		-60.96259	
60.59987	3533.4		-60.69682	
60.65386	3530.216		-60.42703	
60.70785	3527.031		-60.15374	
60.76184	3523.843		-59.87751	
60.81583	3520.644		-59.59895	
60.86982	3517.425		-59.31858	
60.92381	3514.185		-59.03704	
60.9778	3510.928		-58.75481	
61.03179	3507.66		-58.47236	
61.08578	3504.381		-58.19006	
61.13977	3501.09		-57.90819	
61.19376	3497.782		-57.62696	
61.24775	3494.464		-57.34644	
61.30174	3491.146		-57.06654	
61.35573	3487.847		-56.7871	
61.40972	3484.58		-56.50777	
61.46371	3481.353		-56.22819	
61.5177	3478.168		-55.94777	
61.57169	3475.031		-55.66584	
61.62568	3471.941		-55.38152	
61.67967	3468.899		-55.09388	
61.73366	3465.901		-54.80178	
61.78765	3462.945		-54.50401	
61.84164	3460.031		-54.19932	
61.89563	3457.156		-53.8864	
61.94962	3454.314		-53.564	
62.00361	3451.493		-53.2308	
62.0576	3448.686		-52.88555	
62.11159	3445.894		-52.52698	
62.16558	3443.123		-52.1539	
62.21957	3440.383		-51.76524	
62.27356	3437.684		-51.35996	
62.32755	3435.03		-50.93715	
62.38154	3432.412		-50.49594	
62.43554	3429.814		-50.03558	
62.48952	3427.219		-49.55544	
62.54351	3424.611		-49.05493	
62.5975	3421.988		-48.53363	
62.65149	3419.352		-47.99118	
62.70549	3416.699		-47.42734	
62.75948	3414.029		-46.84199	
62.81347	3411.339		-46.23498	
62.86745	3408.629		-45.60627	
62.92144	3405.9		-44.95584	
62.97544	3403.165		-44.28372	
63.02943	3400.43		-43.59001	
63.08342	3397.7		-42.87475	
63.13741	3394.972		-42.13803	
63.1914	3392.252		-41.37984	
63.24539	3389.549		-40.60033	
63.29938	3386.872		-39.79935	
63.35337	3384.232		-38.97669	
63.40736	3381.638		-38.13207	
63.46135	3379.095		-37.26497	
63.51534	3376.61		-36.37492	
63.56933	3374.19		-35.46112	
63.62332	3371.84		-34.52268	
63.67731	3369.557		-33.55862	
63.7313	3367.339		-32.56768	
63.78529	3365.185		-31.54882	
63.83928	3363.101		-30.5007	
63.89327	3361.089		-29.42197	
63.94726	3359.153		-28.31133	
64.00125	3357.29		-27.16721	
64.05524	3355.501		-25.98843	
64.10923	3353.791		-24.77322	
64.16322	3352.167		-23.52029	
64.21721	3350.643		-22.22846	
64.2712	3349.234		-20.89594	
64.32519	3347.948		-19.52182	
64.37918	3346.784		-18.10439	
64.43317	3345.733		-16.64257	
64.48716	3344.778		-15.13539	
64.54115	3343.899		-13.58112	
64.59514	3343.086		-11.97905	
64.64913	3342.333		-10.32756	
64.70313	3341.64		-8.625736	
64.75711	3341.01		-6.872816	
64.8111	3340.444		-5.067163	
64.86509	3339.941		-3.208248	
64.91908	3339.503		-1.294488	
64.97308	3339.145		0.6749033	
65.02706	3338.875		2.70054	
65.08105	3338.695		4.783993	
65.13504	3338.602		6.925549	
65.18903	3338.597		9.126712	
65.24303	3338.68		11.38819	
65.29701	3338.854		13.71066	
65.35101	3339.119		16.09609	
65.40499	3339.472		18.54519	
65.45898	3339.905		21.06021	
65.51298	3340.419		23.64256	
65.56696	3341.016		26.29362	
65.62096	3341.696		29.01625	
65.67494	3342.466		31.81175	
65.72894	3343.337		34.68309	
65.78293	3344.324		37.63216	
65.83691	3345.449		40.66091	
65.89091	3346.742		43.77264	
65.9449	3348.22		46.96954	
65.99889	3349.892		50.25366	
66.05288	3351.766		53.62876	
66.10686	3353.843		57.09661	
66.16086	3356.125		60.66101	
66.21485	3358.604		64.32432	
66.26884	3361.276		68.08868	
66.32283	3364.136		71.95815	
66.37682	3367.185		75.93439	
66.43081	3370.421		80.02135	
66.4848	3373.838		84.22138	
66.53879	3377.439		88.53653	
66.59278	3381.234		92.971	
66.64677	3385.232		97.52629	
66.70076	3389.446		102.2064	
66.75475	3393.888		107.0134	
66.80874	3398.567		111.9493	
66.86273	3403.488		117.018	
66.91672	3408.66		122.2208	
66.97071	3414.096		127.5616	
67.0247	3419.81		133.0422	
67.07869	3425.81		138.6641	
67.13268	3432.1		144.4313	
67.18667	3438.685		150.3444	
67.24066	3445.569		156.4073	
67.29465	3452.749		162.6214	
67.34864	3460.224		168.9878	
67.40263	3467.998		175.5106	
67.45662	3476.081		182.19	
67.51061	3484.488		189.0299	
67.56461	3493.229		196.0311	
67.61859	3502.318		203.1942	
67.67258	3511.771		210.5227	
67.72657	3521.598		218.0155	
67.78056	3531.814		225.6754	
67.83456	3542.443		233.5013	
67.88854	3553.506		241.4921	
67.94254	3565.027		249.6489	
67.99652	3577.017		257.9683	
68.05051	3589.483		266.4506	
68.10451	3602.425		275.0922	
68.15849	3615.835		283.8888	
68.21249	3629.702		292.8393	
68.26647	3644.012		301.937	
68.32047	3658.771		311.1796	
68.37446	3673.984		320.5605	
68.42844	3689.663		330.0726	
68.48244	3705.834		339.7122	
68.53642	3722.522		349.4695	
68.59042	3739.76		359.34	
68.64441	3757.572		369.3145	
68.69839	3775.98		379.3829	
68.75239	3795.001		389.5394	
68.80637	3814.639		399.7717	
68.86037	3834.902		410.073	
68.91436	3855.79		420.4316	
68.96835	3877.301		430.8354	
69.02234	3899.442		441.2766	
69.07632	3922.208		451.7405	
69.13032	3945.615		462.2183	
69.18431	3969.67		472.6964	
69.2383	3994.38		483.1604	
69.29229	4019.766		493.6003	
69.34628	4045.845		504.0011	
69.40027	4072.644		514.3475	
69.45426	4100.2		524.6281	
69.50825	4128.526		534.8253	
69.56224	4157.65		544.9268	
69.61623	4187.583		554.9155	
69.67022	4218.331		564.774	
69.72421	4249.898		574.4885	
69.7782	4282.274		584.0394	
69.83219	4315.469		593.4117	
69.88618	4349.481		602.5863	
69.94017	4384.306		611.5438	
69.99416	4419.95		620.268	
70.04815	4456.399		628.7378	
70.10214	4493.657		636.9365	
70.15614	4531.695		644.8438	
70.21012	4570.471		652.4396	
70.26411	4609.943		659.707	
70.3181	4650.041		666.6251	
70.37209	4690.703		673.177	
70.42609	4731.851		679.3436	
70.48007	4773.415		685.1063	
70.53407	4815.355		690.4497	
70.58805	4857.621		695.3559	
70.64204	4900.21		699.8109	
70.69604	4943.108		703.7997	
70.75002	4986.303		707.3088	
70.80402	5029.796		710.3271	
70.858	5073.56		712.8433	
70.91199	5117.593		714.8491	
70.96599	5161.871		716.3366	
71.01997	5206.363		717.2995	
71.07397	5251.065		717.7337	
71.12795	5295.937		717.6362	
71.18195	5340.953		717.0057	
71.23594	5386.074		715.8427	
71.28992	5431.253		714.1491	
71.34392	5476.474		711.9284	
71.3979	5521.702		709.1862	
71.4519	5566.925		705.9285	
71.50589	5612.114		702.1636	
71.55988	5657.238		697.9014	
71.61387	5702.285		693.1512	
71.66785	5747.197		687.9257	
71.72185	5791.92		682.2361	
71.77584	5836.378		676.0965	
71.82983	5880.494		669.5222	
71.88382	5924.199		662.5264	
71.93781	5967.377		655.1271	
71.9918	6009.931		647.3384	
72.04579	6051.749		639.1783	
72.09978	6092.726		630.6656	
72.15377	6132.769		621.8154	
72.20776	6171.779		612.648	
72.26175	6209.696		603.179	
72.31574	6246.467		593.4279	
72.36973	6282.052		583.4142	
72.42372	6316.451		573.1534	
72.47771	6349.657		562.6666	
72.5317	6381.689		551.9689	
72.58569	6412.559		541.0798	
72.63968	6442.29		530.0193	
72.69367	6470.912		518.8022	
72.74767	6498.437		507.4486	
72.80165	6524.875		495.9784	
72.85564	6550.251		484.4068	
72.90963	6574.576		472.7556	
72.96362	6597.871		461.0402	
73.01762	6620.148		449.2808	
73.0716	6641.421		437.4975	
73.1256	6661.724		425.7056	
73.17958	6681.102		413.9267	
73.23357	6699.614		402.1759	
73.28757	6717.311		390.4728	
73.34155	6734.248		378.837	
73.39555	6750.486		367.283	
73.44953	6766.078		355.8313	
73.50352	6781.079		344.4956	
73.55752	6795.526		333.2938	
73.6115	6809.438		322.2432	
73.6655	6822.825		311.3558	
73.71948	6835.674		300.6489	
73.77348	6847.984		290.1329	
73.82747	6859.768		279.8219	
73.88145	6871.036		269.7288	
73.93545	6881.814		259.8613	
73.98943	6892.137		250.2313	
74.04343	6902.043		240.8441	
74.09742	6911.555		231.708	
74.15141	6920.689		222.8295	
74.2054	6929.472		214.2104	
74.25938	6937.929		205.8559	
74.31338	6946.087		197.7654	
74.36737	6953.964		189.9403	
74.42136	6961.584		182.3811	
74.47535	6968.961		175.0834	
74.52934	6976.092		168.0462	
74.58333	6982.975		161.2636	
74.63732	6989.598		154.7313	
74.69131	6995.948		148.4444	
74.7453	7002.018		142.3945	
74.79929	7007.813		136.5762	
74.85328	7013.356		130.9801	
74.90727	7018.67		125.5989	
74.96126	7023.77		120.4248	
75.01525	7028.654		115.4475	
75.06924	7033.32		110.6595	
75.12323	7037.777		106.0503	
75.17722	7042.04		101.6115	
75.23121	7046.118		97.33499	
75.2852	7050.016		93.21075	
75.33919	7053.733		89.23165	
75.39318	7057.276		85.38856	
75.44717	7060.656		81.67447	
75.50116	7063.885		78.0828	
75.55515	7066.965		74.60595	
75.60914	7069.894		71.23884	
75.66313	7072.675		67.97494	
75.71712	7075.318		64.80963	
75.77111	7077.826		61.73873	
75.8251	7080.201		58.75717	
75.87909	7082.454		55.86202	
75.93308	7084.612		53.049	
75.98708	7086.707		50.31533	
76.04106	7088.769		47.65843	
76.09505	7090.822		45.07482	
76.14905	7092.865		42.56239	
76.20303	7094.893		40.11913	
76.25703	7096.884		37.74223	
76.31101	7098.806		35.43028	
76.36501	7100.639		33.18065	
76.419	7102.368		30.99178	
76.47298	7103.986		28.86218	
76.52698	7105.482		26.78957	
76.58096	7106.854		24.77304	
76.63496	7108.096		22.81068	
76.68895	7109.205		20.9016	
76.74294	7110.192		19.04496	
76.79693	7111.076		17.2392	
76.85091	7111.876		15.48381	
76.90491	7112.605		13.77721	
76.9589	7113.276		12.1185	
77.01289	7113.881		10.50671	
77.06688	7114.403		8.940087	
77.12086	7114.819		7.417704	
77.17486	7115.098		5.937696	
77.22885	7115.208		4.498829	
77.28284	7115.125		3.099851	
77.33683	7114.842		1.738943	
77.39082	7114.363		0.4151134	
77.44481	7113.709		-0.8732865	
77.4988	7112.908		-2.127201	
77.55279	7111.973		-3.347417	
77.60678	7110.928		-4.535057	
77.66077	7109.796		-5.690415	
77.71476	7108.602		-6.814288	
77.76875	7107.366		-7.906787	
77.82274	7106.115		-8.967847	
77.87673	7104.867		-9.997669	
77.93072	7103.621		-10.9957	
77.98471	7102.368		-11.96184	
78.0387	7101.102		-12.89543	
78.09269	7099.815		-13.79576	
78.14668	7098.5		-14.66241	
78.20067	7097.153		-15.49452	
78.25466	7095.769		-16.29175	
78.30865	7094.351		-17.05354	
78.36264	7092.917		-17.77948	
78.41663	7091.494		-18.46964	
78.47062	7090.102		-19.12382	
78.52461	7088.76		-19.74235	
78.57861	7087.468		-20.32531	
78.63259	7086.216		-20.87288	
78.68658	7084.991		-21.38548	
78.74057	7083.781		-21.86329	
78.79456	7082.571		-22.30684	
78.84856	7081.337		-22.71649	
78.90254	7080.056		-23.09273	
78.95654	7078.714		-23.43626	
79.01052	7077.308		-23.74763	
79.06451	7075.837		-24.02761	
79.11851	7074.313		-24.27694	
79.17249	7072.754		-24.49642	
79.22649	7071.179		-24.68706	
79.28047	7069.604		-24.84984	
79.33447	7068.042		-24.98593	
79.38846	7066.498		-25.09651	
79.44244	7064.975		-25.1828	
79.49644	7063.469		-25.24611	
79.55043	7061.979		-25.28764	
79.60442	7060.497		-25.30859	
79.65841	7059.004		-25.31009	
79.71239	7057.478		-25.29316	
79.76639	7055.909		-25.25869	
79.82038	7054.31		-25.20745	
79.87437	7052.7		-25.14013	
79.92836	7051.098		-25.05724	
79.98235	7049.524		-24.95926	
80.03634	7047.994		-24.84649	
80.09033	7046.518		-24.7192	
80.14432	7045.107		-24.57767	
80.19831	7043.759		-24.4221	
80.2523	7042.456		-24.25288	
80.30629	7041.181		-24.07038	
80.36028	7039.926		-23.87521	
80.41427	7038.681		-23.66812	
80.46826	7037.437		-23.44995	
80.52225	7036.178		-23.22182	
80.57624	7034.883		-22.98492	
80.63023	7033.541		-22.74068	
80.68422	7032.157		-22.49067	
80.73821	7030.746		-22.23648	
80.7922	7029.332		-21.97993	
80.84619	7027.933		-21.72276	
80.90018	7026.564		-21.46691	
80.95417	7025.24		-21.21431	
81.00816	7023.962		-20.96681	
81.06215	7022.725		-20.72632	
81.11614	7021.524		-20.49459	
81.17014	7020.351		-20.27338	
81.22412	7019.197		-20.06441	
81.27811	7018.055		-19.86927	
81.3321	7016.919		-19.68955	
81.38609	7015.78		-19.52671	
81.44009	7014.626		-19.38216	
81.49407	7013.458		-19.2572	
81.54807	7012.289		-19.15301	
81.60205	7011.138		-19.07068	
81.65604	7010.015		-19.01115	
81.71004	7008.934		-18.97524	
81.76402	7007.909		-18.96362	
81.81802	7006.956		-18.97684	
81.872	7006.089		-19.0153	
81.92599	7005.314		-19.07929	
81.97999	7004.627		-19.16901	
82.03397	7004.018		-19.28447	
82.08797	7003.487		-19.4257	
82.14195	7003.028		-19.59257	
82.19595	7002.626		-19.785	
82.24994	7002.266		-20.00285	
82.30392	7001.938		-20.24604	
82.35792	7001.629		-20.5147	
82.4119	7001.326		-20.80896	
82.4659	7001.021		-21.12921	
82.51989	7000.705		-21.47592	
82.57388	7000.37		-21.84964	
82.62787	7000.012		-22.25128	
82.68185	6999.626		-22.68168	
82.73585	6999.204		-23.14205	
82.78984	6998.735		-23.63355	
82.84383	6998.204		-24.1575	
82.89782	6997.595		-24.71549	
82.95181	6996.892		-25.30903	
83.0058	6996.072		-25.9396	
83.05979	6995.128		-26.60892	
83.11378	6994.053		-27.31827	
83.16777	6992.844		-28.06927	
83.22176	6991.504		-28.86316	
83.27575	6990.043		-29.70099	
83.32974	6988.48		-30.58397	
83.38373	6986.83		-31.51265	
83.43772	6985.102		-32.48781	
83.49171	6983.302		-33.50965	
83.5457	6981.436		-34.57813	
83.59969	6979.5		-35.69348	
83.65368	6977.493		-36.85512	
83.70767	6975.411		-38.06291	
83.76167	6973.252		-39.31604	
83.81565	6971.025		-40.61341	
83.86964	6968.74		-41.95428	
83.92363	6966.403		-43.33689	
83.97762	6964.028		-44.76001	
84.03162	6961.632		-46.22157	
84.0856	6959.224		-47.71924	
84.1396	6956.812		-49.25117	
84.19358	6954.398		-50.81446	
84.24757	6951.99		-52.40699	
84.30157	6949.587		-54.02592	
84.35555	6947.186		-55.66835	
84.40955	6944.774		-57.33204	
84.46353	6942.332		-59.01381	
84.51752	6939.836		-60.71151	
84.57152	6937.268		-62.42228	
84.6255	6934.598		-64.14337	
84.6795	6931.804		-65.87285	
84.73348	6928.875		-67.60793	
84.78748	6925.802		-69.34695	
84.84147	6922.583		-71.08765	
84.89545	6919.222		-72.82793	
84.94945	6915.719		-74.56659	
85.00343	6912.076		-76.30157	
85.05743	6908.288		-78.03188	
85.11142	6904.348		-79.75594	
85.16541	6900.252		-81.47227	
85.2194	6895.993		-83.18025	
85.27338	6891.569		-84.87836	
85.32738	6886.968		-86.56605	
85.38137	6882.187		-88.24208	
85.43536	6877.226		-89.90522	
85.48935	6872.083		-91.55492	
85.54333	6866.758		-93.18979	
85.59733	6861.26		-94.80937	
85.65132	6855.611		-96.41259	
85.70531	6849.827		-97.99842	
85.7593	6843.915		-99.56651	
85.81329	6837.892		-101.1157	
85.86728	6831.774		-102.6455	
85.92127	6825.587		-104.1551	
85.97526	6819.341		-105.6434	
86.02925	6813.038		-107.1097	
86.08324	6806.663		-108.5527	
86.13723	6800.195		-109.9716	
86.19122	6793.617		-111.3652	
86.24521	6786.917		-112.732	
86.2992	6780.086		-114.0714	
86.35319	6773.131		-115.3818	
86.40718	6766.055		-116.6626	
86.46117	6758.876		-117.9124	
86.51516	6751.618		-119.1302	
86.56915	6744.31		-120.3155	
86.62315	6736.977		-121.4673	
86.67713	6729.645		-122.5849	
86.73112	6722.323		-123.6683	
86.78511	6715.02		-124.717	
86.8391	6707.725		-125.7311	
86.8931	6700.434		-126.7106	
86.94708	6693.144		-127.6556	
87.00108	6685.845		-128.5667	
87.05506	6678.522		-129.4438	
87.10905	6671.164		-130.2879	
87.16305	6663.779		-131.0991	
87.21703	6656.383		-131.878	
87.27103	6648.982		-132.6256	
87.32501	6641.591		-133.3423	
87.37901	6634.224		-134.0292	
87.433	6626.89		-134.687	
87.48698	6619.588		-135.3166	
87.54098	6612.313		-135.9191	
87.59496	6605.08		-136.4951	
87.64896	6597.887		-137.046	
87.70295	6590.715		-137.5725	
87.75694	6583.528		-138.0757	
87.81093	6576.293		-138.5566	
87.86491	6568.992		-139.0162	
87.91891	6561.615		-139.4556	
87.9729	6554.173		-139.8758	
88.02689	6546.684		-140.2776	
88.08088	6539.154		-140.662	
88.13486	6531.591		-141.0297	
88.18886	6523.994		-141.3814	
88.24285	6516.373		-141.7178	
88.29684	6508.731		-142.0393	
88.35083	6501.068		-142.3467	
88.40482	6493.371		-142.6403	
88.45881	6485.63		-142.9207	
88.5128	6477.841		-143.1881	
88.56679	6470.017		-143.4427	
88.62078	6462.17		-143.6848	
88.67477	6454.32		-143.9145	
88.72876	6446.46		-144.1319	
88.78275	6438.587		-144.3373	
88.83674	6430.688		-144.5308	
88.89073	6422.761		-144.7126	
88.94472	6414.811		-144.8829	
88.99871	6406.84		-145.0418	
89.0527	6398.846		-145.1894	
89.10669	6390.831		-145.3255	
89.16068	6382.78		-145.4502	
89.21467	6374.688		-145.5633	
89.26866	6366.543		-145.6647	
89.32265	6358.356		-145.7541	
89.37664	6350.127		-145.8314	
89.43063	6341.857		-145.8964	
89.48462	6333.555		-145.9488	
89.53861	6325.243		-145.9885	
89.59261	6316.943		-146.0153	
89.64659	6308.68		-146.0291	
89.70058	6300.462		-146.0297	
89.75457	6292.296		-146.0172	
89.80856	6284.161		-145.9918	
89.86256	6276.041		-145.9536	
89.91654	6267.913		-145.9028	
89.97054	6259.771		-145.8399	
90.02453	6251.613		-145.7652	
90.07851	6243.452		-145.6792	
90.13251	6235.289		-145.5826	
90.18649	6227.144		-145.476	
90.24049	6219.037		-145.3604	
90.29448	6210.99		-145.2366	
90.34846	6203.013		-145.1058	
90.40246	6195.106		-144.9694	
90.45644	6187.261		-144.8285	
90.51044	6179.472		-144.6846	
90.56443	6171.736		-144.5389	
90.61842	6164.059		-144.3928	
90.67241	6156.431		-144.2474	
90.72639	6148.851		-144.1039	
90.78039	6141.303		-143.9634	
90.83438	6133.771		-143.827	
90.88837	6126.222		-143.6956	
90.94236	6118.634		-143.57	
90.99635	6111.007		-143.4511	
91.05034	6103.36		-143.3395	
91.10433	6095.711		-143.2359	
91.15832	6088.073		-143.1411	
91.21231	6080.45		-143.0554	
91.2663	6072.854		-142.9791	
91.32029	6065.282		-142.9124	
91.37428	6057.728		-142.8553	
91.42827	6050.185		-142.808	
91.48226	6042.649		-142.7701	
91.53625	6035.128		-142.7415	
91.59024	6027.618		-142.7218	
91.64423	6020.128		-142.7105	
91.69822	6012.671		-142.7073	
91.75221	6005.25		-142.7115	
91.8062	5997.866		-142.7225	
91.86019	5990.511		-142.7399	
91.91418	5983.172		-142.7629	
91.96817	5975.846		-142.7911	
92.02216	5968.519		-142.8239	
92.07615	5961.184		-142.8608	
92.13014	5953.833		-142.9015	
92.18414	5946.467		-142.9457	
92.23812	5939.079		-142.993	
92.29211	5931.664		-143.0433	
92.3461	5924.214		-143.0961	
92.40009	5916.721		-143.1513	
92.45409	5909.182		-143.2168	
92.50807	5901.602		-143.2713	
92.56207	5893.974		-143.3182	
92.61605	5886.294		-143.3607	
92.67004	5878.563		-143.4011	
92.72404	5870.785		-143.4412	
92.77802	5862.945		-143.4818	
92.83202	5855.027		-143.5237	
92.886	5847.011		-143.5671	
92.93999	5838.88		-143.6123	
92.99399	5830.639		-143.6591	
93.04797	5822.315		-143.7077	
93.10197	5813.93		-143.7579	
93.15595	5805.519		-143.8095	
93.20995	5797.105		-143.8625	
93.26394	5788.723		-143.9167	
93.31792	5780.386		-143.9718	
93.37192	5772.112		-144.0278	
93.42591	5763.908		-144.0844	
93.4799	5755.78		-144.1415	
93.53389	5747.714		-144.1989	
93.58788	5739.694		-144.2565	
93.64187	5731.711		-144.3139	
93.69586	5723.764		-144.3712	
93.74985	5715.861		-144.428	
93.80384	5708.018		-144.4844	
93.85783	5700.236		-144.54	
93.91182	5692.508		-144.5949	
93.96581	5684.813		-144.6488	
94.0198	5677.128		-144.7016	
94.07379	5669.542		-144.7533	
94.12778	5661.976		-144.8036	
94.18177	5654.446		-144.8526	
94.23576	5646.947		-144.9002	
94.28975	5639.47		-144.9462	
94.34374	5632.009		-144.9907	
94.39773	5624.559		-145.0334	
94.45172	5617.113		-145.0746	
94.50571	5609.672		-145.1139	
94.5597	5602.235		-145.1516	
94.61369	5594.799		-145.1874	
94.66768	5587.365		-145.2215	
94.72167	5579.929		-145.2539	
94.77567	5572.492		-145.2844	
94.82965	5565.053		-145.3132	
94.88364	5557.609		-145.3403	
94.93763	5550.164		-145.3656	
94.99162	5542.717		-145.3892	
