T[Â°C]	350nm [counts / mm]	S.D.
19.99924	6983.127	
19.99944	6988.314	
20.00065	6977.084	
20.0078	6999.838	
20.01325	7010.12	
20.02921	6983.678	
20.03816	6987.933	
20.05897	6982.983	
20.07071	6985.702	
20.09713	6972.367	
20.11134	6957.685	
20.14413	6960.278	
20.16078	6971.298	
20.19681	6962.895	
20.21652	6952.054	
20.25945	6952.679	
20.28107	6951.073	
20.32925	6950.487	
20.3533	6942.941	
20.40568	6941.625	
20.43232	6946.225	
20.48936	6931.395	
20.51657	6916.352	
20.57402	6921.092	
20.60485	6918.938	
20.6702	6898.139	
20.70164	6910.181	
20.76799	6894.592	
20.80048	6888.423	
20.86726	6896.52	
20.90151	6879.419	
20.97414	6870.317	
21.00914	6882.747	
21.08053	6862.425	
21.11602	6861.981	
21.18917	6858.46	
21.22541	6845.574	
21.29769	6852.072	
21.33344	6843.98	
21.40842	6838.828	
21.44559	6822.398	
21.52003	6839.166	
21.55601	6822.327	
21.62798	6820.375	
21.66318	6806.339	
21.73771	6805.042	
21.77313	6789.543	
21.84623	6771.56	
21.88286	6781.833	
21.95576	6772.923	
21.99186	6772.201	
22.06686	6755.456	
22.10259	6772.653	
22.17472	6751.056	
22.20952	6760.101	
22.28424	6749.434	
22.32008	6735.855	
22.39354	6750.286	
22.42988	6741.803	
22.50426	6729.159	
22.5405	6723.871	
22.61226	6715.32	
22.64754	6726.609	
22.72128	6701.958	
22.75764	6709.981	
22.8324	6694.411	
22.86741	6689.146	
22.94041	6684.59	
22.97696	6676.774	
23.05131	6679.112	
23.08676	6667.088	
23.16013	6671.224	
23.19523	6671.585	
23.26817	6650.399	
23.30531	6656.501	
23.37862	6640.716	
23.41474	6658.599	
23.48922	6634.549	
23.52557	6633.266	
23.59843	6625.212	
23.63326	6620.149	
23.70695	6614.554	
23.74361	6604.793	
23.81689	6588.759	
23.85187	6595.646	
23.92475	6591.133	
23.96019	6577.151	
24.0358	6581.575	
24.07248	6565.804	
24.14558	6573.304	
24.18099	6556.041	
24.25417	6544.658	
24.29047	6548.445	
24.36396	6538.822	
24.40017	6548.989	
24.47445	6532.197	
24.51042	6535.978	
24.58218	6533.448	
24.61816	6526.558	
24.69305	6508.158	
24.72835	6516.051	
24.80317	6504.721	
24.83912	6497.724	
24.91149	6492.417	
24.94719	6471.219	
25.02085	6477.421	
25.05634	6485.944	
25.13136	6468.143	
25.16798	6470.875	
25.24107	6458.955	
25.2759	6452.288	
25.3497	6447.415	
25.3856	6456.098	
25.45992	6430.479	
25.49644	6435.109	
25.57021	6432.027	
25.60529	6409.966	
25.67726	6407.547	
25.7132	6405.368	
25.7875	6395.372	
25.82401	6385.141	
25.89874	6385.059	
25.93401	6386.899	
26.00653	6378.56	
26.04255	6359.483	
26.11662	6366.142	
26.15207	6384.06	
26.22598	6367.264	
26.26211	6359.407	
26.33718	6351.766	
26.37311	6353.085	
26.44405	6333.738	
26.48231	6341.86	
26.55498	6329.439	
26.59118	6337.652	
26.66457	6330.083	
26.69978	6314.169	
26.7719	6320.172	
26.80717	6307.369	
26.8826	6311.406	
26.91951	6302.233	
26.99216	6283.646	
27.02709	6291.148	
27.1018	6269.752	
27.13713	6276.626	
27.21064	6280.877	
27.24757	6258.689	
27.32166	6262.199	
27.35618	6247.563	
27.42991	6244.041	
27.46513	6244.862	
27.53961	6225.166	
27.57521	6245.063	
27.64983	6234.375	
27.68547	6226.105	
27.76007	6217.793	
27.79532	6211.745	
27.86938	6197.857	
27.90605	6191.679	
27.97909	6181.16	
28.01432	6186.671	
28.08727	6186.935	
28.12521	6177.547	
28.20041	6174.596	
28.23567	6166.901	
28.30658	6161.418	
28.34184	6172.034	
28.41607	6153.922	
28.45234	6147.489	
28.52663	6135.055	
28.56207	6127.377	
28.63465	6136.853	
28.67067	6130.411	
28.74433	6128.478	
28.78032	6119.166	
28.85354	6112.79	
28.88897	6113.422	
28.9634	6100.542	
28.99912	6090.753	
29.07376	6093.538	
29.10996	6076.934	
29.18163	6065.98	
29.21697	6066.492	
29.29151	6067.081	
29.32722	6054.48	
29.40127	6056.582	
29.43716	6053.688	
29.50993	6043.556	
29.54578	6050.774	
29.62034	6030.916	
29.65639	6037.71	
29.7294	6028.551	
29.76445	6032.609	
29.83866	6023.188	
29.8746	6020.931	
29.94805	6014.957	
29.98435	6008.308	
30.05723	5999.666	
30.09303	6000.769	
30.1656	5986.869	
30.20181	5981.986	
30.27587	5982.977	
30.31167	5974.268	
30.38483	5976.588	
30.42067	5955.969	
30.49537	5970.582	
30.53128	5963.275	
30.6047	5947.409	
30.64065	5944.938	
30.71481	5929.309	
30.75074	5942.914	
30.82455	5917.108	
30.86058	5919.86	
30.93414	5918.139	
30.97074	5905.476	
31.04226	5906.676	
31.0777	5904.242	
31.15251	5891.248	
31.18853	5906.602	
31.26176	5877.143	
31.29749	5870.345	
31.37072	5888.687	
31.40655	5863.825	
31.47981	5875.898	
31.51579	5864.362	
31.58821	5852.312	
31.62475	5852.784	
31.69963	5841.888	
31.73533	5856.457	
31.80937	5836.561	
31.84524	5835.365	
31.9177	5832.125	
31.9548	5815.172	
32.02747	5815.645	
32.06361	5810.587	
32.13693	5810.199	
32.17322	5800.629	
32.24574	5792.269	
32.28278	5785.757	
32.35566	5784.801	
32.39146	5767.771	
32.46611	5778.853	
32.50155	5769.74	
32.57563	5778.351	
32.61137	5766.212	
32.68401	5756.627	
32.71986	5752.223	
32.79355	5736.969	
32.82997	5729.701	
32.90356	5718.867	
32.93924	5717.433	
33.01347	5721.626	
33.04847	5714.635	
33.12116	5712.539	
33.15714	5710.978	
33.23318	5684.643	
33.26916	5686.725	
33.34247	5685.475	
33.37764	5693.246	
33.45095	5681.738	
33.48775	5679.15	
33.55994	5669.723	
33.59604	5662.088	
33.67006	5662.484	
33.70761	5656.836	
33.77823	5639.318	
33.81327	5643.839	
33.88822	5653.862	
33.92478	5628.885	
33.99974	5637.889	
34.03479	5637.054	
34.10711	5632.08	
34.14223	5615.81	
34.2162	5605.925	
34.2522	5610.236	
34.32726	5603.858	
34.3638	5596.82	
34.43619	5600.894	
34.47213	5584.208	
34.54575	5592.865	
34.58131	5586.646	
34.65557	5567.474	
34.69089	5571.491	
34.76455	5562.364	
34.80041	5560.799	
34.87308	5546.533	
34.90837	5540.235	
34.98276	5536.824	
35.0182	5542.43	
35.09041	5541.605	
35.12635	5527.324	
35.20177	5525.019	
35.23816	5509.506	
35.31039	5502.259	
35.34619	5512.12	
35.42106	5497.083	
35.45737	5498.767	
35.53104	5492.006	
35.56653	5479.787	
35.63932	5473.518	
35.67496	5472.424	
35.74898	5463.007	
35.78485	5468.999	
35.85789	5455.162	
35.89441	5447.404	
35.96924	5465.684	
36.00409	5445.215	
36.07686	5452.863	
36.11251	5448.638	
36.18647	5431.491	
36.22307	5422.602	
36.29743	5428.611	
36.3325	5404.018	
36.40505	5398.282	
36.44144	5400.07	
36.51483	5393.696	
36.55132	5402.247	
36.62534	5394.127	
36.66126	5373.045	
36.73396	5380.817	
36.76986	5376.219	
36.84356	5371.444	
36.87942	5371.545	
36.95301	5366.297	
36.98991	5362.466	
37.0616	5351.025	
37.09761	5344.905	
37.17347	5346.799	
37.21016	5343.512	
37.28351	5332.603	
37.31851	5327.235	
37.39116	5341.662	
37.42691	5321.512	
37.50034	5332.01	
37.53642	5310.581	
37.60981	5312.925	
37.64614	5317.774	
37.72049	5293.812	
37.75539	5300.186	
37.82988	5292.789	
37.86607	5287.264	
37.93772	5275.16	
37.97327	5269.233	
38.04743	5267.013	
38.08306	5268.038	
38.15673	5253.012	
38.19291	5246.271	
38.26749	5251.506	
38.30325	5236.905	
38.37626	5239.921	
38.41183	5241.139	
38.48552	5231.95	
38.52154	5225.128	
38.5954	5222.533	
38.63118	5221.028	
38.7051	5202.946	
38.7406	5200.874	
38.81229	5198.63	
38.8488	5195.506	
38.9227	5194.724	
38.9589	5173.149	
39.0319	5176.847	
39.06777	5164.65	
39.14314	5176.063	
39.17826	5164.864	
39.25056	5160.066	
39.28653	5164.413	
39.36082	5155.69	
39.39842	5137.28	
39.47075	5146.234	
39.5064	5139.451	
39.58211	5138.423	
39.61692	5133.138	
39.68878	5124.113	
39.72626	5119.777	
39.7997	5111.118	
39.83482	5108.159	
39.90918	5107.519	
39.94441	5073.856	
40.01812	5095.031	
40.05741	5074.48	
40.13237	5078.002	
40.16687	5070.846	
40.23996	5068.121	
40.27659	5074.679	
40.34987	5065.569	
40.38737	5064.918	
40.46106	5052.985	
40.49632	5055.595	
40.56897	5061.253	
40.60518	5048.598	
40.67861	5043.049	
40.71478	5032.755	
40.78802	5030.012	
40.82404	5025.306	
40.89874	5026.846	
40.93426	5000.938	
41.00716	5010.363	
41.04345	5005.717	
41.11767	5008.757	
41.15254	5004.158	
41.22481	4996.256	
41.26017	4981.797	
41.33619	4998.562	
41.37193	4969.789	
41.44497	4966.327	
41.48016	4983.729	
41.55302	4975.457	
41.58925	4965.383	
41.6637	4956.897	
41.69897	4948.022	
41.77406	4958.444	
41.81026	4944.341	
41.88357	4939.171	
41.91867	4935.711	
41.99195	4925.828	
42.02757	4926.28	
42.10166	4918.358	
42.13721	4914.559	
42.21288	4911.68	
42.24868	4911.042	
42.3208	4899.861	
42.3576	4892.875	
42.42995	4899.198	
42.466	4883.252	
42.54092	4879.865	
42.5771	4884.765	
42.65033	4881.527	
42.68547	4875.499	
42.75834	4883.596	
42.79409	4854.75	
42.86966	4862.102	
42.90473	4846.611	
42.97947	4856.377	
43.01512	4841.411	
43.08748	4831.461	
43.12317	4833.21	
43.19665	4822.375	
43.23291	4823.166	
43.30622	4827.453	
43.34236	4816.044	
43.41556	4811.221	
43.45118	4807.375	
43.52422	4795.582	
43.56058	4801.154	
43.63518	4800.025	
43.6716	4778.925	
43.74435	4794.213	
43.7798	4773.97	
43.85273	4777.915	
43.88848	4760.536	
43.96214	4754.491	
43.99834	4748.206	
44.07317	4754.238	
44.10835	4744.612	
44.18185	4733.362	
44.21758	4734.37	
44.28993	4745.023	
44.32616	4731.756	
44.39954	4727.032	
44.43544	4719.567	
44.50946	4724.264	
44.54622	4712.922	
44.61853	4704.952	
44.65301	4709.898	
44.72788	4692.142	
44.76445	4702.912	
44.83843	4700.438	
44.87432	4684.479	
44.94944	4694.288	
44.984	4676.965	
45.05662	4687.259	
45.09208	4681.732	
45.16528	4676.058	
45.20122	4662.038	
45.27431	4653.386	
45.31044	4652.869	
45.38491	4661.263	
45.42068	4655.44	
45.49443	4639.79	
45.53007	4636.687	
45.60339	4629.102	
45.63926	4636.14	
45.71292	4615.158	
45.74854	4616.671	
45.82355	4616.992	
45.85962	4610.784	
45.93292	4609.368	
45.96882	4590.669	
46.04261	4600.021	
46.07854	4597.265	
46.15273	4593.932	
46.18779	4580.282	
46.2614	4578.848	
46.29712	4566.938	
46.37007	4570.487	
46.40611	4554.652	
46.48083	4557.22	
46.51699	4559.41	
46.5894	4548.146	
46.62517	4539.42	
46.69925	4544.579	
46.73547	4538.542	
46.80973	4537.809	
46.84386	4533.586	
46.91668	4529.745	
46.95289	4522.634	
47.02799	4517.683	
47.06394	4515.711	
47.1381	4513.096	
47.17391	4492.148	
47.2463	4511.818	
47.28164	4493.209	
47.35648	4494.628	
47.39273	4480.494	
47.46601	4482.599	
47.50132	4469.04	
47.57559	4471.102	
47.61148	4460.465	
47.68451	4464.744	
47.71984	4450.75	
47.79293	4449.202	
47.82887	4460.751	
47.90317	4454.618	
47.93942	4438.949	
48.01503	4442.48	
48.05235	4432.983	
48.1226	4443.184	
48.15812	4426.071	
48.23288	4417.845	
48.26814	4412.806	
48.34113	4404.181	
48.37746	4409.283	
48.45173	4394.961	
48.48731	4387.021	
48.56102	4396.346	
48.5995	4390.022	
48.67439	4386.089	
48.71066	4378.91	
48.78494	4382.185	
48.81945	4378.532	
48.89289	4382.015	
48.92883	4376.663	
49.00243	4370.713	
49.03964	4349.824	
49.11098	4365.379	
49.14682	4351.189	
49.22188	4343.483	
49.25759	4351.079	
49.33038	4332.329	
49.36555	4332.356	
49.44024	4332.279	
49.47561	4326.491	
49.55014	4331.985	
49.58761	4313.494	
49.65841	4310.958	
49.69405	4301.96	
49.76907	4306.505	
49.80506	4294.136	
49.88005	4303.552	
49.91469	4289.058	
49.98595	4294.302	
50.02396	4284.136	
50.09723	4276.254	
50.13408	4272.059	
50.20599	4274.593	
50.2413	4263.959	
50.31457	4258.202	
50.35162	4248.415	
50.42436	4253.064	
50.4594	4248.74	
50.53296	4252.837	
50.56942	4232.158	
50.64509	4234.731	
50.68258	4229.889	
50.75585	4228.34	
50.79213	4215.116	
50.86658	4227.98	
50.90229	4212.997	
50.97651	4218.296	
51.01233	4199.093	
51.08492	4211.711	
51.12135	4205.606	
51.19576	4197.498	
51.23164	4195.757	
51.30417	4191.269	
51.33984	4170.826	
51.41371	4187.534	
51.44915	4162.793	
51.52307	4173.791	
51.55999	4145.941	
51.63276	4160.464	
51.66928	4144.608	
51.7405	4156.531	
51.77559	4133.216	
51.85181	4153.752	
51.88811	4144.609	
51.96095	4139.847	
51.99684	4133.919	
52.07099	4135.149	
52.10832	4126.824	
52.18044	4123.892	
52.21604	4114.393	
52.28896	4109.443	
52.32684	4095.023	
52.39758	4107.418	
52.4326	4084.123	
52.50556	4096.876	
52.54192	4086.05	
52.61823	4088.182	
52.65352	4072.742	
52.72512	4085.706	
52.76053	4070.686	
52.83487	4080.564	
52.87152	4071.443	
52.94638	4056.737	
52.98177	4067.331	
53.05411	4059.651	
53.09	4058.165	
53.16547	4043.108	
53.20058	4051.923	
53.27467	4033.281	
53.31054	4024.346	
53.38279	4033.138	
53.41909	4029.79	
53.49285	4023.095	
53.52876	4026.437	
53.60253	4013.325	
53.63755	4011.23	
53.70987	4009.064	
53.74905	4005.33	
53.82105	3999.165	
53.85762	4002.937	
53.93165	3997.175	
53.96697	3978.984	
54.04195	3987.354	
54.07771	3981.222	
54.14982	3975.172	
54.18599	3967.051	
54.25948	3964.578	
54.29565	3969.622	
54.36951	3967.038	
54.40448	3950.731	
54.47886	3952.894	
54.51506	3940.795	
54.58875	3943.114	
54.62429	3938.91	
54.69821	3935.249	
54.73421	3925.784	
54.80766	3930.715	
54.84327	3925.564	
54.91598	3923.919	
54.9525	3914.868	
55.02675	3917.385	
55.06236	3904.406	
55.13535	3903.868	
55.17095	3906.273	
55.24709	3899.436	
55.28312	3892.698	
55.35646	3892.25	
55.39103	3878.049	
55.46463	3882.989	
55.50071	3867.869	
55.5736	3882.26	
55.61005	3855.108	
55.68374	3865.636	
55.71996	3855.563	
55.79532	3850.367	
55.83057	3852.594	
55.9028	3850.713	
55.93865	3844.464	
56.01308	3850.031	
56.04885	3836.82	
56.12239	3842.113	
56.15801	3828.687	
56.23174	3823.203	
56.26802	3816.403	
56.34227	3823.769	
56.37716	3814.389	
56.45054	3815.779	
56.48697	3807.822	
56.56274	3816.65	
56.59783	3802.657	
56.66972	3799.28	
56.70599	3792.629	
56.77946	3797.895	
56.81668	3771.715	
56.89147	3789.851	
56.92755	3770.296	
57.00055	3781.005	
57.0363	3771.499	
57.1096	3779.832	
57.1449	3761.739	
57.22005	3755.66	
57.25748	3754.017	
57.32788	3758.092	
57.36364	3745.341	
57.43841	3750.957	
57.4737	3741.472	
57.54587	3734.745	
57.58192	3726.871	
57.65583	3736.942	
57.69272	3723.655	
57.76709	3714.383	
57.80346	3716.09	
57.87632	3718.556	
57.91431	3707.243	
57.98819	3717.403	
58.02715	3692.998	
58.10246	3699.758	
58.13911	3685.913	
58.21138	3685.078	
58.25109	3676.825	
58.32604	3689.662	
58.36169	3684.816	
58.43464	3678.566	
58.47438	3660.175	
58.54734	3680.546	
58.58466	3666.885	
58.65769	3659.567	
58.69482	3649.911	
58.76743	3652.963	
58.80439	3647.769	
58.87648	3645.29	
58.91241	3639.965	
58.98537	3643.519	
59.02163	3635.469	
59.09582	3630.63	
59.13084	3620.828	
59.2057	3630.541	
59.24247	3618.181	
59.31676	3624.465	
59.35141	3603.508	
59.42692	3616.02	
59.46202	3594.436	
59.53585	3610.043	
59.57303	3595.871	
59.64939	3594.647	
59.68376	3581.784	
59.76067	3584.536	
59.79704	3580.025	
59.87262	3580.966	
59.90779	3572.507	
59.98318	3563.454	
60.01971	3555.62	
60.09581	3566.209	
60.13159	3555.184	
60.20694	3568.748	
60.24228	3558.221	
60.31668	3549.318	
60.35246	3537.253	
60.42916	3550.282	
60.46511	3534.785	
60.54313	3543.694	
60.5796	3526.183	
60.65245	3535.589	
60.68727	3521.839	
60.76357	3532.164	
60.7997	3510.507	
60.87703	3521.506	
60.91344	3508.823	
60.98748	3519.797	
61.02404	3507.408	
61.10321	3504.92	
61.13846	3499.608	
61.21453	3496.786	
61.25076	3490.285	
61.32537	3485.262	
61.36061	3482.786	
61.4371	3484.819	
61.47304	3488.565	
61.54779	3488.045	
61.58365	3467.636	
61.65797	3471.099	
61.69404	3463.628	
61.76664	3463.859	
61.80208	3459.541	
61.87699	3455.491	
61.91369	3445.166	
61.98618	3453.042	
62.02436	3440.402	
62.09652	3455.179	
62.13194	3442.758	
62.20461	3447.778	
62.2415	3434.171	
62.31523	3438.535	
62.35128	3428.952	
62.42437	3430.048	
62.45963	3433.317	
62.53424	3427.097	
62.56874	3416.15	
62.64338	3428.547	
62.68011	3409.763	
62.75249	3421.823	
62.78776	3406.031	
62.86221	3411.846	
62.89814	3391.724	
62.97133	3413.494	
63.00935	3395.752	
63.08099	3406.409	
63.11654	3392.409	
63.19091	3395.568	
63.22673	3373.171	
63.30326	3387.259	
63.34151	3380.879	
63.41323	3383.851	
63.44971	3381.528	
63.52356	3382.991	
63.5622	3363.242	
63.63642	3379.01	
63.67196	3365.797	
63.74641	3358.438	
63.7821	3358.466	
63.85622	3369.066	
63.89264	3356.1	
63.96479	3357.188	
64.00069	3347.652	
64.07417	3367.76	
64.1104	3349.685	
64.18547	3356.116	
64.22106	3344.167	
64.29465	3351.085	
64.32983	3340.402	
64.40327	3357.22	
64.43919	3342.991	
64.51259	3344.75	
64.54851	3335.329	
64.62144	3342.092	
64.65935	3337.287	
64.7332	3340.264	
64.76798	3331.701	
64.84161	3344.006	
64.8782	3329.624	
64.95575	3347.635	
64.99163	3332.153	
65.06435	3345.057	
65.1002	3334.76	
65.17434	3346.935	
65.21072	3333.048	
65.2846	3341.89	
65.32018	3334.23	
65.39323	3332.489	
65.4291	3332.9	
65.50246	3346.407	
65.53834	3330.623	
65.6133	3342.173	
65.6488	3336.179	
65.7215	3339.139	
65.76096	3331.737	
65.83607	3351.735	
65.87159	3338.111	
65.94563	3348.046	
65.98158	3338.836	
66.05637	3346.832	
66.09245	3351.606	
66.16427	3353.531	
66.19942	3353.236	
66.27232	3364.287	
66.30907	3341.475	
66.3855	3373.279	
66.42052	3353.941	
66.49283	3367.171	
66.52805	3368.846	
66.60106	3375.823	
66.63766	3371.96	
66.71303	3395.212	
66.74875	3395.843	
66.82221	3397.266	
66.85831	3392.823	
66.93073	3414.641	
66.9675	3407.637	
67.04374	3424.12	
67.07845	3415.169	
67.15075	3430.409	
67.18678	3426.722	
67.2606	3453.394	
67.2965	3433.265	
67.37061	3458.667	
67.40633	3462.552	
67.48031	3470.177	
67.5162	3473.422	
67.59048	3490.517	
67.62534	3489.267	
67.6991	3507.627	
67.7355	3514.916	
67.80895	3531.44	
67.84517	3531.973	
67.91766	3562.372	
67.95285	3551.005	
68.02795	3587.761	
68.06435	3588.486	
68.1377	3601.429	
68.17247	3598.552	
68.24679	3631.754	
68.28307	3625.56	
68.35578	3665.586	
68.39191	3652.817	
68.46519	3686.318	
68.50064	3695.166	
68.5748	3721.878	
68.61088	3726.494	
68.68681	3770.192	
68.72327	3766.832	
68.79865	3813.523	
68.83389	3814.881	
68.90858	3838.189	
68.9443	3851.889	
69.0187	3884.658	
69.05547	3882.425	
69.1265	3923.878	
69.1635	3942.234	
69.23476	3976.292	
69.27152	3993.25	
69.34414	4036.103	
69.38041	4041.581	
69.45608	4091.229	
69.49091	4092.496	
69.56433	4146.843	
69.60225	4146.165	
69.67254	4204.272	
69.70844	4207.3	
69.78461	4272.187	
69.82066	4282.321	
69.8941	4345.753	
69.93004	4351.086	
70.00249	4419.047	
70.03883	4415.696	
70.11202	4482.888	
70.14668	4497.946	
70.22095	4564.434	
70.25846	4589.135	
70.33195	4648.143	
70.3677	4657.162	
70.44361	4742.596	
70.47999	4755.044	
70.55466	4831.288	
70.59048	4841.418	
70.66495	4923.395	
70.70075	4952.114	
70.77314	5008.101	
70.80829	5030.772	
70.88176	5106.751	
70.91853	5128.783	
70.99334	5193.191	
71.02879	5211.063	
71.10336	5279.99	
71.13974	5293.726	
71.21188	5369.018	
71.24933	5372.685	
71.32314	5448.959	
71.3591	5470.093	
71.43445	5540.804	
71.46994	5571.143	
71.54391	5652.202	
71.58353	5664.321	
71.65852	5750.399	
71.69438	5759.226	
71.76781	5854.085	
71.80345	5862.998	
71.87747	5937.042	
71.91612	5970.295	
71.98863	6028.499	
72.02535	6039.947	
72.10039	6130.496	
72.13543	6129.563	
72.20884	6205.385	
72.24763	6224.77	
72.319	6281.351	
72.35384	6293.422	
72.42928	6360.481	
72.46461	6370.59	
72.53769	6425.705	
72.57697	6422.042	
72.65443	6491.132	
72.68994	6500.155	
72.76083	6562.072	
72.79558	6528.487	
72.8708	6594.832	
72.90816	6599.054	
72.98009	6635.636	
73.01633	6619.264	
73.08802	6676.515	
73.12392	6663.08	
73.20148	6714.494	
73.23676	6699.594	
73.30737	6762.735	
73.34381	6752.538	
73.41805	6779.313	
73.4539	6785.095	
73.52783	6824.648	
73.5682	6798.231	
73.64103	6845.928	
73.67751	6831.533	
73.75254	6871.634	
73.78907	6851.287	
73.86037	6880.249	
73.89642	6860.447	
73.96976	6898.863	
74.00629	6899.813	
74.08072	6935.017	
74.1162	6903.257	
74.19067	6943.496	
74.22594	6925.15	
74.29807	6971.705	
74.334	6953.295	
74.41057	6982.622	
74.45064	6941.1	
74.52264	6989.59	
74.55791	6964.797	
74.63089	7002.223	
74.6682	6991.536	
74.74168	7016.677	
74.77731	7010.561	
74.85239	7041.832	
74.88805	6997.431	
74.96127	7028.713	
74.99615	7005.177	
75.07096	7038.28	
75.10793	7036.822	
75.18192	7056.464	
75.217	7034.86	
75.29144	7079.187	
75.3275	7053.499	
75.40412	7072.263	
75.44051	7046.091	
75.51432	7076.332	
75.55003	7058.748	
75.62442	7077.383	
75.65941	7073.925	
75.73293	7096.646	
75.76815	7071.08	
75.84562	7101.741	
75.88197	7069.471	
75.95405	7097.29	
75.98967	7080.815	
76.06699	7112.367	
76.10336	7076.178	
76.17715	7118.868	
76.21334	7086.625	
76.2912	7116.448	
76.32731	7081.789	
76.40077	7110.545	
76.43679	7072.088	
76.51414	7111.674	
76.55069	7106.275	
76.62254	7118.188	
76.65791	7100.277	
76.73365	7131.346	
76.76862	7098.774	
76.84157	7126.923	
76.88089	7107.484	
76.95522	7138.187	
76.99117	7095.539	
77.06516	7137.073	
77.1032	7095.157	
77.17448	7125.696	
77.20946	7104.947	
77.2858	7129.011	
77.32545	7095.688	
77.39787	7115.906	
77.4346	7103.375	
77.50739	7112.068	
77.54452	7103.938	
77.61609	7133.151	
77.65222	7109.737	
77.7262	7130.533	
77.76502	7096.297	
77.84158	7141.197	
77.87683	7097.011	
77.94951	7123.693	
77.98868	7094.908	
78.06238	7112.999	
78.09895	7080.82	
78.17311	7119.504	
78.21184	7072.479	
78.28462	7111.761	
78.32087	7077.208	
78.39625	7102.23	
78.43266	7065.211	
78.508	7107.347	
78.54218	7067.193	
78.61495	7096.822	
78.64989	7080.087	
78.72631	7102.169	
78.7628	7077.242	
78.83808	7080.564	
78.87344	7079.335	
78.95131	7092.84	
78.98776	7053.505	
79.06027	7097.597	
79.09592	7057.609	
79.1724	7083.659	
79.20927	7061.886	
79.28391	7084.539	
79.31989	7059.791	
79.39626	7079.741	
79.43353	7044.046	
79.50677	7079.277	
79.54292	7045.865	
79.62083	7072.153	
79.65658	7043.688	
79.72865	7069.429	
79.76441	7023.026	
79.84306	7084.328	
79.87909	7037.928	
79.95203	7059.625	
79.98808	7043.275	
80.06223	7080.419	
80.10209	7035.359	
80.1759	7068.13	
80.21151	7036.749	
80.28745	7058.2	
80.32378	7019.622	
80.40034	7057.464	
80.43581	7030.236	
80.50772	7036.705	
80.54359	7005.67	
80.61888	7039.499	
80.6591	7021.832	
80.73244	7039.782	
80.7677	7017.314	
80.84106	7040.457	
80.87634	7005.459	
80.95279	7032.698	
80.98855	7028.113	
81.06428	7025.565	
81.10075	6997.158	
81.17348	7039.641	
81.2127	7016.325	
81.28597	7033.942	
81.32171	7007.356	
81.39437	7028.601	
81.43031	6990.558	
81.51068	7027.635	
81.54662	7000.979	
81.61954	7026.861	
81.65606	6993.664	
81.72942	7032.179	
81.76445	6995.538	
81.84122	7018.751	
81.87769	6989.817	
81.94997	7026.15	
81.98705	6991.438	
82.06172	7014.187	
82.09703	6990.486	
82.17441	7015.966	
82.20991	6988.533	
82.28423	7014.001	
82.32021	6978.25	
82.39369	7014.644	
82.43265	6984.689	
82.5057	7016.205	
82.54288	6986.598	
82.61768	7018.916	
82.65185	6990.404	
82.72694	7018.475	
82.76527	6985.451	
82.83949	7002.083	
82.87585	6981.925	
82.94798	7014.838	
82.98376	6970.973	
83.06059	7014.557	
83.09632	6974.1	
83.17023	7021.74	
83.20625	6968.194	
83.28209	7003.39	
83.32133	6975.134	
83.39371	7000.401	
83.43035	6977.356	
83.50418	7008.651	
83.54105	6966.263	
83.61277	7006.511	
83.64742	6966.335	
83.72207	6990.779	
83.75893	6959.18	
83.83354	6995.254	
83.86914	6943.696	
83.9446	6998.624	
83.98091	6946.858	
84.0551	6982.133	
84.09064	6944.097	
84.16497	6981.539	
84.20511	6943.766	
84.28046	6960.096	
84.31481	6937.096	
84.38779	6957.69	
84.42395	6935.54	
84.50217	6950.966	
84.53856	6927.956	
84.61045	6944.363	
84.64667	6918.249	
84.72004	6941.083	
84.75918	6911.498	
84.83371	6937.985	
84.86956	6918.709	
84.94318	6932.398	
84.9786	6911.687	
85.05276	6925.545	
85.08884	6898.565	
85.16251	6915.344	
85.19894	6886.463	
85.27247	6909.09	
85.30711	6872.396	
85.38098	6900.089	
85.41731	6862.531	
85.49158	6885.216	
85.52726	6840.729	
85.60062	6883.169	
85.63718	6838.565	
85.70962	6863.327	
85.74496	6828.272	
85.81982	6856.025	
85.85523	6821.008	
85.93005	6838.529	
85.96621	6805.25	
86.03999	6836.666	
86.07691	6798.308	
86.1499	6818.417	
86.18486	6770.506	
86.25884	6810.648	
86.29425	6779.804	
86.36832	6781.229	
86.40398	6750.562	
86.47706	6778.414	
86.51366	6752.255	
86.58775	6749.89	
86.6236	6718.358	
86.69758	6748.467	
86.73329	6729.83	
86.80788	6739.795	
86.84404	6697.22	
86.91722	6719.371	
86.95299	6659.836	
87.02667	6694.685	
87.06187	6658.736	
87.13703	6679.462	
87.17292	6639.916	
87.24592	6672.185	
87.28116	6635.548	
87.35541	6644.535	
87.39158	6626.871	
87.46514	6649.131	
87.50089	6614.132	
87.5756	6620.022	
87.61176	6589.065	
87.68427	6609.422	
87.71966	6558.66	
87.79205	6611.679	
87.82755	6562.878	
87.90259	6570.909	
87.93929	6529.137	
88.01198	6570.817	
88.04746	6534.953	
88.12204	6544.081	
88.1576	6516.087	
88.23035	6543.372	
88.26601	6484.2	
88.33996	6514.843	
88.37836	6468.336	
88.45101	6518.093	
88.48888	6458.924	
88.56051	6487.805	
88.59605	6444.71	
88.67088	6466.13	
88.70667	6438.61	
88.77943	6451.097	
88.81509	6413.986	
88.88912	6445.749	
88.92731	6391.206	
89.00011	6417.974	
89.03651	6365.787	
89.1087	6411.665	
89.14252	6369.818	
89.21779	6380.108	
89.25458	6336.092	
89.32901	6379.587	
89.36529	6327.436	
89.43826	6371.153	
89.47349	6329.841	
89.54665	6345.652	
89.58276	6287.229	
89.65697	6331.285	
89.69209	6282.68	
89.76535	6311.12	
89.80187	6258.396	
89.87674	6313.207	
89.91194	6255.002	
89.98483	6282.779	
90.02013	6224.39	
90.09417	6260.058	
90.12989	6214.508	
90.20249	6240.761	
90.23915	6194.031	
90.31687	6224.906	
90.35193	6191.124	
90.42082	6220.796	
90.45666	6186.056	
90.53341	6193.987	
90.56963	6168.375	
90.64346	6176.75	
90.67927	6125.639	
90.75109	6169.262	
90.78773	6115.799	
90.86159	6147.331	
90.89782	6113.022	
90.97253	6135.688	
91.00912	6092.771	
91.08081	6119.66	
91.11641	6081.5	
91.19039	6100.34	
91.22546	6062.878	
91.2996	6080.815	
91.33535	6049.558	
91.40813	6077.235	
91.44406	6025.654	
91.51842	6056.613	
91.5556	6019.658	
91.62796	6043.77	
91.66408	5992.3	
91.73831	6018.919	
91.77557	5968.226	
91.84961	6014.928	
91.88447	5973.881	
91.95672	6004.868	
91.99243	5943.301	
92.06609	5968.725	
92.10194	5936.066	
92.1778	5953.917	
92.2139	5913.201	
92.28539	5954.333	
92.32092	5908.112	
92.3966	5946.12	
92.43233	5887.439	
92.50671	5921.171	
92.54284	5884.177	
92.61446	5899.414	
92.64994	5870.524	
92.72566	5875.393	
92.76143	5839.826	
92.83346	5880.284	
92.86932	5828.136	
92.94298	5851.041	
92.97861	5825.827	
93.05437	5835.827	
93.09034	5791.733	
93.16336	5818.813	
93.19923	5779.264	
93.27258	5798.453	
93.30887	5771.521	
93.38271	5793.834	
93.41826	5755.339	
93.491	5761.764	
93.52663	5745.119	
93.60275	5753.692	
93.63852	5696.901	
93.71169	5739.935	
93.74812	5700.666	
93.82156	5715.031	
93.85672	5686.95	
93.92809	5709.342	
93.96355	5667.707	
94.03723	5696.768	
94.07203	5652.221	
94.14034	5687.293	
94.17338	5639.201	
94.24133	5669.801	
94.27421	5629.106	
94.33918	5650.203	
94.36963	5598.038	
94.43218	5632.681	
94.46118	5588.937	
94.52021	5632.734	
94.54766	5587.784	
94.60202	5613.619	
94.62735	5588.046	
94.67604	5606.199	
94.69907	5566.245	
94.74564	5595.83	
94.76679	5560.061	
94.80746	5591.93	
94.82577	5539.269	
94.86102	5585.358	
94.87666	5537.249	
94.90641	5576.822	
94.9199	5528.756	
94.94341	5561.353	
94.95302	5522.9	
94.96986	5561.551	
94.97895	5522.791	
94.99162	5559.769	
