T[Â°C]	330nm [counts / mm]	S.D.	First derivative	S.D. of first derivative
19.99924	8039.591		-122.598	
20.05323	8032.986		-122.3403	
20.10722	8026.398		-122.0829	
20.16121	8019.829		-121.8258	
20.2152	8013.274		-121.5692	
20.26919	8006.736		-121.3129	
20.32318	8000.211		-121.0572	
20.37717	7993.7		-120.802	
20.43116	7987.202		-120.5475	
20.48515	7980.715		-120.2937	
20.53914	7974.241		-120.0407	
20.59313	7967.778		-119.7886	
20.64712	7961.326		-119.5374	
20.70111	7954.885		-119.2874	
20.7551	7948.456		-119.0384	
20.80909	7942.041		-118.7906	
20.86308	7935.646		-118.5442	
20.91707	7929.298		-118.2992	
20.97106	7923.041		-118.0556	
21.02505	7916.835		-117.8136	
21.07904	7910.564		-117.5733	
21.13303	7904.22		-117.3346	
21.18702	7897.807		-117.0978	
21.24101	7891.329		-116.8627	
21.295	7884.794		-116.6296	
21.34899	7878.223		-116.3985	
21.40298	7871.634		-116.1693	
21.45697	7865.05		-115.9422	
21.51097	7858.497		-115.717	
21.56495	7852.001		-115.4939	
21.61894	7845.574		-115.2728	
21.67294	7839.205		-115.0536	
21.72692	7832.875		-114.8365	
21.78092	7826.576		-114.6212	
21.83491	7820.301		-114.4077	
21.8889	7814.041		-114.1959	
21.94289	7807.787		-113.9857	
21.99688	7801.527		-113.7769	
22.05087	7795.275		-113.5692	
22.10486	7789.054		-113.3623	
22.15885	7782.889		-113.1559	
22.21284	7776.804		-112.9494	
22.26683	7770.816		-112.7424	
22.32082	7764.945		-112.5342	
22.37481	7759.203		-112.3241	
22.4288	7753.59		-112.1115	
22.48279	7748.088		-111.896	
22.53678	7742.671		-111.6777	
22.59077	7737.314		-111.4572	
22.64476	7731.988		-111.3311	
22.69875	7726.66		-111.2097	
22.75274	7721.292		-111.0932	
22.80673	7715.859		-110.9817	
22.86072	7710.34		-110.8752	
22.91471	7704.722		-110.774	
22.9687	7699		-110.6784	
23.02269	7693.193		-110.5886	
23.07668	7687.336		-110.505	
23.13067	7681.467		-110.4279	
23.18466	7675.613		-110.3576	
23.23865	7669.785		-110.2943	
23.29264	7663.981		-110.2381	
23.34663	7658.194		-110.1892	
23.40062	7652.409		-110.1476	
23.45461	7646.598		-110.1129	
23.5086	7640.739		-110.085	
23.56259	7634.823		-110.0634	
23.61658	7628.842		-110.0478	
23.67057	7622.792		-110.0377	
23.72456	7616.681		-110.0324	
23.77855	7610.525		-110.0311	
23.83254	7604.337		-110.0332	
23.88653	7598.121		-110.0377	
23.94052	7591.881		-110.0438	
23.99451	7585.621		-110.0508	
24.0485	7579.343		-110.0577	
24.10249	7573.051		-110.064	
24.15648	7566.759		-110.0688	
24.21047	7560.488		-110.0715	
24.26447	7554.262		-110.0712	
24.31845	7548.103		-110.0672	
24.37244	7542.02		-110.0588	
24.42644	7536.01		-110.0452	
24.48042	7530.072		-110.0254	
24.53442	7524.189		-109.9988	
24.58841	7518.342		-109.9646	
24.6424	7512.507		-109.9222	
24.69639	7506.659		-109.8711	
24.75038	7500.781		-109.8108	
24.80437	7494.873		-109.7409	
24.85836	7488.933		-109.6613	
24.91235	7482.947		-109.572	
24.96634	7476.913		-109.4731	
25.02033	7470.839		-109.365	
25.07432	7464.748		-109.2482	
25.12831	7458.66		-109.1236	
25.1823	7452.585		-108.9919	
25.23629	7446.533		-108.8543	
25.29028	7440.518		-108.7119	
25.34427	7434.547		-108.5656	
25.39826	7428.608		-108.4164	
25.45225	7422.677		-108.2652	
25.50624	7416.731		-108.1127	
25.56023	7410.75		-107.9595	
25.61422	7404.721		-107.8063	
25.66821	7398.643		-107.6536	
25.7222	7392.53		-107.5019	
25.77619	7386.408		-107.3514	
25.83018	7380.302		-107.2026	
25.88417	7374.255		-107.0559	
25.93816	7368.321		-106.9116	
25.99215	7362.542		-106.7702	
26.04614	7356.933		-106.6321	
26.10013	7351.478		-106.4978	
26.15412	7346.147		-106.3676	
26.20811	7340.903		-106.2419	
26.2621	7335.704		-106.1209	
26.31609	7330.511		-106.0047	
26.37008	7325.287		-105.8931	
26.42407	7320.008		-105.786	
26.47806	7314.657		-105.6832	
26.53205	7309.229		-105.5843	
26.58604	7303.734		-105.4888	
26.64003	7298.183		-105.3962	
26.69402	7292.591		-105.3062	
26.74801	7286.983		-105.2183	
26.802	7281.386		-105.1321	
26.85599	7275.811		-105.0474	
26.90998	7270.26		-104.9639	
26.96397	7264.726		-104.8813	
27.01797	7259.194		-104.7994	
27.07195	7253.655		-104.7181	
27.12594	7248.084		-104.6372	
27.17994	7242.456		-104.5565	
27.23392	7236.758		-104.476	
27.28792	7230.999		-104.3953	
27.34191	7225.2		-104.3145	
27.3959	7219.379		-104.2332	
27.44989	7213.562		-104.1513	
27.50388	7207.773		-104.0687	
27.55787	7202.042		-103.9854	
27.61186	7196.376		-103.9013	
27.66585	7190.78		-103.8167	
27.71984	7185.243		-103.7315	
27.77383	7179.737		-103.646	
27.82782	7174.239		-103.5604	
27.88181	7168.735		-103.475	
27.9358	7163.22		-103.3901	
27.98979	7157.701		-103.306	
28.04378	7152.168		-103.2229	
28.09777	7146.607		-103.1412	
28.15176	7141		-103.061	
28.20575	7135.33		-102.9828	
28.25974	7129.592		-102.9067	
28.31373	7123.79		-102.8331	
28.36772	7117.934		-102.7621	
28.42171	7112.034		-102.6939	
28.4757	7106.099		-102.6287	
28.52969	7100.141		-102.5663	
28.58368	7094.174		-102.5067	
28.63767	7088.219		-102.4496	
28.69166	7082.29		-102.3946	
28.74565	7076.397		-102.3415	
28.79964	7070.559		-102.2898	
28.85363	7064.793		-102.2393	
28.90762	7059.113		-102.1896	
28.96161	7053.518		-102.1403	
29.0156	7048.008		-102.0912	
29.06959	7042.586		-102.0417	
29.12358	7037.26		-101.9917	
29.17757	7032.027		-101.9406	
29.23156	7026.868		-101.8881	
29.28555	7021.761		-101.834	
29.33954	7016.675		-101.778	
29.39353	7011.586		-101.7198	
29.44752	7006.487		-101.6593	
29.50151	7001.385		-101.5965	
29.5555	6996.284		-101.5314	
29.60949	6991.193		-101.4643	
29.66348	6986.119		-101.3953	
29.71747	6981.056		-101.3247	
29.77147	6975.99		-101.2529	
29.82545	6970.9		-101.1802	
29.87944	6965.774		-101.1072	
29.93344	6960.609		-101.0344	
29.98742	6955.396		-100.9624	
30.04142	6950.127		-100.8918	
30.09541	6944.794		-100.823	
30.1494	6939.385		-100.7568	
30.20339	6933.904		-100.6936	
30.25738	6928.363		-100.6341	
30.31137	6922.772		-100.5789	
30.36536	6917.138		-100.5286	
30.41935	6911.455		-100.4839	
30.47334	6905.73		-100.4454	
30.52733	6899.981		-100.4135	
30.58132	6894.237		-100.3885	
30.63531	6888.524		-100.3706	
30.6893	6882.846		-100.3595	
30.74329	6877.198		-100.355	
30.79728	6871.572		-100.3566	
30.85127	6865.964		-100.3637	
30.90526	6860.371		-100.3754	
30.95925	6854.789		-100.3907	
31.01324	6849.212		-100.4084	
31.06723	6843.64		-100.4275	
31.12122	6838.079		-100.4466	
31.17521	6832.544		-100.4644	
31.2292	6827.038		-100.4797	
31.28319	6821.557		-100.4913	
31.33718	6816.103		-100.4981	
31.39117	6810.682		-100.499	
31.44516	6805.309		-100.4932	
31.49915	6799.987		-100.4799	
31.55314	6794.704		-100.4583	
31.60713	6789.443		-100.4281	
31.66112	6784.197		-100.3888	
31.71511	6778.961		-100.3401	
31.7691	6773.729		-100.2819	
31.82309	6768.498		-100.2141	
31.87708	6763.264		-100.1369	
31.93107	6758.017		-100.0505	
31.98506	6752.752		-99.95531	
32.03905	6747.457		-99.85204	
32.09304	6742.111		-99.74138	
32.14703	6736.708		-99.62424	
32.20102	6731.253		-99.50163	
32.25501	6725.77		-99.37464	
32.30901	6720.277		-99.24448	
32.363	6714.79		-99.11243	
32.41698	6709.299		-98.97984	
32.47097	6703.79		-98.84806	
32.52496	6698.261		-98.71837	
32.57896	6692.721		-98.59195	
32.63295	6687.183		-98.46979	
32.68694	6681.658		-98.35262	
32.74092	6676.151		-98.24097	
32.79491	6670.661		-98.13515	
32.84891	6665.185		-98.03526	
32.9029	6659.724		-97.94122	
32.95689	6654.277		-97.85284	
33.01088	6648.845		-97.76982	
33.06487	6643.434		-97.69183	
33.11886	6638.062		-97.61847	
33.17285	6632.748		-97.54936	
33.22684	6627.506		-97.48405	
33.28083	6622.332		-97.42207	
33.33482	6617.209		-97.363	
33.38881	6612.117		-97.30649	
33.4428	6607.047		-97.25222	
33.49679	6601.994		-97.19994	
33.55078	6596.95		-97.14945	
33.60477	6591.903		-97.10064	
33.65876	6586.847		-97.0534	
33.71275	6581.788		-97.00769	
33.76674	6576.731		-96.96346	
33.82073	6571.678		-96.92063	
33.87472	6566.626		-96.87919	
33.92871	6561.582		-96.83913	
33.9827	6556.552		-96.8005	
34.03669	6551.544		-96.76334	
34.09068	6546.558		-96.72772	
34.14467	6541.589		-96.69373	
34.19866	6536.624		-96.66146	
34.25265	6531.648		-96.63104	
34.30664	6526.658		-96.60262	
34.36063	6521.65		-96.57632	
34.41462	6516.61		-96.55234	
34.46861	6511.529		-96.53082	
34.5226	6506.396		-96.51192	
34.57659	6501.21		-96.4957	
34.63058	6495.971		-96.48216	
34.68457	6490.676		-96.47123	
34.73856	6485.326		-96.46269	
34.79255	6479.933		-96.45628	
34.84654	6474.512		-96.45159	
34.90053	6469.079		-96.44818	
34.95452	6463.639		-96.4455	
35.00851	6458.196		-96.44298	
35.0625	6452.742		-96.44001	
35.11649	6447.279		-96.436	
35.17048	6441.826		-96.43032	
35.22448	6436.419		-96.42239	
35.27847	6431.096		-96.41169	
35.33245	6425.871		-96.39775	
35.38644	6420.733		-96.38023	
35.44043	6415.664		-96.35887	
35.49443	6410.634		-96.33354	
35.54842	6405.605		-96.30421	
35.60241	6400.542		-96.27097	
35.65639	6395.428		-96.234	
35.71039	6390.263		-96.19363	
35.76438	6385.054		-96.15022	
35.81837	6379.808		-96.10418	
35.87236	6374.537		-96.05593	
35.92635	6369.247		-96.00591	
35.98034	6363.946		-95.95454	
36.03433	6358.642		-95.90227	
36.08832	6353.344		-95.84946	
36.14231	6348.05		-95.79642	
36.1963	6342.75		-95.74338	
36.25029	6337.435		-95.69048	
36.30428	6332.098		-95.63783	
36.35827	6326.737		-95.5854	
36.41226	6321.351		-95.5332	
36.46625	6315.936		-95.48113	
36.52024	6310.495		-95.42915	
36.57423	6305.043		-95.37717	
36.62822	6299.597		-95.32516	
36.68221	6294.17		-95.2731	
36.7362	6288.789		-95.22101	
36.79019	6283.485		-95.16895	
36.84418	6278.284		-95.117	
36.89817	6273.204		-95.06525	
36.95216	6268.254		-95.01368	
37.00615	6263.424		-94.96215	
37.06014	6258.688		-94.91044	
37.11413	6254.016		-94.85823	
37.16812	6249.369		-94.80511	
37.22211	6244.716		-94.75064	
37.2761	6240.038		-94.69433	
37.33009	6235.326		-94.63578	
37.38408	6230.579		-94.57465	
37.43807	6225.798		-94.51062	
37.49206	6220.985		-94.44351	
37.54605	6216.148		-94.37326	
37.60004	6211.292		-94.29996	
37.65403	6206.418		-94.22393	
37.70802	6201.524		-94.14561	
37.76201	6196.6		-94.06564	
37.81601	6191.632		-93.98466	
37.87	6186.607		-93.90334	
37.92398	6181.512		-93.82223	
37.97797	6176.341		-93.74186	
38.03196	6171.109		-93.66267	
38.08596	6165.827		-93.58498	
38.13995	6160.506		-93.50903	
38.19394	6155.15		-93.43491	
38.24792	6149.769		-93.3626	
38.30191	6144.371		-93.29201	
38.35591	6138.973		-93.22293	
38.4099	6133.59		-93.15513	
38.46389	6128.235		-93.08827	
38.51788	6122.918		-93.02202	
38.57187	6117.648		-92.95602	
38.62586	6112.421		-92.88988	
38.67985	6107.236		-92.82323	
38.73384	6102.104		-92.75576	
38.78783	6097.032		-92.68719	
38.84182	6092.026		-92.61733	
38.89581	6087.076		-92.54602	
38.9498	6082.167		-92.47313	
39.00379	6077.278		-92.3985	
39.05778	6072.396		-92.32197	
39.11177	6067.502		-92.24337	
39.16576	6062.591		-92.16254	
39.21975	6057.658		-92.07922	
39.27374	6052.708		-91.99317	
39.32773	6047.744		-91.90414	
39.38172	6042.76		-91.81181	
39.43571	6037.755		-91.71592	
39.4897	6032.739		-91.61616	
39.54369	6027.724		-91.51234	
39.59768	6022.73		-91.40439	
39.65167	6017.771		-91.29242	
39.70566	6012.856		-91.17674	
39.75965	6007.988		-91.05779	
39.81364	6003.158		-90.93616	
39.86763	5998.348		-90.81252	
39.92162	5993.529		-90.68761	
39.97561	5988.684		-90.56223	
40.0296	5983.806		-90.43712	
40.08359	5978.896		-90.31307	
40.13758	5973.948		-90.19081	
40.19157	5968.969		-90.07099	
40.24556	5963.972		-89.95423	
40.29955	5958.985		-89.84104	
40.35354	5954.039		-89.73186	
40.40753	5949.166		-89.62705	
40.46152	5944.39		-89.52688	
40.51551	5939.719		-89.43153	
40.5695	5935.135		-89.34106	
40.62349	5930.614		-89.25546	
40.67748	5926.126		-89.17461	
40.73148	5921.648		-89.09835	
40.78547	5917.155		-89.02653	
40.83945	5912.616		-88.95898	
40.89344	5908.006		-88.89558	
40.94744	5903.309		-88.83621	
41.00143	5898.526		-88.7808	
41.05542	5893.672		-88.72929	
41.10941	5888.772		-88.68166	
41.16339	5883.863		-88.63792	
41.21739	5878.985		-88.5981	
41.27138	5874.161		-88.5622	
41.32537	5869.394		-88.53021	
41.37936	5864.67		-88.502	
41.43335	5859.974		-88.47729	
41.48734	5855.287		-88.45567	
41.54133	5850.598		-88.43655	
41.59532	5845.891		-88.41927	
41.64931	5841.15		-88.40303	
41.7033	5836.364		-88.38699	
41.75729	5831.531		-88.37029	
41.81128	5826.663		-88.35206	
41.86527	5821.773		-88.33151	
41.91926	5816.876		-88.30793	
41.97325	5811.996		-88.28072	
42.02724	5807.165		-88.2494	
42.08123	5802.399		-88.21366	
42.13522	5797.698		-88.17328	
42.18921	5793.042		-88.12812	
42.2432	5788.407		-88.07813	
42.29719	5783.77		-88.02326	
42.35118	5779.114		-87.96355	
42.40517	5774.434		-87.89901	
42.45916	5769.719		-87.82967	
42.51315	5764.959		-87.75561	
42.56714	5760.157		-87.6769	
42.62113	5755.317		-87.59363	
42.67512	5750.455		-87.50591	
42.72911	5745.59		-87.41389	
42.7831	5740.744		-87.31783	
42.83709	5735.932		-87.21809	
42.89108	5731.157		-87.11516	
42.94507	5726.405		-87.00964	
42.99906	5721.661		-86.90222	
43.05305	5716.906		-86.79365	
43.10704	5712.13		-86.68473	
43.16103	5707.328		-86.57632	
43.21502	5702.491		-86.46936	
43.26901	5697.621		-86.36478	
43.32301	5692.713		-86.26346	
43.377	5687.772		-86.16623	
43.43098	5682.808		-86.07372	
43.48497	5677.839		-85.98643	
43.53896	5672.889		-85.90468	
43.59296	5667.979		-85.82861	
43.64695	5663.129		-85.7582	
43.70094	5658.349		-85.6933	
43.75492	5653.637		-85.63358	
43.80891	5648.992		-85.57861	
43.86291	5644.406		-85.52782	
43.9169	5639.869		-85.48062	
43.97089	5635.375		-85.43639	
44.02488	5630.92		-85.39455	
44.07887	5626.509		-85.35457	
44.13286	5622.143		-85.31593	
44.18685	5617.821		-85.27824	
44.24084	5613.535		-85.24111	
44.29483	5609.278		-85.2043	
44.34882	5605.041		-85.16763	
44.40281	5600.818		-85.131	
44.4568	5596.597		-85.09432	
44.51079	5592.373		-85.05759	
44.56478	5588.146		-85.02081	
44.61877	5583.918		-84.98395	
44.67276	5579.688		-84.94701	
44.72675	5575.454		-84.90997	
44.78074	5571.211		-84.87283	
44.83473	5566.953		-84.83569	
44.88872	5562.665		-84.79865	
44.94271	5558.333		-84.76195	
44.9967	5553.945		-84.72583	
45.05069	5549.498		-84.69058	
45.10468	5544.988		-84.65653	
45.15867	5540.416		-84.62405	
45.21266	5535.792		-84.59354	
45.26665	5531.124		-84.56542	
45.32064	5526.418		-84.54008	
45.37463	5521.674		-84.51783	
45.42862	5516.884		-84.49883	
45.48261	5512.047		-84.48315	
45.5366	5507.162		-84.47071	
45.59059	5502.246		-84.46133	
45.64458	5497.323		-84.45476	
45.69857	5492.408		-84.45055	
45.75256	5487.509		-84.44819	
45.80655	5482.627		-84.44695	
45.86054	5477.769		-84.44598	
45.91454	5472.934		-84.44438	
45.96852	5468.125		-84.44116	
46.02251	5463.349		-84.43531	
46.0765	5458.613		-84.42586	
46.13049	5453.924		-84.41187	
46.18449	5449.282		-84.39248	
46.23848	5444.679		-84.36696	
46.29247	5440.11		-84.3347	
46.34645	5435.569		-84.29525	
46.40044	5431.048		-84.24834	
46.45444	5426.539		-84.19379	
46.50843	5422.028		-84.1316	
46.56242	5417.507		-84.06184	
46.61641	5412.971		-83.98471	
46.67039	5408.427		-83.90044	
46.72439	5403.881		-83.80932	
46.77838	5399.348		-83.71172	
46.83237	5394.831		-83.60806	
46.88636	5390.331		-83.49879	
46.94035	5385.847		-83.38445	
46.99434	5381.381		-83.26566	
47.04833	5376.923		-83.14314	
47.10232	5372.463		-83.01769	
47.15631	5367.996		-82.89018	
47.2103	5363.52		-82.76157	
47.26429	5359.035		-82.63287	
47.31828	5354.543		-82.50515	
47.37227	5350.043		-82.37944	
47.42626	5345.542		-82.25671	
47.48025	5341.039		-82.13786	
47.53424	5336.534		-82.02362	
47.58823	5332.033		-81.9147	
47.64222	5327.55		-81.81161	
47.69621	5323.1		-81.71478	
47.7502	5318.686		-81.62445	
47.80419	5314.299		-81.5407	
47.85818	5309.935		-81.46345	
47.91217	5305.593		-81.39242	
47.96616	5301.279		-81.32721	
48.02015	5297.004		-81.26732	
48.07414	5292.775		-81.21219	
48.12813	5288.589		-81.16125	
48.18212	5284.43		-81.11393	
48.23611	5280.284		-81.06969	
48.2901	5276.144		-81.02796	
48.34409	5272.009		-80.98827	
48.39808	5267.879		-80.95019	
48.45207	5263.749		-80.91332	
48.50606	5259.611		-80.87737	
48.56005	5255.461		-80.84207	
48.61404	5251.295		-80.80721	
48.66803	5247.106		-80.77256	
48.72202	5242.894		-80.73794	
48.77601	5238.659		-80.70315	
48.83001	5234.399		-80.66803	
48.884	5230.11		-80.63245	
48.93798	5225.795		-80.59633	
48.99197	5221.453		-80.55964	
49.04596	5217.086		-80.52238	
49.09996	5212.709		-80.48464	
49.15395	5208.331		-80.44654	
49.20794	5203.957		-80.40829	
49.26192	5199.584		-80.37012	
49.31592	5195.204		-80.33226	
49.36991	5190.809		-80.29497	
49.4239	5186.394		-80.25843	
49.47789	5181.942		-80.22283	
49.53188	5177.446		-80.18826	
49.58587	5172.899		-80.15475	
49.63986	5168.314		-80.12231	
49.69385	5163.708		-80.09084	
49.74784	5159.088		-80.06022	
49.80183	5154.46		-80.03019	
49.85582	5149.831		-80.00042	
49.90981	5145.206		-79.9705	
49.9638	5140.602		-79.93993	
50.01779	5136.044		-79.90822	
50.07178	5131.559		-79.87478	
50.12577	5127.155		-79.83907	
50.17976	5122.822		-79.80057	
50.23375	5118.55		-79.75874	
50.28774	5114.317		-79.71307	
50.34173	5110.103		-79.66307	
50.39572	5105.89		-79.60831	
50.44971	5101.66		-79.54845	
50.5037	5097.403		-79.48329	
50.55769	5093.126		-79.41271	
50.61168	5088.837		-79.3367	
50.66567	5084.544		-79.25533	
50.71966	5080.257		-79.16872	
50.77365	5075.982		-79.0771	
50.82764	5071.729		-78.98077	
50.88163	5067.512		-78.88016	
50.93562	5063.336		-78.77573	
50.98961	5059.202		-78.66808	
51.0436	5055.108		-78.55777	
51.09759	5051.043		-78.44541	
51.15158	5046.991		-78.33162	
51.20557	5042.942		-78.21706	
51.25956	5038.883		-78.10239	
51.31355	5034.805		-77.9883	
51.36754	5030.698		-77.87548	
51.42154	5026.552		-77.7646	
51.47552	5022.355		-77.65636	
51.52951	5018.107		-77.5514	
51.5835	5013.812		-77.45033	
51.63749	5009.487		-77.35374	
51.69149	5005.151		-77.26211	
51.74548	5000.825		-77.17587	
51.79947	4996.522		-77.09526	
51.85345	4992.254		-77.02044	
51.90744	4988.021		-76.9514	
51.96144	4983.824		-76.88802	
52.01543	4979.665		-76.83002	
52.06942	4975.545		-76.77705	
52.12341	4971.463		-76.72864	
52.17739	4967.411		-76.68428	
52.23139	4963.375		-76.6434	
52.28538	4959.341		-76.60542	
52.33937	4955.304		-76.56971	
52.39336	4951.259		-76.53569	
52.44735	4947.197		-76.5028	
52.50134	4943.122		-76.47057	
52.55533	4939.038		-76.43858	
52.60932	4934.956		-76.40646	
52.66331	4930.884		-76.37379	
52.7173	4926.83		-76.34024	
52.77129	4922.802		-76.30547	
52.82528	4918.806		-76.2692	
52.87927	4914.84		-76.23126	
52.93326	4910.903		-76.19151	
52.98725	4906.988		-76.14984	
53.04124	4903.083		-76.10621	
53.09523	4899.162		-76.06056	
53.14922	4895.204		-76.01283	
53.20321	4891.198		-75.96297	
53.2572	4887.14		-75.91092	
53.31119	4883.03		-75.8567	
53.36518	4878.873		-75.80039	
53.41917	4874.669		-75.74217	
53.47316	4870.424		-75.6823	
53.52715	4866.143		-75.62116	
53.58114	4861.842		-75.55916	
53.63513	4857.543		-75.49676	
53.68912	4853.27		-75.4344	
53.74311	4849.031		-75.3725	
53.7971	4844.826		-75.3114	
53.85109	4840.64		-75.25137	
53.90508	4836.459		-75.19252	
53.95907	4832.275		-75.1349	
54.01306	4828.081		-75.07839	
54.06705	4823.876		-75.02284	
54.12104	4819.669		-74.96803	
54.17503	4815.464		-74.91372	
54.22902	4811.259		-74.85967	
54.28301	4807.063		-74.80566	
54.33701	4802.893		-74.75146	
54.391	4798.756		-74.69688	
54.44498	4794.668		-74.64178	
54.49897	4790.644		-74.58602	
54.55297	4786.686		-74.52953	
54.60696	4782.788		-74.47224	
54.66095	4778.933		-74.4141	
54.71494	4775.102		-74.35505	
54.76892	4771.271		-74.29502	
54.82292	4767.415		-74.23398	
54.87691	4763.521		-74.17191	
54.9309	4759.584		-74.10877	
54.98489	4755.612		-74.04454	
55.03888	4751.615		-73.97919	
55.09287	4747.603		-73.91273	
55.14686	4743.595		-73.84515	
55.20085	4739.611		-73.7765	
55.25484	4735.67		-73.70682	
55.30883	4731.78		-73.63621	
55.36282	4727.934		-73.56482	
55.41681	4724.115		-73.4929	
55.4708	4720.299		-73.42072	
55.52479	4716.466		-73.34858	
55.57878	4712.6		-73.27682	
55.63277	4708.697		-73.20574	
55.68676	4704.763		-73.13564	
55.74075	4700.812		-73.06681	
55.79474	4696.855		-72.99947	
55.84873	4692.904		-72.93382	
55.90272	4688.97		-72.86998	
55.95671	4685.049		-72.80801	
56.0107	4681.14		-72.74796	
56.06469	4677.237		-72.68982	
56.11868	4673.337		-72.63359	
56.17267	4669.443		-72.57925	
56.22666	4665.558		-72.52682	
56.28065	4661.685		-72.47626	
56.33464	4657.821		-72.42754	
56.38863	4653.958		-72.38065	
56.44262	4650.092		-72.33558	
56.49661	4646.208		-72.29236	
56.5506	4642.302		-72.25104	
56.60459	4638.364		-72.21171	
56.65858	4634.398		-72.1745	
56.71257	4630.41		-72.13957	
56.76656	4626.399		-72.10709	
56.82055	4622.371		-72.07723	
56.87454	4618.337		-72.05014	
56.92854	4614.309		-72.02593	
56.98252	4610.298		-72.00465	
57.03651	4606.308		-71.98627	
57.0905	4602.344		-71.97071	
57.14449	4598.406		-71.95779	
57.19849	4594.494		-71.94723	
57.25248	4590.611		-71.93867	
57.30647	4586.756		-71.93164	
57.36045	4582.925		-71.92558	
57.41444	4579.113		-71.91985	
57.46844	4575.315		-71.91373	
57.52243	4571.525		-71.90652	
57.57642	4567.731		-71.89746	
57.63041	4563.918		-71.88585	
57.68439	4560.072		-71.87099	
57.73839	4556.19		-71.85221	
57.79238	4552.28		-71.8289	
57.84637	4548.365		-71.8004	
57.90036	4544.461		-71.76614	
57.95435	4540.582		-71.72554	
58.00834	4536.738		-71.6781	
58.06233	4532.93		-71.62335	
58.11632	4529.157		-71.5609	
58.17031	4525.407		-71.49038	
58.2243	4521.672		-71.41148	
58.27829	4517.939		-71.32398	
58.33228	4514.195		-71.22766	
58.38627	4510.434		-71.12237	
58.44026	4506.653		-71.008	
58.49425	4502.852		-70.88457	
58.54824	4499.038		-70.75219	
58.60223	4495.218		-70.61111	
58.65622	4491.398		-70.4617	
58.71021	4487.589		-70.30449	
58.7642	4483.789		-70.1401	
58.81819	4479.991		-69.96935	
58.87218	4476.181		-69.79306	
58.92617	4472.348		-69.61217	
58.98016	4468.481		-69.42764	
59.03415	4464.577		-69.24035	
59.08814	4460.637		-69.05123	
59.14213	4456.66		-68.86107	
59.19612	4452.649		-68.67053	
59.25011	4448.606		-68.48016	
59.3041	4444.53		-68.29029	
59.35809	4440.419		-68.10114	
59.41208	4436.28		-67.91269	
59.46607	4432.123		-67.72481	
59.52006	4427.973		-67.53723	
59.57405	4423.851		-67.34962	
59.62804	4419.775		-67.16164	
59.68203	4415.761		-66.97285	
59.73602	4411.824		-66.78279	
59.79002	4407.98		-66.591	
59.84401	4404.243		-66.39701	
59.89799	4400.62		-66.20032	
59.95198	4397.11		-66.00045	
60.00597	4393.71		-65.79695	
60.05997	4390.403		-65.58936	
60.11396	4387.164		-65.37727	
60.16795	4383.971		-65.16028	
60.22194	4380.806		-64.93806	
60.27592	4377.657		-64.71033	
60.32992	4374.519		-64.47686	
60.38391	4371.391		-64.23753	
60.4379	4368.275		-63.99223	
60.49189	4365.171		-63.74096	
60.54588	4362.072		-63.48381	
60.59987	4358.969		-63.22097	
60.65386	4355.862		-62.95281	
60.70785	4352.757		-62.6797	
60.76184	4349.649		-62.40213	
60.81583	4346.535		-62.12059	
60.86982	4343.404		-61.83563	
60.92381	4340.247		-61.54786	
60.9778	4337.055		-61.25782	
61.03179	4333.817		-60.96605	
61.08578	4330.522		-60.67304	
61.13977	4327.166		-60.37915	
61.19376	4323.75		-60.08474	
61.24775	4320.292		-59.78997	
61.30174	4316.813		-59.49496	
61.35573	4313.332		-59.19963	
61.40972	4309.86		-58.90376	
61.46371	4306.415		-58.60703	
61.5177	4303.01		-58.30885	
61.57169	4299.657		-58.0085	
61.62568	4296.355		-57.70507	
61.67967	4293.097		-57.39754	
61.73366	4289.87		-57.08469	
61.78765	4286.657		-56.76515	
61.84164	4283.442		-56.43745	
61.89563	4280.218		-56.10004	
61.94962	4276.997		-55.75132	
62.00361	4273.797		-55.38966	
62.0576	4270.635		-55.0134	
62.11159	4267.519		-54.62094	
62.16558	4264.445		-54.21069	
62.21957	4261.409		-53.78121	
62.27356	4258.403		-53.33111	
62.32755	4255.427		-52.85919	
62.38154	4252.481		-52.36436	
62.43554	4249.567		-51.84569	
62.48952	4246.682		-51.3024	
62.54351	4243.828		-50.7338	
62.5975	4241.01		-50.13935	
62.65149	4238.236		-49.51863	
62.70549	4235.496		-48.87133	
62.75948	4232.777		-48.19725	
62.81347	4230.07		-47.49619	
62.86745	4227.367		-46.76804	
62.92144	4224.665		-46.0127	
62.97544	4221.96		-45.23013	
63.02943	4219.249		-44.42035	
63.08342	4216.527		-43.58332	
63.13741	4213.784		-42.71903	
63.1914	4211.015		-41.8274	
63.24539	4208.231		-40.90856	
63.29938	4205.458		-39.9624	
63.35337	4202.718		-38.98885	
63.40736	4200.038		-37.98784	
63.46135	4197.433		-36.95911	
63.51534	4194.915		-35.90256	
63.56933	4192.497		-34.81773	
63.62332	4190.185		-33.70408	
63.67731	4187.986		-32.56096	
63.7313	4185.904		-31.38738	
63.78529	4183.936		-30.18248	
63.83928	4182.066		-28.94495	
63.89327	4180.278		-27.67335	
63.94726	4178.56		-26.36618	
64.00125	4176.903		-25.02162	
64.05524	4175.319		-23.63823	
64.10923	4173.817		-22.21387	
64.16322	4172.413		-20.74691	
64.21721	4171.113		-19.23588	
64.2712	4169.926		-17.6786	
64.32519	4168.861		-16.07392	
64.37918	4167.915		-14.41988	
64.43317	4167.077		-12.71522	
64.48716	4166.336		-10.95886	
64.54115	4165.677		-9.148899	
64.59514	4165.094		-7.284518	
64.64913	4164.574		-5.363851	
64.70313	4164.103		-3.385768	
64.75711	4163.674		-1.349258	
64.8111	4163.281		0.7477248	
64.86509	4162.924		2.905964	
64.91908	4162.608		5.127511	
64.97308	4162.35		7.41357	
65.02706	4162.178		9.765242	
65.08105	4162.114		12.18487	
65.13504	4162.162		14.67341	
65.18903	4162.316		17.23335	
65.24303	4162.575		19.86628	
65.29701	4162.943		22.57373	
65.35101	4163.432		25.35865	
65.40499	4164.05		28.22239	
65.45898	4164.809		31.16803	
65.51298	4165.713		34.1976	
65.56696	4166.768		37.31303	
65.62096	4167.976		40.51796	
65.67494	4169.338		43.8142	
65.72894	4170.851		47.20554	
65.78293	4172.516		50.69448	
65.83691	4174.338		54.28358	
65.89091	4176.322		57.97705	
65.9449	4178.467		61.77775	
65.99889	4180.769		65.68839	
66.05288	4183.238		69.71377	
66.10686	4185.89		73.8563	
66.16086	4188.748		78.12079	
66.21485	4191.825		82.51039	
66.26884	4195.138		87.02795	
66.32283	4198.708		91.67857	
66.37682	4202.546		96.46453	
66.43081	4206.659		101.3908	
66.4848	4211.05		106.4603	
66.53879	4215.714		111.6755	
66.59278	4220.641		117.0417	
66.64677	4225.818		122.5607	
66.70076	4231.245		128.2373	
66.75475	4236.919		134.0742	
66.80874	4242.841		140.0741	
66.86273	4249.009		146.2418	
66.91672	4255.426		152.5791	
66.97071	4262.115		159.0912	
67.0247	4269.109		165.7805	
67.07869	4276.441		172.6494	
67.13268	4284.145		179.7034	
67.18667	4292.237		186.944	
67.24066	4300.738		194.377	
67.29465	4309.655		202.0052	
67.34864	4318.988		209.8316	
67.40263	4328.726		217.8624	
67.45662	4338.852		226.0995	
67.51061	4349.353		234.5497	
67.56461	4360.224		243.216	
67.61859	4371.467		252.1015	
67.67258	4383.104		261.2124	
67.72657	4395.164		270.5499	
67.78056	4407.686		280.1198	
67.83456	4420.704		289.9232	
67.88854	4434.242		299.9608	
67.94254	4448.325		310.2365	
67.99652	4462.968		320.7478	
68.05051	4478.193		331.4976	
68.10451	4494.011		342.4831	
68.15849	4510.427		353.7009	
68.21249	4527.439		365.1514	
68.26647	4545.043		376.8276	
68.32047	4563.244		388.7285	
68.37446	4582.045		400.8472	
68.42844	4601.458		413.1756	
68.48244	4621.509		425.7104	
68.53642	4642.211		438.4402	
68.59042	4663.594		451.3599	
68.64441	4685.672		464.4583	
68.69839	4708.459		477.723	
68.75239	4731.974		491.1468	
68.80637	4756.22		504.7136	
68.86037	4781.21		518.4146	
68.91436	4806.955		532.2342	
68.96835	4833.461		546.1559	
69.02234	4860.753		560.1685	
69.07632	4888.838		574.252	
69.13032	4917.74		588.3937	
69.18431	4947.466		602.5742	
69.2383	4978.041		616.7732	
69.29229	5009.512		630.9762	
69.34628	5041.92		645.1618	
69.40027	5075.303		659.3083	
69.45426	5109.707		673.3994	
69.50825	5145.147		687.41	
69.56224	5181.652		701.3229	
69.61623	5219.219		715.1142	
69.67022	5257.854		728.7593	
69.72421	5297.591		742.2389	
69.7782	5338.455		755.5253	
69.83219	5380.491		768.5976	
69.88618	5423.724		781.4289	
69.94017	5468.178		793.9916	
69.99416	5513.886		806.2631	
70.04815	5560.839		818.2133	
70.10214	5609.046		829.8188	
70.15614	5658.472		841.0507	
70.21012	5709.052		851.8803	
70.26411	5760.714		862.2836	
70.3181	5813.342		872.2307	
70.37209	5866.851		881.6978	
70.42609	5921.139		890.6575	
70.48007	5976.107		899.0833	
70.53407	6031.697		906.9526	
70.58805	6087.838		914.2399	
70.64204	6144.513		920.9247	
70.69604	6201.688		926.9846	
70.75002	6259.336		932.3993	
70.80402	6317.454		937.1521	
70.858	6375.992		941.2253	
70.91199	6434.938		944.6054	
70.96599	6494.254		947.2792	
71.01997	6553.897		949.2359	
71.07397	6613.845		950.4676	
71.12795	6674.03		950.9677	
71.18195	6734.42		950.7322	
71.23594	6794.961		949.7592	
71.28992	6855.59		948.0495	
71.34392	6916.277		945.6053	
71.3979	6976.959		942.4323	
71.4519	7037.624		938.5367	
71.50589	7098.245		933.9282	
71.55988	7158.787		928.6185	
71.61387	7219.22		922.6192	
71.66785	7279.466		915.9465	
71.72185	7339.458		908.6148	
71.77584	7399.093		900.6423	
71.82983	7458.261		892.0494	
71.88382	7516.867		882.8535	
71.93781	7574.761		873.0787	
71.9918	7631.816		862.7445	
72.04579	7687.891		851.8755	
72.09978	7742.861		840.4975	
72.15377	7796.625		828.6319	
72.20776	7849.048		816.3072	
72.26175	7900.021		803.5453	
72.31574	7949.44		790.374	
72.36973	7997.231		776.8209	
72.42372	8043.373		762.9083	
72.47771	8087.839		748.6661	
72.5317	8130.652		734.1165	
72.58569	8171.843		719.2875	
72.63968	8211.458		704.2074	
72.69367	8249.557		688.8984	
72.74767	8286.174		673.3889	
72.80165	8321.337		657.7077	
72.85564	8355.088		641.8771	
72.90963	8387.439		625.9281	
72.96362	8418.407		609.8831	
73.01762	8447.986		593.7711	
73.0716	8476.179		577.6212	
73.1256	8503.013		561.4554	
73.17958	8528.532		545.3048	
73.23357	8552.813		529.191	
73.28757	8575.928		513.1423	
73.34155	8597.95		497.1866	
73.39555	8618.96		481.3443	
73.44953	8639.037		465.6446	
73.50352	8658.277		450.1069	
73.55752	8676.754		434.7567	
73.6115	8694.516		419.6179	
73.6655	8711.597		404.7075	
73.71948	8727.992		390.0493	
73.77348	8743.7		375.6578	
73.82747	8758.718		361.5522	
73.88145	8773.045		347.75	
73.93545	8786.697		334.2616	
73.98943	8799.696		321.1034	
74.04343	8812.083		308.2826	
74.09742	8823.896		295.8104	
74.15141	8835.167		283.696	
74.2054	8845.939		271.9417	
74.25938	8856.248		260.5546	
74.31338	8866.127		249.5336	
74.36737	8875.6		238.8808	
74.42136	8884.699		228.5959	
74.47535	8893.445		218.6731	
74.52934	8901.841		209.1104	
74.58333	8909.903		199.8991	
74.63732	8917.631		191.0333	
74.69131	8924.999		182.5058	
74.7453	8931.992		174.3049	
74.79929	8938.607		166.423	
74.85328	8944.861		158.847	
74.90727	8950.76		151.5671	
74.96126	8956.309		144.5723	
75.01525	8961.511		137.8489	
75.06924	8966.389		131.3865	
75.12323	8970.977		125.1709	
75.17722	8975.324		119.1908	
75.23121	8979.479		113.4349	
75.2852	8983.482		107.8898	
75.33919	8987.353		102.5456	
75.39318	8991.101		97.38994	
75.44717	8994.734		92.41319	
75.50116	8998.267		87.60634	
75.55515	9001.695		82.95893	
75.60914	9005.015		78.46377	
75.66313	9008.218		74.11166	
75.71712	9011.289		69.89583	
75.77111	9014.202		65.80998	
75.8251	9016.932		61.84663	
75.87909	9019.469		58.00101	
75.93308	9021.835		54.26662	
75.98708	9024.067		50.63887	
76.04106	9026.219		47.11343	
76.09505	9028.325		43.68473	
76.14905	9030.395		40.34895	
76.20303	9032.425		37.10243	
76.25703	9034.391		33.94038	
76.31101	9036.247		30.85991	
76.36501	9037.953		27.85656	
76.419	9039.483		24.92728	
76.47298	9040.804		22.06915	
76.52698	9041.901		19.27827	
76.58096	9042.783		16.55256	
76.63496	9043.458		13.88861	
76.68895	9043.927		11.2844	
76.74294	9044.205		8.738134	
76.79693	9044.33		6.247136	
76.85091	9044.345		3.810318	
76.90491	9044.275		1.425314	
76.9589	9044.134		-0.9091403	
77.01289	9043.91		-3.194268	
77.06688	9043.583		-5.432219	
77.12086	9043.139		-7.623855	
77.17486	9042.556		-9.771247	
77.22885	9041.807		-11.87541	
77.28284	9040.864		-13.93725	
77.33683	9039.71		-15.95837	
77.39082	9038.339		-17.93901	
77.44481	9036.758		-19.88035	
77.4988	9034.983		-21.78246	
77.55279	9033.029		-23.6452	
77.60678	9030.904		-25.469	
77.66077	9028.632		-27.25311	
77.71476	9026.237		-28.9976	
77.76875	9023.74		-30.70159	
77.82274	9021.16		-32.36405	
77.87673	9018.509		-33.98453	
77.93072	9015.789		-35.56158	
77.98471	9013.004		-37.09468	
78.0387	9010.164		-38.58269	
78.09269	9007.274		-40.02453	
78.14668	9004.339		-41.4198	
78.20067	9001.363		-42.76742	
78.25466	8998.343		-44.06723	
78.30865	8995.278		-45.3187	
78.36264	8992.183		-46.52151	
78.41663	8989.067		-47.67612	
78.47062	8985.942		-48.78249	
78.52461	8982.821		-49.84134	
78.57861	8979.713		-50.85306	
78.63259	8976.622		-51.81811	
78.68658	8973.539		-52.73743	
78.74057	8970.456		-53.61149	
78.79456	8967.359		-54.44131	
78.84856	8964.229		-55.2276	
78.90254	8961.041		-55.97112	
78.95654	8957.782		-56.67302	
79.01052	8954.442		-57.33403	
79.06451	8951.025		-57.95537	
79.11851	8947.544		-58.53796	
79.17249	8944.005		-59.08282	
79.22649	8940.396		-59.59114	
79.28047	8936.711		-60.06384	
79.33447	8932.962		-60.50206	
79.38846	8929.165		-60.90678	
79.44244	8925.346		-61.27896	
79.49644	8921.53		-61.61965	
79.55043	8917.752		-61.92972	
79.60442	8914.032		-62.21005	
79.65841	8910.37		-62.46161	
79.71239	8906.742		-62.68517	
79.76639	8903.129		-62.88152	
79.82038	8899.521		-63.05131	
79.87437	8895.926		-63.19512	
79.92836	8892.356		-63.31359	
79.98235	8888.83		-63.40728	
80.03634	8885.347		-63.47679	
80.09033	8881.916		-63.52264	
80.14432	8878.553		-63.54533	
80.19831	8875.255		-63.54541	
80.2523	8872.011		-63.5235	
80.30629	8868.812		-63.48037	
80.36028	8865.65		-63.41695	
80.41427	8862.51		-63.33443	
80.46826	8859.367		-63.23417	
80.52225	8856.185		-63.11779	
80.57624	8852.911		-62.98706	
80.63023	8849.518		-62.84392	
80.68422	8846.007		-62.69046	
80.73821	8842.397		-62.52879	
80.7922	8838.708		-62.36122	
80.84619	8834.948		-62.19003	
80.90018	8831.137		-62.01764	
80.95417	8827.293		-61.84648	
81.00816	8823.447		-61.67887	
81.06215	8819.637		-61.51725	
81.11614	8815.894		-61.3639	
81.17014	8812.232		-61.22109	
81.22412	8808.649		-61.09093	
81.27811	8805.124		-60.97533	
81.3321	8801.637		-60.87607	
81.38609	8798.165		-60.7947	
81.44009	8794.688		-60.73265	
81.49407	8791.202		-60.69111	
81.54807	8787.726		-60.67107	
81.60205	8784.278		-60.67334	
81.65604	8780.87		-60.69857	
81.71004	8777.515		-60.74723	
81.76402	8774.233		-60.81961	
81.81802	8771.054		-60.91592	
81.872	8768.001		-61.03621	
81.92599	8765.087		-61.18055	
81.97999	8762.304		-61.34889	
82.03397	8759.63		-61.54108	
82.08797	8757.047		-61.75695	
82.14195	8754.529		-61.99609	
82.19595	8752.027		-62.25808	
82.24994	8749.502		-62.54229	
82.30392	8746.93		-62.84809	
82.35792	8744.303		-63.17506	
82.4119	8741.622		-63.52272	
82.4659	8738.889		-63.89098	
82.51989	8736.101		-64.27978	
82.57388	8733.26		-64.68922	
82.62787	8730.39		-65.11984	
82.68185	8727.524		-65.57216	
82.73585	8724.688		-66.04719	
82.78984	8721.883		-66.54598	
82.84383	8719.096		-67.06985	
82.89782	8716.295		-67.62048	
82.95181	8713.44		-68.19952	
83.0058	8710.488		-68.80859	
83.05979	8707.399		-69.44968	
83.11378	8704.153		-70.12432	
83.16777	8700.745		-70.8345	
83.22176	8697.175		-71.5818	
83.27575	8693.451		-72.36777	
83.32974	8689.581		-73.19406	
83.38373	8685.572		-74.06174	
83.43772	8681.438		-74.97215	
83.49171	8677.203		-75.92606	
83.5457	8672.895		-76.92406	
83.59969	8668.523		-77.9669	
83.65368	8664.087		-79.05457	
83.70767	8659.57		-80.18739	
83.76167	8654.969		-81.36503	
83.81565	8650.29		-82.58688	
83.86964	8645.539		-83.85269	
83.92363	8640.722		-85.16126	
83.97762	8635.841		-86.51193	
84.03162	8630.915		-87.90327	
84.0856	8625.975		-89.3336	
84.1396	8621.043		-90.80163	
84.19358	8616.135		-92.30503	
84.24757	8611.252		-93.84212	
84.30157	8606.396		-95.41048	
84.35555	8601.567		-97.00751	
84.40955	8596.766		-98.6312	
84.46353	8591.978		-100.2785	
84.51752	8587.176		-101.9473	
84.57152	8582.322		-103.6346	
84.6255	8577.385		-105.3374	
84.6795	8572.349		-107.0535	
84.73348	8567.219		-108.7797	
84.78748	8562.007		-110.5139	
84.84147	8556.726		-112.2533	
84.89545	8551.388		-113.9953	
84.94945	8545.993		-115.7379	
85.00343	8540.522		-117.4785	
85.05743	8534.945		-119.2154	
85.11142	8529.232		-120.9464	
85.16541	8523.353		-122.6692	
85.2194	8517.277		-124.3828	
85.27338	8510.996		-126.085	
85.32738	8504.493		-127.775	
85.38137	8497.768		-129.4511	
85.43536	8490.823		-131.1118	
85.48935	8483.673		-132.7564	
85.54333	8476.343		-134.3833	
85.59733	8468.864		-135.9922	
85.65132	8461.264		-137.5819	
85.70531	8453.558		-139.1516	
85.7593	8445.743		-140.7012	
85.81329	8437.826		-142.2296	
85.86728	8429.796		-143.7369	
85.92127	8421.639		-145.2223	
85.97526	8413.338		-146.685	
86.02925	8404.883		-148.125	
86.08324	8396.248		-149.5411	
86.13723	8387.418		-150.933	
86.19122	8378.387		-152.2998	
86.24521	8369.162		-153.6406	
86.2992	8359.742		-154.955	
86.35319	8350.15		-156.2419	
86.40718	8340.413		-157.5009	
86.46117	8330.589		-158.7312	
86.51516	8320.722		-159.9318	
86.56915	8310.85		-161.1024	
86.62315	8300.989		-162.2421	
86.67713	8291.155		-163.35	
86.73112	8281.343		-164.4259	
86.78511	8271.546		-165.4686	
86.8391	8261.743		-166.478	
86.8931	8251.925		-167.4531	
86.94708	8242.082		-168.3934	
87.00108	8232.213		-169.2985	
87.05506	8222.326		-170.1678	
87.10905	8212.435		-171.0012	
87.16305	8202.563		-171.7982	
87.21703	8192.738		-172.5588	
87.27103	8182.975		-173.2833	
87.32501	8173.299		-173.9718	
87.37901	8163.723		-174.625	
87.433	8154.252		-175.2432	
87.48698	8144.881		-175.827	
87.54098	8135.588		-176.3774	
87.59496	8126.365		-176.895	
87.64896	8117.192		-177.3811	
87.70295	8108.051		-177.8366	
87.75694	8098.918		-178.2628	
87.81093	8089.768		-178.6612	
87.86491	8080.573		-179.0328	
87.91891	8071.317		-179.3794	
87.9729	8062.011		-179.7023	
88.02689	8052.663		-180.003	
88.08088	8043.266		-180.2831	
88.13486	8033.825		-180.5442	
88.18886	8024.343		-180.7878	
88.24285	8014.831		-181.0153	
88.29684	8005.288		-181.2282	
88.35083	7995.7		-181.428	
88.40482	7986.048		-181.6159	
88.45881	7976.317		-181.7931	
88.5128	7966.501		-181.9607	
88.56679	7956.607		-182.1195	
88.62078	7946.646		-182.2704	
88.67477	7936.64		-182.4139	
88.72876	7926.595		-182.5507	
88.78275	7916.523		-182.6812	
88.83674	7906.434		-182.8057	
88.89073	7896.338		-182.9246	
88.94472	7886.242		-183.0378	
88.99871	7876.152		-183.1456	
89.0527	7866.063		-183.2479	
89.10669	7855.978		-183.3444	
89.16068	7845.871		-183.4348	
89.21467	7835.732		-183.5188	
89.26866	7825.543		-183.5957	
89.32265	7815.307		-183.665	
89.37664	7805.018		-183.726	
89.43063	7794.682		-183.7781	
89.48462	7784.31		-183.8206	
89.53861	7773.927		-183.8531	
89.59261	7763.554		-183.875	
89.64659	7753.217		-183.886	
89.70058	7742.929		-183.8858	
89.75457	7732.701		-183.8742	
89.80856	7722.511		-183.8513	
89.86256	7712.341		-183.8171	
89.91654	7702.177		-183.7719	
89.97054	7692.022		-183.7162	
90.02453	7681.867		-183.6503	
90.07851	7671.704		-183.5749	
90.13251	7661.52		-183.491	
90.18649	7651.329		-183.3993	
90.24049	7641.14		-183.301	
90.29448	7630.98		-183.1975	
90.34846	7620.863		-183.0901	
90.40246	7610.807		-182.9803	
90.45644	7600.824		-182.8697	
90.51044	7590.926		-182.7599	
90.56443	7581.117		-182.6524	
90.61842	7571.398		-182.5485	
90.67241	7561.752		-182.4493	
90.72639	7552.169		-182.3561	
90.78039	7542.624		-182.2698	
90.83438	7533.088		-182.1912	
90.88837	7523.525		-182.1211	
90.94236	7513.915		-182.06	
90.99635	7504.257		-182.0085	
91.05034	7494.576		-181.9672	
91.10433	7484.897		-181.9364	
91.15832	7475.247		-181.9164	
91.21231	7465.638		-181.9075	
91.2663	7456.088		-181.9095	
91.32029	7446.595		-181.9223	
91.37428	7437.138		-181.9455	
91.42827	7427.7		-181.9787	
91.48226	7418.267		-182.0215	
91.53625	7408.84		-182.0732	
91.59024	7399.412		-182.1333	
91.64423	7389.983		-182.2009	
91.69822	7380.556		-182.2753	
91.75221	7371.124		-182.3557	
91.8062	7361.7		-182.4412	
91.86019	7352.295		-182.5313	
91.91418	7342.911		-182.6251	
91.96817	7333.537		-182.7221	
92.02216	7324.14		-182.8218	
92.07615	7314.703		-182.9237	
92.13014	7305.207		-183.0276	
92.18414	7295.646		-183.1333	
92.23812	7286.006		-183.2405	
92.29211	7276.271		-183.3492	
92.3461	7266.434		-183.4591	
92.40009	7256.498		-183.5701	
92.45409	7246.479		-183.6584	
92.50807	7236.403		-183.7324	
92.56207	7226.273		-183.7971	
92.61605	7216.098		-183.8568	
92.67004	7205.888		-183.9148	
92.72404	7195.668		-183.9731	
92.77802	7185.432		-184.0328	
92.83202	7175.155		-184.0945	
92.886	7164.804		-184.1584	
92.93999	7154.355		-184.2245	
92.99399	7143.799		-184.2927	
93.04797	7133.151		-184.3627	
93.10197	7122.427		-184.4343	
93.15595	7111.664		-184.5072	
93.20995	7100.889		-184.581	
93.26394	7090.153		-184.6557	
93.31792	7079.492		-184.7307	
93.37192	7068.937		-184.806	
93.42591	7058.497		-184.8811	
93.4799	7048.185		-184.9559	
93.53389	7037.981		-185.0302	
93.58788	7027.859		-185.1037	
93.64187	7017.782		-185.1761	
93.69586	7007.714		-185.2473	
93.74985	6997.643		-185.317	
93.80384	6987.594		-185.385	
93.85783	6977.595		-185.4513	
93.91182	6967.649		-185.5156	
93.96581	6957.736		-185.5778	
94.0198	6947.844		-185.6377	
94.07379	6938.135		-185.6953	
94.12778	6928.451		-185.7504	
94.18177	6918.8		-185.8029	
94.23576	6909.177		-185.8528	
94.28975	6899.575		-185.9001	
94.34374	6889.985		-185.9445	
94.39773	6880.406		-185.9862	
94.45172	6870.83		-186.0251	
94.50571	6861.257		-186.0612	
94.5597	6851.688		-186.0944	
94.61369	6842.122		-186.1249	
94.66768	6832.559		-186.1525	
94.72167	6822.997		-186.1773	
94.77567	6813.436		-186.1994	
94.82965	6803.874		-186.2187	
94.88364	6794.309		-186.2354	
94.93763	6784.743		-186.2495	
94.99162	6775.176		-186.2611	
