T[Â°C]	350nm [counts / mm]	S.D.	First derivative	S.D. of first derivative
20.00113	3053.874		-47.68059	
20.05508	3051.143		-47.56171	
20.10903	3048.416		-47.4437	
20.16298	3045.696		-47.32658	
20.21693	3042.982		-47.2104	
20.27087	3040.274		-47.09518	
20.32482	3037.572		-46.98095	
20.37877	3034.875		-46.86773	
20.43272	3032.184		-46.75557	
20.48667	3029.497		-46.64447	
20.54062	3026.814		-46.53446	
20.59456	3024.135		-46.42556	
20.64851	3021.458		-46.31779	
20.70246	3018.784		-46.21115	
20.75641	3016.111		-46.10564	
20.81036	3013.438		-46.00128	
20.8643	3010.765		-45.89806	
20.91825	3008.095		-45.79596	
20.9722	3005.446		-45.69498	
21.02615	3002.889		-45.59509	
21.0801	3000.353		-45.49627	
21.13404	2997.844		-45.39846	
21.18799	2995.368		-45.30164	
21.24194	2992.927		-45.20576	
21.29589	2990.522		-45.11075	
21.34984	2988.152		-45.01657	
21.40379	2985.817		-44.92315	
21.45774	2983.514		-44.83041	
21.51168	2981.241		-44.73829	
21.56563	2978.993		-44.64671	
21.61958	2976.766		-44.55559	
21.67353	2974.555		-44.46483	
21.72748	2972.349		-44.37436	
21.78142	2970.14		-44.28405	
21.83537	2967.917		-44.19382	
21.88932	2965.677		-44.10355	
21.94327	2963.421		-44.0131	
21.99722	2961.157		-43.92234	
22.05116	2958.895		-43.83114	
22.10511	2956.653		-43.73935	
22.15906	2954.441		-43.64682	
22.21301	2952.257		-43.55344	
22.26696	2950.094		-43.45913	
22.32091	2947.947		-43.36394	
22.37486	2945.808		-43.26807	
22.4288	2943.667		-43.17205	
22.48275	2941.512		-43.07682	
22.5367	2939.332		-42.98391	
22.59065	2937.123		-42.89523	
22.6446	2934.884		-42.84076	
22.69854	2932.622		-42.78901	
22.75249	2930.343		-42.74014	
22.80644	2928.053		-42.69433	
22.86039	2925.761		-42.65174	
22.91434	2923.468		-42.61253	
22.96828	2921.169		-42.57678	
23.02223	2918.852		-42.54455	
23.07618	2916.509		-42.51586	
23.13013	2914.136		-42.49063	
23.18408	2911.738		-42.46877	
23.23803	2909.319		-42.45006	
23.29197	2906.885		-42.43426	
23.34592	2904.442		-42.42103	
23.39987	2901.99		-42.40996	
23.45382	2899.53		-42.40063	
23.50777	2897.065		-42.39256	
23.56171	2894.601		-42.38533	
23.61566	2892.145		-42.37854	
23.66961	2889.707		-42.37186	
23.72356	2887.298		-42.36503	
23.77751	2884.929		-42.35785	
23.83146	2882.605		-42.35019	
23.8854	2880.323		-42.34196	
23.93935	2878.079		-42.33318	
23.9933	2875.859		-42.32385	
24.04725	2873.652		-42.31406	
24.1012	2871.446		-42.3039	
24.15515	2869.227		-42.2935	
24.20909	2866.99		-42.28299	
24.26304	2864.739		-42.27246	
24.31699	2862.48		-42.26202	
24.37094	2860.223		-42.2517	
24.42489	2857.975		-42.24157	
24.47883	2855.74		-42.23166	
24.53278	2853.516		-42.22198	
24.58673	2851.3		-42.21253	
24.64068	2849.083		-42.20329	
24.69463	2846.859		-42.19423	
24.74858	2844.624		-42.18531	
24.80252	2842.376		-42.17653	
24.85647	2840.114		-42.16792	
24.91042	2837.838		-42.15955	
24.96437	2835.547		-42.1515	
25.01832	2833.24		-42.14385	
25.07226	2830.92		-42.13673	
25.12621	2828.596		-42.13023	
25.18016	2826.281		-42.12452	
25.23411	2823.988		-42.11974	
25.28806	2821.726		-42.11604	
25.342	2819.496		-42.11352	
25.39595	2817.298		-42.11224	
25.4499	2815.128		-42.11216	
25.50385	2812.988		-42.1132	
25.5578	2810.878		-42.11519	
25.61175	2808.787		-42.1179	
25.6657	2806.7		-42.12109	
25.71964	2804.6		-42.1245	
25.77359	2802.471		-42.12785	
25.82754	2800.302		-42.13089	
25.88149	2798.09		-42.13339	
25.93544	2795.844		-42.1352	
25.98938	2793.578		-42.1362	
26.04333	2791.302		-42.13637	
26.09728	2789.023		-42.13574	
26.15123	2786.742		-42.1344	
26.20518	2784.458		-42.13247	
26.25912	2782.166		-42.13012	
26.31307	2779.857		-42.12746	
26.36702	2777.53		-42.12463	
26.42097	2775.182		-42.12172	
26.47492	2772.805		-42.11877	
26.52887	2770.398		-42.11581	
26.58282	2767.961		-42.11282	
26.63676	2765.497		-42.10971	
26.69071	2763.013		-42.10638	
26.74466	2760.52		-42.1027	
26.79861	2758.033		-42.09851	
26.85256	2755.571		-42.0937	
26.9065	2753.146		-42.08814	
26.96045	2750.764		-42.08172	
27.0144	2748.422		-42.07439	
27.06835	2746.113		-42.06608	
27.1223	2743.834		-42.0568	
27.17624	2741.58		-42.04657	
27.23019	2739.354		-42.03548	
27.28414	2737.152		-42.02365	
27.33809	2734.963		-42.01123	
27.39204	2732.771		-41.99833	
27.44599	2730.568		-41.98505	
27.49993	2728.35		-41.97143	
27.55388	2726.116		-41.95746	
27.60783	2723.874		-41.9431	
27.66178	2721.633		-41.92823	
27.71573	2719.399		-41.91277	
27.76967	2717.171		-41.89657	
27.82362	2714.944		-41.87946	
27.87757	2712.712		-41.86128	
27.93152	2710.476		-41.84183	
27.98547	2708.236		-41.82096	
28.03942	2705.994		-41.79856	
28.09336	2703.755		-41.77454	
28.14731	2701.521		-41.74889	
28.20126	2699.293		-41.72164	
28.25521	2697.072		-41.69291	
28.30916	2694.859		-41.66289	
28.36311	2692.65		-41.63182	
28.41705	2690.44		-41.60001	
28.471	2688.229		-41.56775	
28.52495	2686.018		-41.53539	
28.5789	2683.807		-41.50322	
28.63285	2681.598		-41.47151	
28.68679	2679.392		-41.44044	
28.74074	2677.191		-41.41018	
28.79469	2674.996		-41.38083	
28.84864	2672.81		-41.35241	
28.90259	2670.636		-41.32493	
28.95654	2668.475		-41.29833	
29.01048	2666.327		-41.2725	
29.06443	2664.187		-41.24728	
29.11838	2662.044		-41.22252	
29.17233	2659.89		-41.19801	
29.22628	2657.719		-41.17354	
29.28023	2655.524		-41.14893	
29.33417	2653.3		-41.12402	
29.38812	2651.044		-41.09869	
29.44207	2648.75		-41.07282	
29.49602	2646.416		-41.04634	
29.54997	2644.047		-41.0192	
29.60391	2641.655		-40.99137	
29.65786	2639.253		-40.96286	
29.71181	2636.86		-40.93369	
29.76576	2634.489		-40.90392	
29.81971	2632.145		-40.87354	
29.87366	2629.831		-40.84252	
29.9276	2627.545		-40.81083	
29.98155	2625.288		-40.77837	
30.0355	2623.056		-40.74509	
30.08945	2620.847		-40.7109	
30.1434	2618.658		-40.67576	
30.19734	2616.486		-40.63964	
30.25129	2614.328		-40.60253	
30.30524	2612.174		-40.56449	
30.35919	2610.02		-40.52563	
30.41314	2607.869		-40.48615	
30.46708	2605.723		-40.44632	
30.52103	2603.583		-40.40649	
30.57498	2601.452		-40.36708	
30.62893	2599.33		-40.32853	
30.68288	2597.215		-40.29132	
30.73683	2595.103		-40.2559	
30.79078	2592.987		-40.22269	
30.84472	2590.862		-40.19209	
30.89867	2588.727		-40.16438	
30.95262	2586.576		-40.13982	
31.00657	2584.411		-40.11855	
31.06052	2582.231		-40.10061	
31.11446	2580.035		-40.08599	
31.16841	2577.826		-40.07458	
31.22236	2575.61		-40.06622	
31.27631	2573.396		-40.06073	
31.33026	2571.189		-40.0579	
31.3842	2568.994		-40.05753	
31.43815	2566.813		-40.05941	
31.4921	2564.652		-40.06337	
31.54605	2562.511		-40.06921	
31.6	2560.389		-40.07677	
31.65395	2558.286		-40.08585	
31.70789	2556.208		-40.09626	
31.76184	2554.161		-40.10778	
31.81579	2552.14		-40.1202	
31.86974	2550.136		-40.13323	
31.92369	2548.139		-40.1466	
31.97763	2546.142		-40.15998	
32.03158	2544.141		-40.17303	
32.08553	2542.13		-40.18541	
32.13948	2540.11		-40.19678	
32.19343	2538.083		-40.20683	
32.24738	2536.05		-40.21527	
32.30132	2534.009		-40.22182	
32.35527	2531.96		-40.22624	
32.40922	2529.901		-40.22836	
32.46317	2527.824		-40.22806	
32.51712	2525.724		-40.22533	
32.57106	2523.598		-40.22025	
32.62502	2521.442		-40.21291	
32.67896	2519.251		-40.20349	
32.73291	2517.02		-40.1922	
32.78686	2514.75		-40.17927	
32.84081	2512.44		-40.16494	
32.89476	2510.095		-40.14948	
32.9487	2507.718		-40.13313	
33.00265	2505.314		-40.11614	
33.0566	2502.891		-40.09872	
33.11055	2500.458		-40.08104	
33.1645	2498.028		-40.06321	
33.21844	2495.614		-40.04532	
33.27239	2493.225		-40.02738	
33.32634	2490.866		-40.00941	
33.38029	2488.537		-39.99137	
33.43424	2486.237		-39.97321	
33.48819	2483.962		-39.95484	
33.54213	2481.709		-39.93615	
33.59608	2479.474		-39.91699	
33.65003	2477.254		-39.89721	
33.70398	2475.048		-39.8766	
33.75793	2472.855		-39.85497	
33.81187	2470.673		-39.83211	
33.86582	2468.498		-39.8078	
33.91977	2466.328		-39.78186	
33.97372	2464.171		-39.7541	
34.02767	2462.033		-39.72439	
34.08162	2459.919		-39.69259	
34.13556	2457.829		-39.65862	
34.18951	2455.767		-39.62243	
34.24346	2453.732		-39.58401	
34.29741	2451.721		-39.54341	
34.35136	2449.731		-39.5007	
34.4053	2447.755		-39.45599	
34.45925	2445.784		-39.4095	
34.5132	2443.814		-39.36149	
34.56715	2441.842		-39.31228	
34.6211	2439.865		-39.26223	
34.67505	2437.878		-39.21173	
34.72899	2435.876		-39.16121	
34.78294	2433.855		-39.11115	
34.83689	2431.815		-39.06202	
34.89084	2429.76		-39.01432	
34.94479	2427.698		-38.96857	
34.99873	2425.633		-38.92526	
35.05268	2423.561		-38.88486	
35.10663	2421.485		-38.84784	
35.16058	2419.411		-38.81457	
35.21453	2417.344		-38.78536	
35.26847	2415.288		-38.76045	
35.32243	2413.243		-38.73996	
35.37637	2411.205		-38.72393	
35.43032	2409.165		-38.7123	
35.48427	2407.116		-38.70493	
35.53822	2405.051		-38.7016	
35.59217	2402.962		-38.70204	
35.64611	2400.849		-38.70589	
35.70006	2398.715		-38.71277	
35.75401	2396.573		-38.72223	
35.80796	2394.432		-38.73379	
35.86191	2392.293		-38.74695	
35.91586	2390.16		-38.76118	
35.9698	2388.033		-38.77596	
36.02375	2385.912		-38.79078	
36.0777	2383.801		-38.80517	
36.13165	2381.695		-38.8187	
36.1856	2379.595		-38.83099	
36.23954	2377.502		-38.84167	
36.29349	2375.42		-38.85043	
36.34744	2373.351		-38.85696	
36.40139	2371.289		-38.86102	
36.45534	2369.224		-38.86239	
36.50928	2367.152		-38.8609	
36.56323	2365.07		-38.85646	
36.61718	2362.98		-38.849	
36.67113	2360.883		-38.83852	
36.72508	2358.78		-38.82508	
36.77903	2356.674		-38.80877	
36.83297	2354.568		-38.78972	
36.88692	2352.466		-38.76812	
36.94087	2350.367		-38.74417	
36.99482	2348.263		-38.71809	
37.04877	2346.143		-38.69011	
37.10271	2344.002		-38.6605	
37.15666	2341.845		-38.62948	
37.21061	2339.675		-38.59729	
37.26456	2337.497		-38.56413	
37.31851	2335.309		-38.53018	
37.37246	2333.112		-38.49561	
37.4264	2330.909		-38.46058	
37.48035	2328.706		-38.42524	
37.5343	2326.503		-38.38973	
37.58825	2324.302		-38.35415	
37.6422	2322.101		-38.3186	
37.69614	2319.904		-38.28319	
37.7501	2317.712		-38.24797	
37.80404	2315.535		-38.21297	
37.85799	2313.383		-38.17822	
37.91194	2311.268		-38.14369	
37.96589	2309.191		-38.10938	
38.01984	2307.154		-38.07528	
38.07378	2305.155		-38.04139	
38.12773	2303.183		-38.00769	
38.18168	2301.23		-37.97423	
38.23563	2299.292		-37.94103	
38.28958	2297.373		-37.90816	
38.34352	2295.471		-37.8757	
38.39747	2293.588		-37.84371	
38.45142	2291.718		-37.81229	
38.50537	2289.859		-37.78155	
38.55932	2288.004		-37.75159	
38.61327	2286.142		-37.72256	
38.66721	2284.262		-37.69459	
38.72116	2282.353		-37.66782	
38.77511	2280.41		-37.64242	
38.82906	2278.435		-37.61851	
38.88301	2276.436		-37.59621	
38.93695	2274.421		-37.5756	
38.9909	2272.394		-37.55673	
39.04485	2270.355		-37.53963	
39.0988	2268.305		-37.52428	
39.15275	2266.247		-37.51063	
39.2067	2264.184		-37.49861	
39.26064	2262.118		-37.48814	
39.31459	2260.051		-37.47911	
39.36854	2257.989		-37.47149	
39.42249	2255.933		-37.46517	
39.47644	2253.887		-37.46009	
39.53038	2251.854		-37.45618	
39.58433	2249.836		-37.45331	
39.63828	2247.834		-37.45137	
39.69223	2245.845		-37.45023	
39.74618	2243.867		-37.44976	
39.80013	2241.896		-37.4498	
39.85407	2239.927		-37.45016	
39.90802	2237.958		-37.45067	
39.96197	2235.984		-37.45114	
40.01592	2234.004		-37.4514	
40.06987	2232.017		-37.45125	
40.12381	2230.024		-37.45049	
40.17776	2228.024		-37.44893	
40.23171	2226.016		-37.44637	
40.28566	2223.999		-37.4427	
40.33961	2221.971		-37.4378	
40.39355	2219.928		-37.43162	
40.44751	2217.868		-37.42413	
40.50145	2215.787		-37.41531	
40.5554	2213.687		-37.40514	
40.60935	2211.573		-37.39363	
40.6633	2209.451		-37.38078	
40.71725	2207.324		-37.36661	
40.77119	2205.189		-37.35117	
40.82514	2203.045		-37.33452	
40.87909	2200.893		-37.31674	
40.93304	2198.737		-37.29788	
40.98699	2196.58		-37.27797	
41.04094	2194.432		-37.25703	
41.09488	2192.303		-37.23507	
41.14883	2190.2		-37.21206	
41.20278	2188.126		-37.18798	
41.25673	2186.079		-37.16282	
41.31068	2184.062		-37.13656	
41.36462	2182.072		-37.10924	
41.41857	2180.106		-37.08091	
41.47252	2178.161		-37.05162	
41.52647	2176.234		-37.02144	
41.58042	2174.317		-36.99045	
41.63437	2172.406		-36.95871	
41.68831	2170.497		-36.92632	
41.74226	2168.594		-36.8934	
41.79621	2166.692		-36.86007	
41.85016	2164.788		-36.82648	
41.90411	2162.88		-36.79277	
41.95805	2160.964		-36.75907	
42.012	2159.037		-36.72548	
42.06595	2157.098		-36.69206	
42.1199	2155.15		-36.65888	
42.17385	2153.199		-36.62598	
42.22779	2151.251		-36.59338	
42.28174	2149.309		-36.5611	
42.33569	2147.374		-36.52915	
42.38964	2145.445		-36.49757	
42.44359	2143.519		-36.4664	
42.49754	2141.587		-36.43565	
42.55148	2139.642		-36.40538	
42.60543	2137.678		-36.37563	
42.65938	2135.697		-36.34647	
42.71333	2133.701		-36.31798	
42.76728	2131.698		-36.29025	
42.82122	2129.691		-36.26338	
42.87517	2127.683		-36.23745	
42.92912	2125.678		-36.21255	
42.98307	2123.679		-36.18874	
43.03702	2121.689		-36.16603	
43.09097	2119.715		-36.14444	
43.14491	2117.768		-36.12392	
43.19886	2115.853		-36.10445	
43.25281	2113.967		-36.08595	
43.30676	2112.104		-36.06831	
43.36071	2110.254		-36.05145	
43.41465	2108.407		-36.03525	
43.46861	2106.551		-36.0196	
43.52255	2104.676		-36.00442	
43.5765	2102.773		-35.98959	
43.63045	2100.844		-35.97502	
43.68439	2098.895		-35.96066	
43.73835	2096.93		-35.94646	
43.79229	2094.954		-35.93244	
43.84624	2092.975		-35.91862	
43.90019	2090.996		-35.90506	
43.95414	2089.018		-35.89183	
44.00809	2087.038		-35.879	
44.06203	2085.056		-35.86665	
44.11598	2083.068		-35.85482	
44.16993	2081.074		-35.84358	
44.22388	2079.073		-35.83294	
44.27783	2077.065		-35.82293	
44.33178	2075.053		-35.8135	
44.38572	2073.034		-35.80462	
44.43967	2071.009		-35.79624	
44.49362	2068.983		-35.78832	
44.54757	2066.966		-35.78083	
44.60152	2064.969		-35.77378	
44.65546	2062.998		-35.76721	
44.70941	2061.059		-35.7612	
44.76336	2059.156		-35.75585	
44.81731	2057.288		-35.75124	
44.87126	2055.453		-35.74748	
44.92521	2053.648		-35.74465	
44.97915	2051.859		-35.74283	
45.0331	2050.072		-35.74208	
45.08705	2048.274		-35.74247	
45.141	2046.46		-35.74403	
45.19495	2044.627		-35.74679	
45.24889	2042.773		-35.75075	
45.30284	2040.899		-35.75587	
45.35679	2039.011		-35.76209	
45.41074	2037.118		-35.76932	
45.46469	2035.222		-35.77746	
45.51863	2033.325		-35.78639	
45.57258	2031.425		-35.79599	
45.62653	2029.521		-35.80611	
45.68048	2027.615		-35.81664	
45.73443	2025.7		-35.82744	
45.78838	2023.773		-35.83835	
45.84232	2021.832		-35.84923	
45.89627	2019.873		-35.85991	
45.95022	2017.891		-35.87023	
46.00417	2015.888		-35.88003	
46.05812	2013.869		-35.88914	
46.11206	2011.848		-35.89742	
46.16602	2009.839		-35.90473	
46.21996	2007.851		-35.91092	
46.27391	2005.889		-35.91584	
46.32786	2003.958		-35.91934	
46.38181	2002.056		-35.92126	
46.43576	2000.174		-35.92142	
46.4897	1998.306		-35.91964	
46.54365	1996.447		-35.91578	
46.5976	1994.593		-35.90968	
46.65155	1992.736		-35.90123	
46.7055	1990.868		-35.89034	
46.75945	1988.987		-35.87695	
46.81339	1987.086		-35.86101	
46.86734	1985.164		-35.84252	
46.92129	1983.217		-35.82152	
46.97524	1981.245		-35.7981	
47.02919	1979.253		-35.77243	
47.08313	1977.243		-35.74474	
47.13708	1975.22		-35.71528	
47.19103	1973.186		-35.68436	
47.24498	1971.142		-35.65226	
47.29893	1969.087		-35.61929	
47.35287	1967.027		-35.58573	
47.40682	1964.964		-35.55183	
47.46077	1962.899		-35.51784	
47.51472	1960.83		-35.48394	
47.56867	1958.759		-35.45032	
47.62262	1956.691		-35.41711	
47.67656	1954.628		-35.38441	
47.73051	1952.575		-35.35231	
47.78446	1950.541		-35.32082	
47.83841	1948.534		-35.28999	
47.89236	1946.562		-35.25979	
47.9463	1944.621		-35.23024	
48.00025	1942.706		-35.20133	
48.0542	1940.814		-35.17307	
48.10815	1938.946		-35.14548	
48.1621	1937.106		-35.1186	
48.21605	1935.291		-35.09248	
48.26999	1933.499		-35.06717	
48.32394	1931.727		-35.0427	
48.37789	1929.971		-35.01911	
48.43184	1928.228		-34.99641	
48.48579	1926.494		-34.9746	
48.53973	1924.765		-34.95371	
48.59369	1923.034		-34.93377	
48.64763	1921.295		-34.91479	
48.70158	1919.546		-34.89681	
48.75553	1917.785		-34.87981	
48.80947	1916.013		-34.86379	
48.86343	1914.228		-34.84877	
48.91737	1912.433		-34.83474	
48.97132	1910.636		-34.82175	
49.02527	1908.84		-34.80985	
49.07922	1907.046		-34.79913	
49.13317	1905.251		-34.78972	
49.18711	1903.452		-34.78174	
49.24106	1901.647		-34.77534	
49.29501	1899.835		-34.77067	
49.34896	1898.017		-34.76785	
49.40291	1896.195		-34.76697	
49.45686	1894.366		-34.7681	
49.5108	1892.524		-34.77128	
49.56475	1890.663		-34.77649	
49.6187	1888.777		-34.78368	
49.67265	1886.865		-34.79274	
49.7266	1884.928		-34.80347	
49.78054	1882.97		-34.81565	
49.83449	1881		-34.82898	
49.88844	1879.028		-34.84314	
49.94239	1877.06		-34.85779	
49.99634	1875.103		-34.87256	
50.05029	1873.157		-34.8871	
50.10423	1871.226		-34.90108	
50.15818	1869.31		-34.91418	
50.21213	1867.407		-34.92613	
50.26608	1865.515		-34.93664	
50.32003	1863.631		-34.94546	
50.37397	1861.745		-34.95236	
50.42792	1859.851		-34.95714	
50.48187	1857.941		-34.9596	
50.53582	1856.015		-34.95957	
50.58977	1854.07		-34.95695	
50.64371	1852.108		-34.95169	
50.69766	1850.138		-34.94378	
50.75161	1848.165		-34.93322	
50.80556	1846.194		-34.92009	
50.85951	1844.232		-34.90447	
50.91346	1842.282		-34.88647	
50.9674	1840.348		-34.86624	
51.02135	1838.432		-34.8439	
51.0753	1836.528		-34.81961	
51.12925	1834.625		-34.79351	
51.1832	1832.712		-34.76579	
51.23714	1830.787		-34.7366	
51.2911	1828.847		-34.70613	
51.34504	1826.889		-34.67458	
51.39899	1824.915		-34.64215	
51.45294	1822.932		-34.60904	
51.50689	1820.952		-34.57548	
51.56084	1818.984		-34.54168	
51.61478	1817.039		-34.50789	
51.66873	1815.125		-34.47432	
51.72268	1813.247		-34.44117	
51.77663	1811.407		-34.40862	
51.83058	1809.601		-34.37676	
51.88453	1807.824		-34.3457	
51.93847	1806.075		-34.31548	
51.99242	1804.35		-34.28607	
52.04637	1802.638		-34.25745	
52.10032	1800.927		-34.22954	
52.15427	1799.202		-34.20229	
52.20821	1797.458		-34.17562	
52.26216	1795.694		-34.14949	
52.31611	1793.919		-34.12386	
52.37006	1792.141		-34.09867	
52.42401	1790.368		-34.07394	
52.47795	1788.607		-34.04963	
52.5319	1786.862		-34.02575	
52.58585	1785.129		-34.00231	
52.6398	1783.398		-33.97937	
52.69375	1781.656		-33.957	
52.7477	1779.892		-33.93527	
52.80164	1778.104		-33.91424	
52.85559	1776.295		-33.89397	
52.90954	1774.47		-33.8745	
52.96349	1772.636		-33.85583	
53.01744	1770.801		-33.83796	
53.07138	1768.974		-33.82085	
53.12533	1767.156		-33.80443	
53.17928	1765.343		-33.78864	
53.23323	1763.539		-33.77343	
53.28718	1761.741		-33.75875	
53.34113	1759.941		-33.74456	
53.39507	1758.135		-33.73085	
53.44902	1756.32		-33.71764	
53.50297	1754.492		-33.70494	
53.55692	1752.652		-33.69279	
53.61087	1750.8		-33.6812	
53.66481	1748.936		-33.67019	
53.71877	1747.061		-33.65977	
53.77271	1745.172		-33.64995	
53.82666	1743.269		-33.64071	
53.88061	1741.357		-33.63201	
53.93456	1739.443		-33.62378	
53.98851	1737.535		-33.61594	
54.04245	1735.636		-33.60841	
54.0964	1733.749		-33.6011	
54.15035	1731.874		-33.59389	
54.2043	1730.003		-33.58672	
54.25825	1728.132		-33.57948	
54.31219	1726.261		-33.57209	
54.36614	1724.395		-33.56446	
54.42009	1722.533		-33.5565	
54.47404	1720.681		-33.54816	
54.52799	1718.839		-33.53937	
54.58194	1717.013		-33.5301	
54.63588	1715.205		-33.52034	
54.68983	1713.411		-33.51007	
54.74378	1711.627		-33.49932	
54.79773	1709.851		-33.48808	
54.85168	1708.076		-33.47639	
54.90562	1706.299		-33.46428	
54.95957	1704.518		-33.45178	
55.01352	1702.737		-33.43893	
55.06747	1700.959		-33.42578	
55.12142	1699.187		-33.41237	
55.17537	1697.42		-33.39874	
55.22931	1695.658		-33.38495	
55.28326	1693.901		-33.37109	
55.33721	1692.151		-33.35729	
55.39116	1690.41		-33.34371	
55.44511	1688.673		-33.33053	
55.49905	1686.939		-33.31795	
55.553	1685.208		-33.30617	
55.60695	1683.48		-33.29539	
55.6609	1681.755		-33.28579	
55.71485	1680.032		-33.27751	
55.7688	1678.308		-33.27065	
55.82274	1676.578		-33.26534	
55.87669	1674.841		-33.26165	
55.93064	1673.094		-33.25963	
55.98459	1671.331		-33.25931	
56.03854	1669.552		-33.2607	
56.09248	1667.762		-33.26379	
56.14643	1665.965		-33.26855	
56.20038	1664.163		-33.27493	
56.25433	1662.356		-33.28279	
56.30828	1660.549		-33.29203	
56.36222	1658.745		-33.30246	
56.41618	1656.946		-33.31393	
56.47012	1655.152		-33.32624	
56.52407	1653.362		-33.33916	
56.57802	1651.574		-33.35245	
56.63197	1649.783		-33.36583	
56.68592	1647.979		-33.37899	
56.73986	1646.155		-33.39159	
56.79381	1644.307		-33.40327	
56.84776	1642.436		-33.41368	
56.90171	1640.551		-33.42247	
56.95566	1638.664		-33.42928	
57.00961	1636.786		-33.43373	
57.06355	1634.928		-33.4355	
57.1175	1633.095		-33.43428	
57.17145	1631.286		-33.42979	
57.2254	1629.497		-33.42179	
57.27935	1627.729		-33.41008	
57.33329	1625.981		-33.39453	
57.38724	1624.249		-33.37508	
57.44119	1622.518		-33.3517	
57.49514	1620.776		-33.32446	
57.54909	1619.013		-33.29345	
57.60303	1617.218		-33.25881	
57.65698	1615.388		-33.22072	
57.71093	1613.528		-33.17936	
57.76488	1611.644		-33.13496	
57.81883	1609.744		-33.08779	
57.87278	1607.839		-33.03816	
57.92672	1605.936		-32.98643	
57.98067	1604.043		-32.93294	
58.03462	1602.163		-32.87806	
58.08857	1600.295		-32.82217	
58.14252	1598.437		-32.76566	
58.19646	1596.59		-32.70889	
58.25041	1594.754		-32.65221	
58.30436	1592.921		-32.59595	
58.35831	1591.081		-32.5404	
58.41226	1589.229		-32.48584	
58.46621	1587.363		-32.43253	
58.52015	1585.492		-32.38071	
58.5741	1583.627		-32.33061	
58.62805	1581.779		-32.28245	
58.682	1579.954		-32.23646	
58.73595	1578.159		-32.19283	
58.78989	1576.398		-32.15172	
58.84384	1574.674		-32.11327	
58.89779	1572.986		-32.07757	
58.95174	1571.33		-32.04466	
59.00569	1569.696		-32.01451	
59.05964	1568.08		-31.98706	
59.11358	1566.477		-31.96219	
59.16753	1564.88		-31.93977	
59.22148	1563.282		-31.91962	
59.27543	1561.686		-31.90151	
59.32938	1560.093		-31.88523	
59.38332	1558.506		-31.8705	
59.43727	1556.93		-31.85707	
59.49122	1555.369		-31.84467	
59.54517	1553.824		-31.83302	
59.59912	1552.291		-31.82187	
59.65306	1550.761		-31.81093	
59.70702	1549.226		-31.79996	
59.76096	1547.676		-31.78872	
59.81491	1546.105		-31.77696	
59.86886	1544.509		-31.76449	
59.92281	1542.893		-31.75112	
59.97676	1541.26		-31.73664	
60.0307	1539.609		-31.72087	
60.08465	1537.94		-31.70365	
60.1386	1536.255		-31.68483	
60.19255	1534.561		-31.6643	
60.2465	1532.864		-31.64194	
60.30045	1531.17		-31.61768	
60.35439	1529.48		-31.59143	
60.40834	1527.793		-31.56312	
60.46229	1526.101		-31.5327	
60.51624	1524.399		-31.50009	
60.57019	1522.681		-31.46525	
60.62413	1520.94		-31.42816	
60.67808	1519.165		-31.3888	
60.73203	1517.351		-31.3472	
60.78598	1515.502		-31.30338	
60.83993	1513.63		-31.25738	
60.89388	1511.745		-31.2092	
60.94782	1509.861		-31.15889	
61.00177	1507.984		-31.10649	
61.05572	1506.122		-31.05204	
61.10967	1504.274		-30.99561	
61.16362	1502.436		-30.93723	
61.21756	1500.602		-30.87693	
61.27151	1498.766		-30.81474	
61.32546	1496.925		-30.75063	
61.37941	1495.078		-30.68455	
61.43336	1493.227		-30.61644	
61.4873	1491.377		-30.54618	
61.54125	1489.534		-30.47364	
61.5952	1487.703		-30.39868	
61.64915	1485.889		-30.32114	
61.7031	1484.093		-30.24084	
61.75705	1482.317		-30.15757	
61.81099	1480.567		-30.07114	
61.86494	1478.852		-29.98136	
61.91889	1477.18		-29.888	
61.97284	1475.557		-29.79086	
62.02679	1473.982		-29.68967	
62.08073	1472.451		-29.58418	
62.13469	1470.957		-29.4741	
62.18863	1469.494		-29.35912	
62.24258	1468.055		-29.23892	
62.29653	1466.637		-29.1132	
62.35048	1465.236		-28.98167	
62.40443	1463.843		-28.84408	
62.45837	1462.454		-28.70023	
62.51232	1461.069		-28.54991	
62.56627	1459.692		-28.39293	
62.62022	1458.324		-28.22914	
62.67417	1456.965		-28.05839	
62.72812	1455.615		-27.88059	
62.78206	1454.267		-27.69564	
62.83601	1452.915		-27.50347	
62.88996	1451.55		-27.30402	
62.94391	1450.167		-27.09721	
62.99786	1448.764		-26.88301	
63.0518	1447.347		-26.66136	
63.10575	1445.919		-26.43218	
63.1597	1444.484		-26.19539	
63.21365	1443.042		-25.95084	
63.2676	1441.591		-25.69843	
63.32154	1440.129		-25.43798	
63.37549	1438.654		-25.16932	
63.42944	1437.17		-24.89222	
63.48339	1435.678		-24.60644	
63.53734	1434.184		-24.31175	
63.59129	1432.691		-24.00779	
63.64523	1431.2		-23.69418	
63.69918	1429.71		-23.37052	
63.75313	1428.215		-23.0363	
63.80708	1426.715		-22.6911	
63.86103	1425.211		-22.33436	
63.91497	1423.711		-21.96553	
63.96892	1422.223		-21.584	
64.02287	1420.753		-21.18906	
64.07682	1419.307		-20.78006	
64.13077	1417.89		-20.35618	
64.18472	1416.505		-19.91656	
64.23866	1415.158		-19.46029	
64.29261	1413.852		-18.98646	
64.34656	1412.585		-18.49415	
64.40051	1411.353		-17.98237	
64.45446	1410.156		-17.45041	
64.50841	1408.991		-16.89729	
64.56236	1407.859		-16.3222	
64.6163	1406.761		-15.72435	
64.67025	1405.703		-15.10297	
64.7242	1404.689		-14.45737	
64.77814	1403.727		-13.78689	
64.83209	1402.823		-13.09097	
64.88604	1401.976		-12.36904	
64.93999	1401.184		-11.62049	
64.99394	1400.445		-10.84507	
65.04789	1399.755		-10.04217	
65.10184	1399.111		-9.211329	
65.15578	1398.508		-8.352099	
65.20973	1397.942		-7.464017	
65.26368	1397.407		-6.546633	
65.31763	1396.898		-5.599508	
65.37157	1396.415		-4.622221	
65.42552	1395.957		-3.614367	
65.47947	1395.528		-2.575566	
65.53342	1395.134		-1.505287	
65.58737	1394.785		-0.4034612	
65.64132	1394.49		0.7304342	
65.69527	1394.262		1.896766	
65.74921	1394.108		3.095903	
65.80316	1394.028		4.328224	
65.85711	1394.026		5.594125	
65.91106	1394.101		6.894034	
65.965	1394.246		8.228427	
66.01895	1394.451		9.597838	
66.07291	1394.709		11.00308	
66.12685	1395.017		12.44443	
66.1808	1395.375		13.92284	
66.23475	1395.788		15.4391	
66.2887	1396.259		16.99407	
66.34264	1396.794		18.58859	
66.39659	1397.397		20.22352	
66.45054	1398.077		21.89973	
66.50449	1398.84		23.61806	
66.55843	1399.698		25.37932	
66.61239	1400.656		27.18456	
66.66634	1401.717		29.03398	
66.72028	1402.885		30.92854	
66.77423	1404.164		32.86889	
66.82818	1405.552		34.85563	
66.88213	1407.043		36.88935	
66.93607	1408.631		38.97061	
66.99002	1410.313		41.0999	
67.04397	1412.087		43.27771	
67.09792	1413.952		45.50446	
67.15187	1415.908		47.78084	
67.20582	1417.963		50.10653	
67.25977	1420.132		52.48211	
67.31371	1422.431		54.90784	
67.36766	1424.872		57.38391	
67.42161	1427.465		59.91051	
67.47556	1430.214		62.4878	
67.5295	1433.121		65.11588	
67.58345	1436.186		67.79485	
67.6374	1439.408		70.52475	
67.69135	1442.783		73.30598	
67.7453	1446.305		76.13773	
67.79925	1449.969		79.02034	
67.8532	1453.775		81.95372	
67.90714	1457.722		84.93774	
67.96109	1461.811		87.97225	
68.01504	1466.041		91.05706	
68.06898	1470.42		94.19193	
68.12293	1474.961		97.37663	
68.17688	1479.683		100.6109	
68.23083	1484.596		103.8948	
68.28478	1489.708		107.2271	
68.33873	1495.026		110.6079	
68.39268	1500.557		114.0368	
68.44662	1506.306		117.5134	
68.50057	1512.277		121.0372	
68.55452	1518.47		124.6079	
68.60847	1524.883		128.225	
68.66241	1531.516		131.8878	
68.71636	1538.371		135.5959	
68.77032	1545.444		139.349	
68.82426	1552.731		143.1453	
68.87821	1560.227		146.9843	
68.93216	1567.931		150.8652	
68.98611	1575.849		154.7865	
69.04005	1583.984		158.7471	
69.094	1592.337		162.7452	
69.14795	1600.906		166.7792	
69.2019	1609.691		170.8469	
69.25584	1618.695		174.9461	
69.3098	1627.923		179.0749	
69.36375	1637.375		183.2293	
69.41769	1647.055		187.4067	
69.47164	1656.962		191.6039	
69.52559	1667.104		195.817	
69.57954	1677.484		200.0422	
69.63348	1688.103		204.2751	
69.68743	1698.955		208.5111	
69.74138	1710.039		212.7452	
69.79533	1721.354		216.9722	
69.84928	1732.906		221.1869	
69.90323	1744.697		225.3821	
69.95718	1756.734		229.552	
70.01112	1769.023		233.6897	
70.06507	1781.573		237.7881	
70.11902	1794.39		241.8396	
70.17297	1807.485		245.8364	
70.22691	1820.863		249.7704	
70.28086	1834.53		253.633	
70.33481	1848.488		257.4158	
70.38876	1862.738		261.1105	
70.44271	1877.268		264.7072	
70.49666	1892.071		268.1978	
70.55061	1907.14		271.5732	
70.60455	1922.469		274.8247	
70.6585	1938.052		277.9436	
70.71245	1953.888		280.9211	
70.7664	1969.974		283.749	
70.82034	1986.311		286.4189	
70.87429	2002.896		288.9231	
70.92825	2019.733		291.2544	
70.98219	2036.826		293.4049	
71.03614	2054.188		295.3684	
71.09009	2071.828		297.1387	
71.14404	2089.744		298.7102	
71.19798	2107.927		300.0779	
71.25193	2126.365		301.2372	
71.30588	2145.045		302.1846	
71.35983	2163.948		302.9167	
71.41377	2183.054		303.431	
71.46773	2202.349		303.7257	
71.52168	2221.812		303.7995	
71.57562	2241.426		303.6519	
71.62957	2261.177		303.2829	
71.68352	2281.048		302.6933	
71.73746	2301.019		301.8845	
71.79141	2321.063		300.8582	
71.84536	2341.152		299.6172	
71.89931	2361.249		298.1642	
71.95325	2381.315		296.5029	
72.00721	2401.314		294.6368	
72.06116	2421.203		292.5709	
72.1151	2440.944		290.3095	
72.16905	2460.499		287.8577	
72.223	2479.83		285.2207	
72.27695	2498.904		282.4042	
72.33089	2517.687		279.414	
72.38484	2536.137		276.2562	
72.43879	2554.213		272.9372	
72.49274	2571.876		269.4633	
72.54669	2589.099		265.8408	
72.60064	2605.857		262.0774	
72.65459	2622.132		258.1795	
72.70853	2637.91		254.154	
72.76248	2653.18		250.0082	
72.81643	2667.937		245.7492	
72.87038	2682.175		241.3845	
72.92432	2695.893		236.9217	
72.97827	2709.09		232.3685	
73.03222	2721.765		227.7328	
73.08617	2733.916		223.0221	
73.14012	2745.531		218.246	
73.19407	2756.604		213.4122	
73.24802	2767.136		208.5295	
73.30196	2777.136		203.6066	
73.35591	2786.625		198.6526	
73.40986	2795.626		193.6766	
73.46381	2804.172		188.6879	
73.51775	2812.29		183.6958	
73.5717	2820.014		178.7096	
73.62566	2827.384		173.7379	
73.6796	2834.435		168.7915	
73.73355	2841.205		163.8789	
73.7875	2847.731		159.0092	
73.84145	2854.044		154.1913	
73.89539	2860.158		149.4339	
73.94934	2866.081		144.7455	
74.00329	2871.812		140.134	
74.05724	2877.35		135.6072	
74.11118	2882.696		131.1722	
74.16514	2887.861		126.8348	
74.21909	2892.861		122.6024	
74.27303	2897.72		118.4797	
74.32698	2902.466		114.4712	
74.38093	2907.126		110.5811	
74.43488	2911.719		106.8125	
74.48882	2916.258		103.1678	
74.54277	2920.751		99.64878	
74.59672	2925.196		96.25635	
74.65067	2929.572		92.99068	
74.70462	2933.85		89.85081	
74.75857	2937.997		86.83645	
74.81252	2941.987		83.94534	
74.86646	2945.802		81.17516	
74.92041	2949.437		78.52309	
74.97436	2952.891		75.98591	
75.02831	2956.18		73.56	
75.08225	2959.321		71.24141	
75.1362	2962.326		69.02592	
75.19015	2965.207		66.90911	
75.2441	2967.978		64.88618	
75.29805	2970.647		62.95306	
75.352	2973.227		61.10482	
75.40594	2975.728		59.33684	
75.45989	2978.156		57.64456	
75.51384	2980.511		56.02354	
75.56779	2982.791		54.46952	
75.62173	2984.993		52.97847	
75.67568	2987.11		51.54661	
75.72963	2989.143		50.17044	
75.78358	2991.103		48.84656	
75.83753	2993.003		47.57237	
75.89148	2994.869		46.345	
75.94543	2996.73		45.16202	
75.99937	2998.608		44.02126	
76.05332	3000.509		42.92073	
76.10727	3002.437		41.8587	
76.16122	3004.395		40.83352	
76.21516	3006.381		39.84375	
76.26911	3008.391		38.88803	
76.32307	3010.417		37.96502	
76.37701	3012.447		37.07382	
76.43096	3014.477		36.2132	
76.48491	3016.501		35.3821	
76.53886	3018.511		34.57943	
76.5928	3020.5		33.8041	
76.64675	3022.454		33.05499	
76.7007	3024.36		32.33095	
76.75465	3026.208		31.63081	
76.80859	3027.99		30.9534	
76.86255	3029.705		30.29744	
76.9165	3031.35		29.66198	
76.97044	3032.928		29.04582	
77.02439	3034.437		28.44793	
77.07834	3035.872		27.86733	
77.13229	3037.234		27.30313	
77.18623	3038.527		26.75456	
77.24018	3039.752		26.2209	
77.29413	3040.912		25.70156	
77.34808	3042.007		25.19605	
77.40203	3043.05		24.70389	
77.45598	3044.05		24.22489	
77.50993	3045.027		23.75879	
77.56387	3045.992		23.30548	
77.61782	3046.957		22.86498	
77.67177	3047.928		22.43745	
77.72572	3048.912		22.02313	
77.77966	3049.912		21.62234	
77.83361	3050.931		21.23548	
77.88756	3051.969		20.86297	
77.94151	3053.028		20.50518	
77.99546	3054.104		20.16265	
78.04941	3055.189		19.83577	
78.10336	3056.278		19.52491	
78.1573	3057.368		19.23042	
78.21125	3058.457		18.95256	
78.2652	3059.536		18.69151	
78.31915	3060.597		18.44735	
78.37309	3061.633		18.22009	
78.42704	3062.641		18.00958	
78.481	3063.617		17.81552	
78.53494	3064.564		17.63757	
78.58889	3065.476		17.47516	
78.64284	3066.347		17.3276	
78.69678	3067.169		17.19408	
78.75073	3067.932		17.07368	
78.80468	3068.623		16.96536	
78.85863	3069.24		16.86805	
78.91257	3069.788		16.78061	
78.96652	3070.276		16.70195	
79.02048	3070.709		16.63102	
79.07442	3071.096		16.56689	
79.12837	3071.449		16.50876	
79.18232	3071.787		16.456	
79.23627	3072.133		16.40815	
79.29021	3072.504		16.36493	
79.34416	3072.917		16.32627	
79.39811	3073.385		16.29226	
79.45206	3073.916		16.26316	
79.506	3074.517		16.23943	
79.55996	3075.192		16.22164	
79.61391	3075.936		16.21049	
79.66785	3076.738		16.20674	
79.7218	3077.59		16.2112	
79.77575	3078.486		16.22471	
79.8297	3079.425		16.24811	
79.88364	3080.415		16.28221	
79.93759	3081.463		16.32774	
79.99154	3082.57		16.38535	
80.04549	3083.732		16.4556	
80.09943	3084.944		16.53894	
80.15339	3086.2		16.63572	
80.20734	3087.494		16.74608	
80.26128	3088.818		16.87007	
80.31523	3090.16		17.00757	
80.36918	3091.509		17.1583	
80.42313	3092.85		17.32184	
80.47707	3094.171		17.49755	
80.53102	3095.452		17.68461	
80.58497	3096.678		17.88198	
80.63892	3097.838		18.08838	
80.69287	3098.928		18.30236	
80.74682	3099.941		18.52214	
80.80077	3100.878		18.74583	
80.85471	3101.755		18.97141	
80.90866	3102.589		19.19669	
80.96261	3103.395		19.4194	
81.01656	3104.175		19.63724	
81.0705	3104.928		19.84791	
81.12445	3105.654		20.04922	
81.1784	3106.345		20.23909	
81.23235	3107.007		20.41569	
81.2863	3107.645		20.57727	
81.34025	3108.269		20.72242	
81.3942	3108.885		20.84995	
81.44814	3109.505		20.95895	
81.50209	3110.151		21.04882	
81.55604	3110.844		21.11926	
81.60999	3111.6		21.17029	
81.66393	3112.436		21.20218	
81.71788	3113.363		21.2154	
81.77184	3114.391		21.21066	
81.82578	3115.52		21.1888	
81.87973	3116.748		21.15082	
81.93368	3118.07		21.09781	
81.98763	3119.479		21.03089	
82.04157	3120.965		20.95122	
82.09552	3122.516		20.85999	
82.14947	3124.121		20.75831	
82.20341	3125.761		20.64726	
82.25736	3127.419		20.52781	
82.31132	3129.08		20.40083	
82.36526	3130.744		20.26707	
82.41921	3132.418		20.12708	
82.47316	3134.105		19.98127	
82.52711	3135.803		19.82991	
82.58105	3137.515		19.67305	
82.635	3139.241		19.51055	
82.68895	3140.968		19.34199	
82.7429	3142.673		19.16673	
82.79684	3144.336		18.98388	
82.8508	3145.947		18.79234	
82.90475	3147.501		18.59085	
82.95869	3148.993		18.37789	
83.01264	3150.422		18.15177	
83.06659	3151.781		17.91068	
83.12054	3153.058		17.65269	
83.17448	3154.248		17.37589	
83.22843	3155.347		17.07833	
83.28238	3156.356		16.75813	
83.33633	3157.277		16.4135	
83.39028	3158.112		16.04271	
83.44423	3158.875		15.64431	
83.49818	3159.572		15.21695	
83.55212	3160.208		14.75957	
83.60607	3160.776		14.27139	
83.66002	3161.28		13.75194	
83.71397	3161.726		13.201	
83.76791	3162.124		12.61867	
83.82186	3162.475		12.0053	
83.87581	3162.781		11.36156	
83.92976	3163.043		10.68828	
83.98371	3163.26		9.986795	
84.03766	3163.441		9.258382	
84.09161	3163.607		8.504586	
84.14555	3163.784		7.727109	
84.1995	3163.996		6.927782	
84.25345	3164.252		6.108516	
84.3074	3164.56		5.271299	
84.36134	3164.925		4.418138	
84.41529	3165.347		3.551058	
84.46925	3165.821		2.671969	
84.52319	3166.339		1.783182	
84.57714	3166.898		0.8866155	
84.63109	3167.492		-0.01573665	
84.68504	3168.109		-0.9219994	
84.73898	3168.73		-1.830424	
84.79293	3169.334		-2.739417	
84.84688	3169.901		-3.647525	
84.90083	3170.415		-4.553493	
84.95477	3170.861		-5.456251	
85.00873	3171.227		-6.355055	
85.06268	3171.51		-7.248947	
85.11662	3171.713		-8.137552	
85.17057	3171.826		-9.020517	
85.22452	3171.829		-9.897636	
85.27847	3171.697		-10.76881	
85.33241	3171.411		-11.63406	
85.38636	3170.969		-12.49352	
85.44031	3170.375		-13.34742	
85.49426	3169.633		-14.19606	
85.54821	3168.736		-15.03988	
85.60216	3167.683		-15.87899	
85.65611	3166.486		-16.71384	
85.71005	3165.165		-17.54476	
85.764	3163.743		-18.37202	
85.81795	3162.247		-19.19587	
85.87189	3160.701		-20.01642	
85.92584	3159.118		-20.83372	
85.97979	3157.501		-21.64769	
86.03374	3155.841		-22.45818	
86.08769	3154.129		-23.26505	
86.14164	3152.358		-24.06773	
86.19559	3150.529		-24.86596	
86.24953	3148.638		-25.65929	
86.30348	3146.695		-26.44723	
86.35743	3144.706		-27.22919	
86.41138	3142.687		-28.00456	
86.46532	3140.648		-28.77264	
86.51927	3138.6		-29.53266	
86.57322	3136.542		-30.28385	
86.62717	3134.481		-31.02547	
86.68112	3132.415		-31.7565	
86.73507	3130.348		-32.47626	
86.78902	3128.282		-33.18396	
86.84296	3126.219		-33.87882	
86.89691	3124.152		-34.56017	
86.95086	3122.069		-35.22734	
87.00481	3119.964		-35.87976	
87.05875	3117.847		-36.51691	
87.1127	3115.733		-37.13837	
87.16666	3113.632		-37.74392	
87.2206	3111.542		-38.33315	
87.27455	3109.45		-38.90598	
87.3285	3107.346		-39.46235	
87.38245	3105.235		-40.00222	
87.43639	3103.126		-40.52569	
87.49034	3101.024		-41.03289	
87.54429	3098.927		-41.52409	
87.59824	3096.832		-41.99959	
87.65218	3094.738		-42.4598	
87.70614	3092.639		-42.90525	
87.76009	3090.535		-43.33634	
87.81403	3088.427		-43.75368	
87.86798	3086.318		-44.15792	
87.92193	3084.21		-44.54971	
87.97588	3082.102		-44.92976	
88.02982	3079.986		-45.29875	
88.08377	3077.847		-45.65739	
88.13772	3075.669		-46.00636	
88.19167	3073.434		-46.34638	
88.24562	3071.126		-46.67817	
88.29957	3068.73		-47.00231	
88.35352	3066.239		-47.31946	
88.40746	3063.659		-47.63015	
88.46141	3061.004		-47.93484	
88.51536	3058.292		-48.23391	
88.56931	3055.537		-48.52761	
88.62325	3052.745		-48.81614	
88.6772	3049.919		-49.0996	
88.73115	3047.058		-49.378	
88.7851	3044.157		-49.6513	
88.83905	3041.211		-49.91926	
88.893	3038.212		-50.18169	
88.94695	3035.15		-50.4383	
89.00089	3032.015		-50.68872	
89.05484	3028.819		-50.93256	
89.10879	3025.578		-51.16935	
89.16273	3022.318		-51.39864	
89.21668	3019.053		-51.61998	
89.27063	3015.798		-51.83289	
89.32458	3012.56		-52.03696	
89.37853	3009.36		-52.23169	
89.43248	3006.2		-52.41674	
89.48643	3003.086		-52.59172	
89.54037	3000.013		-52.75636	
89.59432	2996.987		-52.91039	
89.64827	2993.995		-53.0536	
89.70222	2991.032		-53.18586	
89.75616	2988.081		-53.30706	
89.81011	2985.136		-53.41721	
89.86407	2982.19		-53.51646	
89.91801	2979.253		-53.60504	
89.97196	2976.337		-53.68341	
90.02591	2973.448		-53.75212	
90.07986	2970.586		-53.81187	
90.1338	2967.755		-53.8635	
90.18775	2964.951		-53.90803	
90.2417	2962.167		-53.94662	
90.29565	2959.384		-53.98055	
90.34959	2956.585		-54.01119	
90.40355	2953.756		-54.03996	
90.4575	2950.892		-54.06825	
90.51144	2947.992		-54.09743	
90.56539	2945.064		-54.12881	
90.61934	2942.114		-54.16357	
90.67329	2939.146		-54.2028	
90.72723	2936.169		-54.24749	
90.78118	2933.19		-54.29845	
90.83513	2930.218		-54.35641	
90.88908	2927.258		-54.42194	
90.94303	2924.31		-54.49551	
90.99698	2921.378		-54.57742	
91.05093	2918.465		-54.66788	
91.10487	2915.572		-54.76689	
91.15882	2912.704		-54.87436	
91.21277	2909.861		-54.99002	
91.26672	2907.042		-55.11357	
91.32066	2904.252		-55.24454	
91.37461	2901.489		-55.38243	
91.42856	2898.749		-55.52662	
91.48251	2896.031		-55.67651	
91.53646	2893.336		-55.83141	
91.59041	2890.658		-55.99068	
91.64436	2887.995		-56.15367	
91.6983	2885.341		-56.31973	
91.75225	2882.689		-56.48818	
91.8062	2880.029		-56.65836	
91.86015	2877.35		-56.82964	
91.91409	2874.644		-57.00139	
91.96804	2871.897		-57.17305	
92.022	2869.096		-57.34414	
92.07594	2866.24		-57.51415	
92.12989	2863.333		-57.68274	
92.18384	2860.378		-57.84964	
92.23779	2857.377		-58.01466	
92.29173	2854.321		-58.17768	
92.34568	2851.197		-58.33869	
92.39963	2847.992		-58.49773	
92.45358	2844.699		-58.62381	
92.50752	2841.318		-58.74052	
92.56148	2837.857		-58.85116	
92.61543	2834.33		-58.95861	
92.66937	2830.75		-59.06498	
92.72332	2827.125		-59.17158	
92.77727	2823.466		-59.27911	
92.83121	2819.778		-59.38791	
92.88516	2816.076		-59.49803	
92.93911	2812.373		-59.60943	
92.99306	2808.69		-59.72195	
93.047	2805.032		-59.83541	
93.10096	2801.408		-59.94962	
93.15491	2797.818		-60.06433	
93.20885	2794.263		-60.17937	
93.2628	2790.735		-60.29452	
93.31675	2787.234		-60.4096	
93.3707	2783.755		-60.52441	
93.42464	2780.299		-60.63879	
93.47859	2776.867		-60.75257	
93.53254	2773.464		-60.86561	
93.58649	2770.084		-60.97775	
93.64044	2766.723		-61.08889	
93.69439	2763.388		-61.19886	
93.74834	2760.082		-61.30757	
93.80228	2756.801		-61.41491	
93.85623	2753.549		-61.52079	
93.91018	2750.327		-61.6251	
93.96413	2747.138		-61.72778	
94.01807	2743.975		-61.82874	
94.07202	2740.799		-61.92793	
94.12597	2737.582		-62.02529	
94.17992	2734.329		-62.12079	
94.23387	2731.056		-62.21435	
94.28782	2727.77		-62.30597	
94.34177	2724.475		-62.39561	
94.39571	2721.173		-62.48325	
94.44966	2717.866		-62.56889	
94.50361	2714.556		-62.65252	
94.55756	2711.243		-62.73415	
94.6115	2707.927		-62.81376	
94.66545	2704.609		-62.89139	
94.71941	2701.288		-62.96706	
94.77335	2697.966		-63.04078	
94.8273	2694.643		-63.11258	
94.88125	2691.317		-63.18251	
94.9352	2687.989		-63.2506	
94.98914	2684.656		-63.3169	
