T[Â°C]	330nm [counts / mm]	S.D.
20.00113	3404.178	
20.00336	3410.898	
20.00488	3415.732	
20.01222	3409.54	
20.01501	3406.743	
20.03296	3411.612	
20.03888	3402.338	
20.06179	3402.77	
20.06957	3412.804	
20.10202	3397.767	
20.11127	3409.243	
20.14933	3388.41	
20.16033	3401.341	
20.20234	3390.753	
20.21493	3395.333	
20.26438	3395.799	
20.28171	3388.246	
20.33625	3389.291	
20.35209	3386.931	
20.41243	3390.216	
20.42896	3383.847	
20.49458	3368.613	
20.51254	3374.256	
20.58325	3377.455	
20.6023	3368.559	
20.67476	3377.788	
20.69527	3376.962	
20.7748	3373.025	
20.79603	3366.386	
20.8757	3361.681	
20.89899	3358.63	
20.9809	3356.615	
21.00283	3355.958	
21.0865	3346.533	
21.11192	3361.307	
21.19582	3354.119	
21.21966	3342.921	
21.30575	3341.744	
21.32882	3342.747	
21.41652	3337.542	
21.4397	3329.342	
21.52792	3318.759	
21.5514	3332.386	
21.63727	3324.416	
21.66027	3329.256	
21.74405	3314.288	
21.76681	3314.995	
21.85413	3317.875	
21.87704	3310.743	
21.9646	3306.373	
21.98807	3311.68	
22.0739	3306.443	
22.09711	3307.622	
22.18254	3301.083	
22.20602	3297.194	
22.29263	3298.306	
22.31606	3300.286	
22.40365	3291.685	
22.42687	3298.559	
22.51293	3282.734	
22.53562	3284.102	
22.62211	3285.837	
22.64497	3278.541	
22.72967	3275.107	
22.75275	3273.237	
22.84033	3270.347	
22.86337	3271.086	
22.95057	3263.613	
22.97426	3267.728	
23.05982	3263.328	
23.08337	3264.058	
23.16987	3252.727	
23.19253	3255.219	
23.2792	3246.089	
23.30154	3251.355	
23.38731	3240.248	
23.41104	3248.897	
23.4996	3249.994	
23.52233	3245.275	
23.6067	3237.158	
23.62961	3235.267	
23.71551	3226.409	
23.73985	3229.205	
23.82627	3215.756	
23.8491	3219.415	
23.93385	3212.798	
23.95715	3210.747	
24.04528	3213.766	
24.06856	3209.605	
24.15595	3204.216	
24.1787	3202.776	
24.26525	3207.99	
24.28849	3190.184	
24.37237	3192.548	
24.39573	3195.885	
24.48261	3190.631	
24.50543	3191.522	
24.59362	3187.513	
24.61707	3189.938	
24.70289	3186.979	
24.72615	3181.077	
24.81308	3181.462	
24.83646	3173.274	
24.9215	3167.953	
24.94516	3163.425	
25.03078	3158.483	
25.05346	3151.97	
25.14001	3159.963	
25.16298	3152.249	
25.2502	3156.343	
25.27366	3149.598	
25.35969	3150.859	
25.38351	3149.416	
25.46923	3145.886	
25.4924	3146.778	
25.57837	3133.707	
25.60156	3143.869	
25.68849	3143.336	
25.71163	3138.806	
25.79609	3129.453	
25.81888	3131.406	
25.90622	3134.519	
25.93014	3124.752	
26.01717	3125.19	
26.03988	3126.128	
26.12407	3112.893	
26.14695	3116.515	
26.23534	3102.62	
26.25913	3105.042	
26.34701	3104.25	
26.36959	3110.428	
26.45437	3100.442	
26.47763	3083.004	
26.56335	3092.877	
26.58619	3096.936	
26.67288	3090.239	
26.69676	3090.391	
26.78337	3081.768	
26.80583	3087.871	
26.89099	3072.703	
26.91427	3090.956	
27.00175	3079.118	
27.02512	3073.363	
27.11279	3070.99	
27.13567	3076.129	
27.21961	3066.486	
27.24366	3062.854	
27.33121	3053.95	
27.35388	3060.347	
27.43945	3058.579	
27.4622	3048.178	
27.54945	3048.554	
27.57243	3045.79	
27.65958	3052.878	
27.68277	3047.229	
27.77003	3042.53	
27.7927	3046.286	
27.8767	3034.303	
27.90047	3030.917	
27.98565	3026.747	
28.00867	3033.427	
28.0962	3034.584	
28.11924	3025	
28.20749	3025.012	
28.23058	3023.019	
28.31493	3010.439	
28.33718	3018.548	
28.42412	3007.551	
28.44803	3009.361	
28.53477	3015.151	
28.5579	2996.017	
28.6436	2998.376	
28.66658	2995.846	
28.75316	2993.933	
28.77668	2999.378	
28.86362	2989.467	
28.88707	2992.733	
28.97143	2997.812	
28.99506	2983.091	
29.08334	2991.94	
29.10643	2990.477	
29.19023	2979.749	
29.21316	2986.66	
29.29943	2974.421	
29.32263	2976.835	
29.40945	2970.149	
29.43261	2967.027	
29.52082	2970.241	
29.54346	2962.902	
29.62817	2960.504	
29.65132	2952.701	
29.7379	2957.99	
29.76139	2956.531	
29.84783	2951.377	
29.87193	2939.97	
29.9586	2956.112	
29.98079	2940.543	
30.06634	2953.384	
30.092	2928.012	
30.17538	2932.133	
30.1986	2932.085	
30.28434	2933.253	
30.30793	2928.056	
30.39463	2930.301	
30.41768	2926.35	
30.50502	2930.12	
30.5284	2921.816	
30.61244	2918.205	
30.63571	2915.619	
30.72244	2912.103	
30.74592	2908.329	
30.83122	2911.893	
30.8542	2906.65	
30.94102	2911.054	
30.96414	2899.089	
31.04935	2901.296	
31.07292	2896.906	
31.16134	2895.833	
31.18368	2885.26	
31.26977	2886.208	
31.29268	2889.289	
31.37793	2884.988	
31.40277	2875.965	
31.48797	2881.538	
31.51054	2876.672	
31.59858	2871.896	
31.62202	2877.407	
31.70787	2870.96	
31.73083	2871.264	
31.81816	2866.899	
31.84079	2855.667	
31.92837	2856.735	
31.95187	2855.888	
32.03816	2854.444	
32.06137	2865.534	
32.14602	2850.528	
32.16946	2857.009	
32.25494	2854.594	
32.27762	2846.841	
32.36568	2844.45	
32.38937	2834.061	
32.47533	2844.678	
32.49803	2824.872	
32.58562	2829.76	
32.60846	2830.328	
32.69436	2822.7	
32.71712	2829.831	
32.80254	2828.242	
32.82705	2817.469	
32.91438	2816.226	
32.9377	2809.349	
33.02152	2816.879	
33.04438	2815.839	
33.13163	2808.743	
33.15496	2813.238	
33.24078	2811.982	
33.26405	2803.851	
33.35272	2804.357	
33.37608	2801.163	
33.45916	2796.477	
33.48212	2800.096	
33.56855	2795.691	
33.59206	2783.885	
33.68166	2796.961	
33.70445	2779.262	
33.78972	2780.688	
33.81292	2779.54	
33.89783	2775.131	
33.9218	2777.372	
34.00742	2778.902	
34.03071	2765.61	
34.11796	2771.479	
34.14132	2757.496	
34.22641	2762.638	
34.24916	2757.494	
34.33598	2762.032	
34.36072	2749.248	
34.44636	2760.447	
34.46957	2753.239	
34.55474	2751.574	
34.57738	2743.963	
34.66314	2752.773	
34.68672	2740.224	
34.77475	2743.003	
34.79806	2735.48	
34.88257	2734.1	
34.90516	2738.453	
34.99268	2737.604	
35.01623	2726.683	
35.10224	2731.473	
35.12547	2725.938	
35.21199	2726.991	
35.23494	2711.783	
35.32003	2714.512	
35.34459	2713.322	
35.43114	2720.786	
35.45403	2706.358	
35.53974	2714.339	
35.56256	2710.848	
35.64939	2704.585	
35.67272	2701.758	
35.76049	2708.056	
35.7848	2701.764	
35.86888	2700.078	
35.89173	2693.727	
35.97669	2697.446	
35.99982	2694.837	
36.08685	2689.509	
36.10965	2682.867	
36.19619	2676.103	
36.21899	2677.097	
36.30626	2674.411	
36.33068	2671.109	
36.41446	2672.153	
36.43791	2670.424	
36.52348	2671.889	
36.54634	2676.405	
36.63342	2666.655	
36.65629	2658.348	
36.742	2662.187	
36.76496	2659.344	
36.8523	2650.683	
36.87585	2654.321	
36.96119	2652.373	
36.98449	2648.889	
37.07072	2655.489	
37.09389	2644.264	
37.1825	2644.389	
37.20522	2638.28	
37.29036	2634.541	
37.31359	2637.518	
37.40003	2635.438	
37.42335	2630.106	
37.50815	2627.002	
37.53366	2624.697	
37.61755	2632.386	
37.64083	2623.966	
37.72763	2626.781	
37.75077	2619.148	
37.83736	2618.058	
37.86148	2611.679	
37.94744	2612.163	
37.97212	2609.776	
38.05651	2605.344	
38.07922	2599.342	
38.16534	2609.229	
38.18969	2597.318	
38.27509	2603.644	
38.29857	2601.577	
38.38569	2590.368	
38.40893	2594.009	
38.49587	2598.564	
38.51855	2582.773	
38.60471	2591.772	
38.6277	2587.396	
38.71379	2586.528	
38.73795	2571.18	
38.82204	2582.942	
38.84538	2574.934	
38.93227	2580.216	
38.95518	2567.918	
39.04052	2571.005	
39.06754	2568.802	
39.1523	2565.743	
39.17536	2569.555	
39.25996	2563.424	
39.28331	2557.521	
39.36872	2564.16	
39.39194	2556.794	
39.47862	2546.754	
39.50223	2552.038	
39.58714	2552.502	
39.61002	2540.42	
39.69789	2546.038	
39.72087	2532.742	
39.8067	2542.079	
39.82914	2538.294	
39.91637	2534.943	
39.93966	2530.974	
40.02697	2531.391	
40.05127	2520.652	
40.13687	2525.072	
40.15926	2527.651	
40.24266	2524.016	
40.26653	2516.185	
40.35534	2511.992	
40.37859	2516.465	
40.46288	2516.74	
40.48569	2511.643	
40.57278	2514.222	
40.59898	2507.155	
40.68416	2499.163	
40.70757	2497.083	
40.79262	2499.724	
40.81536	2495.418	
40.90144	2498.558	
40.92454	2483.622	
41.01154	2504.65	
41.03486	2487.385	
41.12201	2490.054	
41.14616	2484.774	
41.23022	2476.513	
41.25319	2481.905	
41.33955	2482.093	
41.36218	2476.922	
41.44844	2475.789	
41.47157	2474.564	
41.55887	2467.068	
41.58231	2473.896	
41.66597	2466.383	
41.6915	2460.654	
41.7793	2463.619	
41.80253	2450.87	
41.89137	2458.783	
41.91395	2458.674	
42.0001	2460.059	
42.02282	2458.015	
42.10816	2453.611	
42.13245	2454.121	
42.21871	2452.309	
42.24233	2438.812	
42.32661	2452.356	
42.34986	2440.042	
42.43759	2441.796	
42.4607	2441.224	
42.54612	2437.357	
42.5689	2433.138	
42.65591	2430.278	
42.6794	2423.476	
42.76606	2428.635	
42.78858	2423.535	
42.8742	2419.996	
42.89737	2420.516	
42.98436	2417.616	
43.00801	2415.795	
43.09272	2411.37	
43.11884	2411.079	
43.2063	2416.946	
43.22941	2405.349	
43.31701	2408.632	
43.34067	2403.861	
43.42608	2397.315	
43.44907	2392.9	
43.53447	2396.036	
43.55769	2394.115	
43.64545	2406.849	
43.66909	2390.582	
43.75617	2389.505	
43.77888	2389.833	
43.86404	2387.119	
43.88719	2377.702	
43.97284	2382.106	
43.99578	2380.565	
44.08403	2378.228	
44.1079	2372.221	
44.19273	2377.055	
44.21565	2368.922	
44.3027	2380.153	
44.32625	2359.585	
44.41212	2366.27	
44.43564	2364.737	
44.52134	2355.376	
44.54406	2357.887	
44.63145	2360.076	
44.65416	2347.169	
44.7382	2353.376	
44.76192	2351.91	
44.84905	2348.731	
44.8725	2340.647	
44.95828	2354.007	
44.9837	2344.036	
45.0681	2339.13	
45.09162	2332.583	
45.17626	2337.389	
45.1993	2339.548	
45.28666	2334.346	
45.31016	2329.866	
45.39596	2335.329	
45.41928	2322.656	
45.50459	2330.637	
45.52739	2328.601	
45.61469	2318.669	
45.63808	2327.463	
45.72295	2315.99	
45.74866	2318.366	
45.83325	2319.292	
45.8566	2309.094	
45.94357	2310.335	
45.9667	2306.177	
46.0519	2308.768	
46.07512	2304.916	
46.1615	2287.052	
46.18454	2296.964	
46.27178	2295.021	
46.295	2290.873	
46.38099	2295.186	
46.40511	2286.025	
46.48895	2294.734	
46.51392	2277.957	
46.59954	2284.99	
46.62283	2289.732	
46.70873	2286.085	
46.73169	2279.839	
46.81749	2282.95	
46.84142	2272.002	
46.92733	2276.087	
46.95029	2271.64	
47.03594	2277.781	
47.0598	2263.249	
47.14678	2266.06	
47.17038	2258.88	
47.25806	2262.677	
47.28106	2253.573	
47.36657	2257.193	
47.38968	2251.234	
47.47336	2255.687	
47.49745	2253.754	
47.58556	2250.616	
47.60875	2242.31	
47.695	2246.943	
47.71822	2240.2	
47.80235	2237.868	
47.82521	2232.621	
47.91323	2233.045	
47.93646	2228.366	
48.02304	2239.56	
48.04876	2226.306	
48.134	2240.575	
48.15725	2222.804	
48.24353	2229.474	
48.26671	2220.039	
48.35395	2220.663	
48.37654	2219.293	
48.46075	2218.045	
48.48424	2224.434	
48.57185	2215.629	
48.59687	2209.615	
48.68248	2212.032	
48.70544	2214.365	
48.79114	2210.62	
48.81333	2200.102	
48.9	2196.84	
48.92318	2198.446	
49.00903	2197.135	
49.03193	2196.921	
49.11935	2200.433	
49.14244	2190.331	
49.22839	2196.939	
49.25163	2186.761	
49.33782	2194.452	
49.36298	2186.048	
49.4482	2175.962	
49.47154	2179.421	
49.55829	2182.497	
49.58103	2177.215	
49.66614	2171.882	
49.69062	2172.273	
49.77643	2176.982	
49.80005	2167.399	
49.88658	2175.494	
49.90958	2163.077	
49.99432	2164.84	
50.01793	2159.711	
50.10572	2155.925	
50.12845	2156.192	
50.21471	2161.587	
50.23997	2151.178	
50.32429	2152.081	
50.34729	2146.679	
50.4335	2143.726	
50.45637	2138.28	
50.54192	2140.095	
50.56504	2139.846	
50.65134	2136.354	
50.67483	2133.074	
50.76104	2134.488	
50.78575	2128.385	
50.87057	2137.207	
50.89354	2129.53	
50.98	2123.979	
51.0048	2125.724	
51.08978	2120.831	
51.11298	2116.937	
51.2014	2123.273	
51.22484	2119.069	
51.31099	2119.368	
51.33519	2106.53	
51.41732	2117.553	
51.44368	2109.006	
51.52765	2110.021	
51.55056	2107.135	
51.63785	2101.517	
51.66138	2107.723	
51.74767	2103.073	
51.77073	2097.184	
51.85749	2099.177	
51.88063	2099.094	
51.96694	2102.878	
51.99112	2088.772	
52.07521	2098.241	
52.09919	2093.735	
52.18609	2099.594	
52.20879	2083.93	
52.29505	2084.383	
52.31845	2083.159	
52.40444	2086.589	
52.42745	2076.222	
52.51451	2071.974	
52.53813	2084.234	
52.62471	2072.87	
52.64812	2067.813	
52.73435	2072.195	
52.75679	2065.514	
52.84142	2071.634	
52.86406	2063.284	
52.95301	2059.095	
52.97674	2058.616	
53.06171	2056.515	
53.08475	2056.486	
53.17079	2061.536	
53.1939	2051.217	
53.27969	2051.897	
53.30285	2048.547	
53.38936	2053.83	
53.41254	2044.969	
53.50026	2044.57	
53.52402	2039.377	
53.60902	2045.632	
53.63182	2030.055	
53.71695	2041.107	
53.73987	2031.263	
53.82945	2032.186	
53.85267	2030.641	
53.93766	2031.354	
53.96112	2025.73	
54.04806	2024.551	
54.07095	2022.822	
54.15602	2021.326	
54.17943	2015.748	
54.26759	2023.409	
54.29116	2011.97	
54.37677	2021.72	
54.39968	2010.958	
54.48615	2018.707	
54.50956	2008.112	
54.5968	2013.675	
54.61978	1998.516	
54.70656	2009.412	
54.72987	1993.649	
54.81525	1999.115	
54.83906	1993.603	
54.92563	1999.13	
54.94823	1988.22	
55.03459	1991.888	
55.05768	1988.018	
55.14413	1988.678	
55.16802	1987.442	
55.2559	1987.675	
55.27837	1980.087	
55.36373	1978.456	
55.38669	1976.244	
55.47375	1980.756	
55.4974	1974.98	
55.58395	1970.921	
55.60667	1964.392	
55.69052	1979.584	
55.71437	1965.465	
55.80235	1974.856	
55.82549	1964.888	
55.91217	1967.31	
55.93473	1957.679	
56.01888	1961.786	
56.04231	1955.475	
56.13014	1952.515	
56.15292	1947.934	
56.24192	1959.897	
56.26501	1951.561	
56.34852	1954.379	
56.37165	1952.866	
56.45946	1950.084	
56.48284	1942.336	
56.57038	1943.162	
56.59321	1943.349	
56.67707	1941.016	
56.69993	1934.984	
56.78625	1932.031	
56.80984	1928.954	
56.89917	1935.324	
56.92212	1929.696	
57.00769	1932.135	
57.03249	1924.516	
57.1148	1931.073	
57.13829	1924.045	
57.228	1928.547	
57.25174	1921.077	
57.33614	1919.964	
57.35947	1911.675	
57.44569	1909.875	
57.46897	1911.302	
57.55549	1915.103	
57.57864	1900.263	
57.66381	1907.662	
57.68729	1905.463	
57.77491	1910.736	
57.79863	1898.877	
57.8842	1898.833	
57.91076	1896.86	
57.99739	1903.984	
58.02214	1896.535	
58.1058	1891.265	
58.12938	1888.251	
58.21716	1894.494	
58.24052	1886.084	
58.32775	1888.942	
58.35051	1876.772	
58.43407	1888.076	
58.45741	1877.524	
58.54442	1879.209	
58.56936	1874.113	
58.65535	1869.138	
58.67877	1863.534	
58.76471	1872.153	
58.78835	1865.555	
58.87263	1870.514	
58.89786	1868.902	
58.9852	1869.994	
59.00843	1868.765	
59.09476	1873.377	
59.11794	1863.396	
59.20328	1865.065	
59.22587	1862.764	
59.31691	1862.88	
59.34045	1850.235	
59.42561	1852.961	
59.44818	1855.299	
59.53438	1849.975	
59.55796	1847.685	
59.64645	1844.542	
59.67015	1840.002	
59.75319	1844.418	
59.77838	1835.271	
59.8643	1839.777	
59.88746	1832.143	
59.97297	1840.16	
59.99649	1828.262	
60.08408	1831.883	
60.10655	1831.779	
60.19316	1830.469	
60.21568	1822.333	
60.30119	1827.297	
60.32452	1814.89	
60.41253	1823.951	
60.43571	1816.673	
60.52153	1812.04	
60.54592	1814.899	
60.63011	1817.459	
60.65311	1808.15	
60.74092	1805.092	
60.76615	1803.126	
60.85144	1814.906	
60.87387	1806.044	
60.96378	1812.515	
60.98683	1793.695	
61.07715	1804.324	
61.10077	1795.64	
61.18582	1806.532	
61.20811	1791.492	
61.2974	1800.874	
61.32093	1792.645	
61.40412	1800.154	
61.42707	1794.731	
61.5158	1792.527	
61.53856	1787.673	
61.62513	1792.293	
61.64859	1782.438	
61.73318	1783.257	
61.75555	1776.169	
61.84325	1785.392	
61.86688	1769.018	
61.95434	1778.245	
61.97686	1768.107	
62.06058	1773.202	
62.08401	1768.103	
62.17178	1773.867	
62.19691	1765.323	
62.28115	1767.805	
62.30414	1762.789	
62.38956	1763.344	
62.4128	1755.231	
62.50095	1760.481	
62.52415	1754.62	
62.61278	1761.435	
62.63646	1751.012	
62.72282	1757.145	
62.74505	1744.889	
62.83221	1756.417	
62.85518	1745.411	
62.94165	1751.7	
62.96473	1749.323	
63.0509	1748.352	
63.07521	1737.399	
63.1612	1753.689	
63.18458	1735.704	
63.2704	1743.756	
63.29362	1739.397	
63.38015	1735.047	
63.40367	1735.691	
63.49094	1730.963	
63.51596	1729.436	
63.59777	1729.333	
63.62117	1720.906	
63.70805	1731.053	
63.73171	1720.029	
63.81855	1725.625	
63.84193	1730.679	
63.92627	1730.98	
63.94902	1719.332	
64.03678	1721.105	
64.06006	1716.748	
64.14571	1719.536	
64.16934	1716.019	
64.25773	1722.232	
64.28072	1713.735	
64.36667	1713.964	
64.38981	1710.445	
64.47647	1713.309	
64.50019	1704.336	
64.58948	1712.268	
64.61219	1701.849	
64.70026	1716.312	
64.72382	1695.309	
64.80771	1708.016	
64.83247	1696.252	
64.91973	1700.388	
64.94314	1697.255	
65.02813	1707.003	
65.0515	1692.738	
65.13733	1705.261	
65.16028	1695.837	
65.24889	1704.413	
65.27192	1693.921	
65.35821	1697.799	
65.38185	1691.825	
65.4666	1701.239	
65.48955	1693.524	
65.57639	1699.801	
65.59937	1688.937	
65.68616	1697.496	
65.71019	1682.935	
65.79403	1698.412	
65.81709	1689.808	
65.90486	1694.027	
65.92876	1690.488	
66.01445	1697.829	
66.03757	1690.202	
66.12486	1706.181	
66.14804	1685.859	
66.23476	1698.945	
66.25784	1687.678	
66.34583	1701.92	
66.36896	1688.657	
66.45155	1707.505	
66.47446	1693.755	
66.56226	1710.809	
66.58797	1700.38	
66.67619	1705.984	
66.69958	1703.558	
66.78432	1710.833	
66.80936	1704.587	
66.89366	1715.226	
66.91721	1703.608	
67.00302	1715.618	
67.02673	1707.886	
67.11468	1720.887	
67.13757	1705.502	
67.22387	1721.129	
67.24796	1720.675	
67.33112	1725.923	
67.35366	1723.669	
67.44211	1741.502	
67.46561	1727.175	
67.55231	1742.495	
67.57571	1736.829	
67.66005	1757.609	
67.68349	1743.825	
67.77016	1756.25	
67.79377	1751.978	
67.88168	1767.207	
67.90495	1761.822	
67.98956	1775.419	
68.01439	1773.729	
68.09825	1797.814	
68.12131	1774.836	
68.20999	1803.569	
68.23363	1796.396	
68.31755	1814.914	
68.34035	1808.412	
68.42864	1822.835	
68.45147	1824.243	
68.53783	1836.063	
68.56137	1834.476	
68.6451	1851.235	
68.66872	1852.304	
68.75775	1865.626	
68.78056	1872.395	
68.86491	1892.078	
68.8888	1885.899	
68.97749	1904.003	
69.00007	1905.716	
69.08653	1926.838	
69.10882	1919.014	
69.19257	1948.956	
69.21612	1943.411	
69.30435	1975.576	
69.32774	1966.433	
69.41378	1996.6	
69.43599	1995.019	
69.52433	2021.335	
69.54768	2012.881	
69.6349	2044.472	
69.65749	2039.024	
69.74278	2064.464	
69.76621	2058.204	
69.85211	2101.779	
69.87533	2094.982	
69.96301	2129.978	
69.98495	2122.823	
70.07171	2160.769	
70.09641	2159.713	
70.17898	2199.787	
70.20155	2191.303	
70.29192	2222.419	
70.31541	2223.547	
70.39971	2262.934	
70.42342	2263.602	
70.50973	2300.634	
70.53343	2297.444	
70.62126	2334.789	
70.64433	2331.976	
70.7299	2382.088	
70.75396	2374.394	
70.83739	2421.464	
70.86373	2425.117	
70.94943	2467.991	
70.97201	2456.665	
71.05778	2510.832	
71.08428	2509.502	
71.1702	2555.179	
71.19352	2551.007	
71.28065	2607.798	
71.30392	2592.161	
71.39176	2643.958	
71.41596	2652.876	
71.49886	2695.547	
71.52248	2694.977	
71.60963	2736.292	
71.63217	2746.253	
71.72116	2797.616	
71.74677	2798.771	
71.83115	2850.651	
71.85367	2859.982	
71.9416	2919.742	
71.96436	2921.033	
72.05128	2973.398	
72.0758	2966.515	
72.16186	3027.058	
72.18503	3021.487	
72.27139	3070.268	
72.2942	3078.093	
72.37939	3130.688	
72.404	3108.547	
72.48943	3171.228	
72.5125	3170.509	
72.60077	3224.616	
72.62394	3220.026	
72.71001	3271.375	
72.73483	3256.166	
72.81995	3302.735	
72.84319	3301.117	
72.92683	3361.726	
72.94952	3343.764	
73.03737	3374.523	
73.06065	3378.432	
73.14922	3409.27	
73.17194	3399.714	
73.25828	3434.642	
73.28088	3428.987	
73.36686	3465.39	
73.38984	3445.26	
73.47658	3486.029	
73.49967	3471.895	
73.58508	3504.619	
73.60919	3492.52	
73.69469	3529.974	
73.71799	3514.063	
73.80861	3550.336	
73.832	3532.024	
73.91756	3556.31	
73.94208	3536.699	
74.02855	3562.329	
74.05178	3550.229	
74.14178	3585.311	
74.16543	3565.8	
74.25092	3599.779	
74.27727	3570.034	
74.36517	3607.427	
74.38808	3590.463	
74.47353	3619.654	
74.4972	3605.157	
74.58156	3625.784	
74.6053	3604.957	
74.69222	3640.685	
74.71848	3611.517	
74.80685	3637.555	
74.83013	3617.366	
74.9157	3644.695	
74.94129	3622.125	
75.02676	3663.203	
75.05034	3632.6	
75.13577	3672.098	
75.16129	3642.093	
75.24893	3694.257	
75.27238	3650.136	
75.35809	3689.177	
75.38412	3658.913	
75.47116	3688.836	
75.49404	3655.302	
75.58107	3689.09	
75.60571	3669.658	
75.68918	3705.445	
75.71342	3673.137	
75.80024	3694.386	
75.82661	3670.058	
75.91303	3716.528	
75.93594	3688.775	
76.02345	3717.656	
76.04909	3681.461	
76.13628	3717.385	
76.15961	3690.868	
76.24294	3718.469	
76.26984	3696.465	
76.35859	3727.478	
76.38171	3697.632	
76.4683	3735.319	
76.49393	3705.103	
76.58067	3731.482	
76.60439	3717.787	
76.69025	3739.313	
76.71635	3702.49	
76.80422	3736.057	
76.82893	3702.753	
76.91212	3741.761	
76.93732	3717.267	
77.02573	3739.052	
77.04962	3721.625	
77.13773	3748.632	
77.16422	3725.043	
77.24928	3754.899	
77.27216	3725.468	
77.35955	3753.787	
77.38543	3719.395	
77.47366	3760.853	
77.49715	3728.217	
77.58453	3758.073	
77.61092	3729.218	
77.69452	3753.152	
77.7196	3735.909	
77.80605	3763.314	
77.83331	3736.387	
77.91862	3772.679	
77.94134	3727.616	
78.02874	3770.241	
78.05592	3737.989	
78.14265	3773.11	
78.16702	3731.819	
78.25313	3768.558	
78.27905	3732.14	
78.36298	3768.426	
78.38625	3739.066	
78.47651	3772.88	
78.50349	3751.294	
78.58787	3771.125	
78.6107	3740.369	
78.69691	3763.944	
78.72053	3734.106	
78.80832	3777.235	
78.83112	3748.382	
78.9175	3767.102	
78.94096	3742.83	
79.02927	3777.03	
79.05262	3743.181	
79.14002	3768.937	
79.16342	3744.33	
79.2543	3773.682	
79.27715	3744.013	
79.36154	3770.782	
79.3851	3743.067	
79.47525	3782.765	
79.49891	3749.298	
79.58427	3786.878	
79.60737	3750.968	
79.69785	3789.242	
79.72141	3748.173	
79.80723	3769.209	
79.83098	3742.28	
79.91695	3785.3	
79.94012	3744.94	
80.02709	3774.48	
80.05025	3755.743	
80.13728	3788.295	
80.16006	3758.631	
80.24934	3794.922	
80.27322	3752.164	
80.36072	3794.45	
80.38626	3748.345	
80.4675	3784.464	
80.49458	3760.957	
80.58221	3782.683	
80.60493	3762.244	
80.69452	3788.536	
80.71731	3755.951	
80.8003	3790.821	
80.82764	3758.476	
80.91547	3779.412	
80.93882	3759.464	
81.02508	3777.983	
81.04824	3765.556	
81.13808	3788.536	
81.16169	3756.622	
81.24929	3795.711	
81.27244	3753.003	
81.35781	3776.822	
81.38075	3746.377	
81.46762	3787.497	
81.49139	3759.06	
81.57594	3785.465	
81.59864	3759.525	
81.69091	3793.509	
81.71404	3762.541	
81.80058	3783.344	
81.82336	3767.204	
81.90835	3789.707	
81.9333	3751.162	
82.02073	3792.398	
82.04429	3759.542	
82.12943	3791.702	
82.15219	3763.253	
82.23672	3796.373	
82.26328	3759.45	
82.35227	3805.428	
82.37543	3770.138	
82.46098	3811.806	
82.4854	3767.262	
82.57425	3800.915	
82.5965	3781.074	
82.67968	3814.908	
82.70265	3771.815	
82.79073	3804.57	
82.81428	3767.682	
82.90167	3810.721	
82.92818	3771.571	
83.01296	3794.385	
83.03632	3783.537	
83.12312	3812.719	
83.14835	3769.459	
83.23252	3809.969	
83.25639	3775.053	
83.34351	3815.407	
83.36691	3774.474	
83.45199	3822.42	
83.47534	3786.814	
83.56176	3814.345	
83.58458	3785.364	
83.66919	3814.7	
83.69197	3782.232	
83.78085	3827.709	
83.80438	3788.645	
83.89382	3817.902	
83.91696	3775.25	
84.0029	3810.283	
84.02672	3776.923	
84.11411	3801.966	
84.13692	3773.334	
84.22691	3812.983	
84.25029	3774.913	
84.33615	3814.027	
84.3609	3783.726	
84.44688	3807.754	
84.47018	3768.543	
84.5561	3810.008	
84.58221	3781.386	
84.66881	3808.641	
84.69225	3770.065	
84.78003	3811.088	
84.80326	3776.15	
84.88872	3809.45	
84.91544	3774.349	
85.0034	3817.033	
85.02631	3785.056	
85.11202	3807.046	
85.13513	3783.813	
85.22267	3811.441	
85.24604	3764.043	
85.33236	3809.437	
85.35574	3762.779	
85.44203	3810.49	
85.46545	3773.723	
85.54984	3801.751	
85.57271	3765.587	
85.6586	3791.873	
85.68217	3776.612	
85.77048	3787.419	
85.79595	3748.408	
85.88014	3783.37	
85.90332	3761.798	
85.98801	3796.563	
86.01515	3750.315	
86.10156	3787.878	
86.12543	3741.721	
86.21289	3775.837	
86.23616	3753.175	
86.32249	3769.315	
86.34644	3734.526	
86.43243	3762.912	
86.4556	3739.844	
86.54204	3762.63	
86.56499	3730.625	
86.65036	3754.732	
86.67347	3726.68	
86.76008	3756.68	
86.78371	3712.557	
86.87142	3751.07	
86.89406	3720.736	
86.97997	3744.421	
87.00307	3705.579	
87.08859	3741.211	
87.11224	3688.7	
87.20075	3733.926	
87.22359	3691.675	
87.30883	3737.36	
87.33237	3693.818	
87.41853	3709.904	
87.4421	3678.676	
87.52839	3700.552	
87.55399	3674.999	
87.63873	3709.514	
87.66197	3674.34	
87.74763	3695.851	
87.77124	3662.355	
87.8573	3698.489	
87.88097	3660.026	
87.96867	3695.815	
87.99168	3657.776	
88.07618	3677.55	
88.09961	3634.261	
88.18655	3668.397	
88.20936	3635.273	
88.2951	3678.207	
88.31873	3630.303	
88.40501	3663.479	
88.4281	3623.258	
88.5166	3657.471	
88.53916	3619.779	
88.62407	3645.917	
88.64706	3602.404	
88.73354	3635.754	
88.7569	3603.733	
88.84346	3641.043	
88.86594	3589.907	
88.95289	3620.876	
88.97701	3586.511	
89.06256	3613.445	
89.08913	3583.681	
89.1727	3604.954	
89.19617	3574.89	
89.28249	3603.119	
89.30605	3572.709	
89.39266	3603.52	
89.4156	3556.832	
89.50115	3595.878	
89.52439	3559.634	
89.61103	3586.498	
89.63332	3550.254	
89.71811	3574.575	
89.74168	3540.914	
89.83075	3565.379	
89.85487	3531.524	
89.93852	3560.528	
89.96178	3530.208	
90.05029	3559.688	
90.07312	3518.869	
90.15748	3540.986	
90.18069	3510.849	
90.26878	3548.852	
90.29242	3502.077	
90.37895	3535.592	
90.40201	3507.23	
90.48763	3519.336	
90.51152	3494.064	
90.59716	3521.667	
90.61946	3491.761	
90.7057	3514.546	
90.72895	3477.611	
90.81666	3491.532	
90.8401	3472.406	
90.92585	3498.703	
90.94881	3470.582	
91.03532	3486.523	
91.05835	3456.367	
91.1456	3474.382	
91.16863	3431.684	
91.25341	3464.464	
91.27721	3431.331	
91.36484	3463.561	
91.38822	3420.337	
91.47353	3455.499	
91.49664	3410.063	
91.58429	3442.223	
91.60763	3408.436	
91.69307	3434.627	
91.71632	3398.435	
91.80193	3435.389	
91.82533	3392.533	
91.91289	3429.046	
91.93664	3372.821	
92.0225	3419.881	
92.04539	3374.49	
92.13238	3414.56	
92.15533	3368.437	
92.24192	3393.054	
92.26513	3353.954	
92.35078	3388.849	
92.37424	3361.947	
92.46011	3387.695	
92.48309	3355.646	
92.57085	3379.38	
92.59409	3342.683	
92.67825	3363.855	
92.70161	3337.245	
92.78875	3360.932	
92.81191	3319.206	
92.89929	3360.529	
92.92248	3314.708	
93.00957	3355.343	
93.03249	3313.052	
93.11818	3338.827	
93.14141	3300.204	
93.22765	3324.782	
93.25091	3278.626	
93.33543	3328.541	
93.36078	3287.788	
93.44772	3310.354	
93.47095	3270.935	
93.556	3305.379	
93.58289	3265.861	
93.6654	3290.55	
93.68846	3259.502	
93.77515	3286.375	
93.79858	3249.584	
93.88412	3280.008	
93.90701	3246.952	
93.99281	3267.39	
94.01569	3234.392	
94.09621	3253.339	
94.11784	3221.472	
94.19971	3259.484	
94.22063	3220.874	
94.2973	3238.429	
94.31831	3207.934	
94.39584	3237.823	
94.41575	3202.099	
94.48438	3229.391	
94.50423	3193.361	
94.56699	3224.895	
94.58399	3178.491	
94.64584	3214.11	
94.66164	3183.549	
94.71593	3210.111	
94.73042	3177.536	
94.78253	3215.421	
94.79462	3174.433	
94.83875	3197.657	
94.85024	3171.735	
94.8891	3193.258	
94.89796	3169.771	
94.9284	3197.88	
94.936	3166.146	
94.95965	3187.816	
94.96573	3165.577	
94.9856	3198.957	
94.98914	3162.485	
