T[Â°C]	350nm [counts / mm]	S.D.	First derivative	S.D. of first derivative
20.00055	4111.376		-55.7946	
20.05466	4108.039		-55.8078	
20.10877	4104.709		-55.82048	
20.16287	4101.386		-55.83263	
20.21698	4098.071		-55.84421	
20.27109	4094.765		-55.85522	
20.3252	4091.469		-55.86564	
20.37931	4088.182		-55.87546	
20.43341	4084.904		-55.88467	
20.48752	4081.637		-55.89325	
20.54163	4078.379		-55.90121	
20.59574	4075.129		-55.90853	
20.64985	4071.886		-55.9152	
20.70395	4068.648		-55.92123	
20.75806	4065.413		-55.92661	
20.81217	4062.177		-55.93134	
20.86628	4058.941		-55.93542	
20.92038	4055.71		-55.93887	
20.97449	4052.729		-55.94168	
21.0286	4049.803		-55.94388	
21.08271	4046.927		-55.94547	
21.13682	4044.085		-55.94647	
21.19092	4041.26		-55.94691	
21.24503	4038.438		-55.9468	
21.29914	4035.607		-55.94619	
21.35325	4032.754		-55.9451	
21.40735	4029.87		-55.94358	
21.46146	4026.948		-55.94167	
21.51557	4023.981		-55.93942	
21.56968	4020.969		-55.93689	
21.62379	4017.915		-55.93414	
21.67789	4014.827		-55.93126	
21.732	4011.708		-55.92832	
21.78611	4008.561		-55.92542	
21.84022	4005.38		-55.92265	
21.89433	4002.166		-55.92012	
21.94843	3998.916		-55.91794	
22.00254	3995.628		-55.91624	
22.05665	3992.299		-55.91514	
22.11076	3988.933		-55.91477	
22.16486	3985.545		-55.91524	
22.21897	3982.149		-55.91667	
22.27308	3978.764		-55.91912	
22.32719	3975.412		-55.92262	
22.38129	3972.112		-55.92708	
22.4354	3968.882		-55.93229	
22.48951	3965.736		-55.93779	
22.54362	3962.682		-55.94287	
22.59773	3959.713		-55.94667	
22.65183	3956.817		-55.94895	
22.70594	3953.975		-55.95274	
22.76005	3951.167		-55.95804	
22.81416	3948.369		-55.96488	
22.86827	3945.56		-55.97323	
22.92237	3942.722		-55.98307	
22.97648	3939.851		-55.99435	
23.03059	3936.962		-56.007	
23.0847	3934.072		-56.02095	
23.1388	3931.188		-56.03614	
23.19291	3928.317		-56.05251	
23.24702	3925.46		-56.06995	
23.30113	3922.615		-56.08844	
23.35524	3919.778		-56.10794	
23.40934	3916.941		-56.12846	
23.46345	3914.091		-56.15002	
23.51756	3911.218		-56.1726	
23.57167	3908.315		-56.1962	
23.62577	3905.374		-56.22079	
23.67988	3902.388		-56.24632	
23.73399	3899.359		-56.27274	
23.7881	3896.292		-56.29997	
23.84221	3893.2		-56.32796	
23.89631	3890.095		-56.35662	
23.95042	3886.992		-56.38585	
24.00453	3883.904		-56.41552	
24.05864	3880.842		-56.44553	
24.11275	3877.806		-56.47573	
24.16685	3874.8		-56.506	
24.22096	3871.826		-56.53619	
24.27507	3868.876		-56.56615	
24.32918	3865.932		-56.59568	
24.38328	3862.974		-56.62457	
24.43739	3859.987		-56.65258	
24.4915	3856.963		-56.67949	
24.54561	3853.898		-56.70507	
24.59971	3850.792		-56.72915	
24.65382	3847.652		-56.75154	
24.70793	3844.49		-56.77212	
24.76204	3841.318		-56.79076	
24.81615	3838.145		-56.80737	
24.87025	3834.972		-56.82184	
24.92436	3831.793		-56.83404	
24.97847	3828.609		-56.84381	
25.03258	3825.416		-56.85101	
25.08669	3822.208		-56.85547	
25.14079	3818.98		-56.85703	
25.1949	3815.726		-56.85552	
25.24901	3812.446		-56.85079	
25.30312	3809.146		-56.8427	
25.35722	3805.834		-56.83116	
25.41133	3802.518		-56.81605	
25.46544	3799.21		-56.79729	
25.51955	3795.916		-56.77481	
25.57366	3792.637		-56.74857	
25.62776	3789.375		-56.71856	
25.68187	3786.13		-56.6848	
25.73598	3782.912		-56.6473	
25.79009	3779.724		-56.60609	
25.84419	3776.563		-56.56118	
25.8983	3773.424		-56.51261	
25.95241	3770.298		-56.46036	
26.00652	3767.188		-56.40446	
26.06063	3764.102		-56.34494	
26.11473	3761.046		-56.2819	
26.16884	3758.029		-56.21549	
26.22295	3755.059		-56.14589	
26.27706	3752.139		-56.07335	
26.33117	3749.268		-55.99813	
26.38527	3746.438		-55.92059	
26.43938	3743.647		-55.84105	
26.49349	3740.891		-55.75991	
26.5476	3738.156		-55.6776	
26.6017	3735.421		-55.59461	
26.65581	3732.667		-55.51146	
26.70992	3729.874		-55.42878	
26.76403	3727.038		-55.34722	
26.81813	3724.156		-55.26746	
26.87224	3721.229		-55.19017	
26.92635	3718.267		-55.11599	
26.98046	3715.285		-55.04554	
27.03457	3712.293		-54.97939	
27.08867	3709.296		-54.91804	
27.14278	3706.295		-54.86185	
27.19689	3703.286		-54.81108	
27.251	3700.269		-54.76583	
27.30511	3697.244		-54.72605	
27.35921	3694.212		-54.69156	
27.41332	3691.182		-54.66205	
27.46743	3688.16		-54.63718	
27.52154	3685.145		-54.61659	
27.57564	3682.135		-54.59988	
27.62975	3679.133		-54.58667	
27.68386	3676.152		-54.57652	
27.73797	3673.2		-54.569	
27.79208	3670.286		-54.56369	
27.84618	3667.411		-54.56016	
27.90029	3664.571		-54.55799	
27.9544	3661.756		-54.55676	
28.00851	3658.961		-54.55607	
28.06261	3656.179		-54.55555	
28.11672	3653.409		-54.55484	
28.17083	3650.641		-54.55359	
28.22494	3647.869		-54.55148	
28.27905	3645.085		-54.54824	
28.33315	3642.28		-54.54359	
28.38726	3639.448		-54.53729	
28.44137	3636.592		-54.52907	
28.49548	3633.716		-54.51874	
28.54959	3630.821		-54.50615	
28.60369	3627.906		-54.49129	
28.6578	3624.959		-54.47422	
28.71191	3621.968		-54.45514	
28.76602	3618.926		-54.43429	
28.82012	3615.831		-54.41197	
28.87423	3612.684		-54.38855	
28.92834	3609.493		-54.36441	
28.98245	3606.271		-54.33997	
29.03655	3603.039		-54.31567	
29.09066	3599.815		-54.29184	
29.14477	3596.613		-54.26879	
29.19888	3593.436		-54.24667	
29.25299	3590.279		-54.22556	
29.30709	3587.137		-54.20544	
29.3612	3584.011		-54.18622	
29.41531	3580.905		-54.1678	
29.46942	3577.825		-54.15005	
29.52353	3574.771		-54.13287	
29.57763	3571.749		-54.11609	
29.63174	3568.767		-54.09957	
29.68585	3565.831		-54.08314	
29.73996	3562.945		-54.06668	
29.79406	3560.116		-54.05011	
29.84817	3557.342		-54.03338	
29.90228	3554.622		-54.01653	
29.95639	3551.944		-53.99963	
30.0105	3549.285		-53.98279	
30.0646	3546.622		-53.96613	
30.11871	3543.939		-53.94976	
30.17282	3541.227		-53.93375	
30.22693	3538.483		-53.91818	
30.28103	3535.703		-53.90311	
30.33514	3532.881		-53.88853	
30.38925	3530.02		-53.8744	
30.44336	3527.134		-53.86063	
30.49747	3524.227		-53.84716	
30.55157	3521.31		-53.83397	
30.60568	3518.392		-53.82107	
30.65979	3515.483		-53.80847	
30.7139	3512.584		-53.7962	
30.76801	3509.694		-53.78433	
30.82211	3506.808		-53.77293	
30.87622	3503.92		-53.76213	
30.93033	3501.028		-53.75212	
30.98444	3498.13		-53.74308	
31.03854	3495.228		-53.7352	
31.09265	3492.322		-53.7286	
31.14676	3489.41		-53.72335	
31.20087	3486.493		-53.71945	
31.25497	3483.575		-53.71682	
31.30908	3480.669		-53.71535	
31.36319	3477.782		-53.71493	
31.4173	3474.921		-53.7154	
31.47141	3472.083		-53.71657	
31.52551	3469.262		-53.71823	
31.57962	3466.456		-53.7201	
31.63373	3463.656		-53.7219	
31.68784	3460.853		-53.72329	
31.74195	3458.043		-53.72395	
31.79605	3455.223		-53.72356	
31.85016	3452.39		-53.72183	
31.90427	3449.538		-53.71851	
31.95838	3446.655		-53.7134	
32.01249	3443.725		-53.70637	
32.06659	3440.737		-53.69732	
32.1207	3437.69		-53.68623	
32.17481	3434.595		-53.67315	
32.22892	3431.459		-53.65816	
32.28302	3428.289		-53.64141	
32.33713	3425.094		-53.62302	
32.39124	3421.893		-53.60314	
32.44535	3418.705		-53.58192	
32.49945	3415.548		-53.55946	
32.55356	3412.435		-53.53579	
32.60767	3409.376		-53.51088	
32.66178	3406.375		-53.48461	
32.71589	3403.427		-53.45686	
32.76999	3400.515		-53.42746	
32.8241	3397.622		-53.39629	
32.87821	3394.737		-53.36322	
32.93232	3391.856		-53.32816	
32.98642	3388.977		-53.29108	
33.04053	3386.099		-53.25198	
33.09464	3383.222		-53.21091	
33.14875	3380.35		-53.16793	
33.20286	3377.492		-53.12312	
33.25697	3374.662		-53.0766	
33.31107	3371.87		-53.02851	
33.36518	3369.117		-52.97903	
33.41929	3366.397		-52.92833	
33.4734	3363.699		-52.87662	
33.5275	3361.009		-52.82411	
33.58161	3358.319		-52.77102	
33.63572	3355.618		-52.71755	
33.68983	3352.899		-52.66385	
33.74393	3350.16		-52.61007	
33.79804	3347.398		-52.55634	
33.85215	3344.603		-52.50278	
33.90626	3341.774		-52.44952	
33.96037	3338.915		-52.39671	
34.01447	3336.03		-52.34448	
34.06858	3333.135		-52.29301	
34.12269	3330.244		-52.2425	
34.1768	3327.371		-52.19316	
34.2309	3324.523		-52.14526	
34.28501	3321.699		-52.09905	
34.33912	3318.897		-52.0548	
34.39323	3316.115		-52.01274	
34.44733	3313.352		-51.97301	
34.50144	3310.601		-51.93567	
34.55555	3307.852		-51.90066	
34.60966	3305.093		-51.86781	
34.66377	3302.319		-51.8369	
34.71788	3299.526		-51.80765	
34.77198	3296.716		-51.77972	
34.82609	3293.898		-51.75278	
34.8802	3291.086		-51.72651	
34.93431	3288.29		-51.70063	
34.98841	3285.51		-51.67492	
35.04252	3282.745		-51.64922	
35.09663	3279.991		-51.62344	
35.15074	3277.249		-51.59753	
35.20485	3274.518		-51.57149	
35.25895	3271.797		-51.54533	
35.31306	3269.085		-51.51908	
35.36717	3266.371		-51.49281	
35.42128	3263.635		-51.46656	
35.47538	3260.863		-51.44044	
35.52949	3258.046		-51.41453	
35.5836	3255.178		-51.38892	
35.63771	3252.263		-51.36369	
35.69181	3249.321		-51.33892	
35.74592	3246.381		-51.31473	
35.80003	3243.461		-51.29124	
35.85414	3240.575		-51.26858	
35.90825	3237.733		-51.24687	
35.96235	3234.934		-51.22619	
36.01646	3232.167		-51.20662	
36.07057	3229.418		-51.18825	
36.12468	3226.67		-51.17114	
36.17879	3223.908		-51.1554	
36.23289	3221.12		-51.14109	
36.287	3218.298		-51.1283	
36.34111	3215.44		-51.11707	
36.39522	3212.551		-51.10738	
36.44933	3209.646		-51.09919	
36.50343	3206.745		-51.09241	
36.55754	3203.867		-51.08691	
36.61165	3201.033		-51.08252	
36.66576	3198.256		-51.07907	
36.71986	3195.546		-51.07635	
36.77397	3192.898		-51.07412	
36.82808	3190.305		-51.07214	
36.88219	3187.753		-51.07021	
36.93629	3185.222		-51.06809	
36.9904	3182.694		-51.06565	
37.04451	3180.152		-51.06276	
37.09862	3177.59		-51.05929	
37.15273	3175.003		-51.05516	
37.20683	3172.39		-51.05026	
37.26094	3169.752		-51.04452	
37.31505	3167.091		-51.03784	
37.36916	3164.404		-51.03014	
37.42326	3161.698		-51.02133	
37.47738	3158.981		-51.01129	
37.53148	3156.257		-50.99988	
37.58559	3153.513		-50.98698	
37.6397	3150.744		-50.97247	
37.69381	3147.948		-50.95624	
37.74791	3145.125		-50.93822	
37.80202	3142.274		-50.91831	
37.85613	3139.4		-50.89644	
37.91024	3136.516		-50.87252	
37.96434	3133.633		-50.84652	
38.01845	3130.76		-50.81841	
38.07256	3127.902		-50.78823	
38.12667	3125.062		-50.75603	
38.18077	3122.237		-50.72193	
38.23488	3119.429		-50.68607	
38.28899	3116.638		-50.64864	
38.3431	3113.863		-50.60989	
38.39721	3111.102		-50.57007	
38.45131	3108.351		-50.52945	
38.50542	3105.6		-50.4883	
38.55953	3102.843		-50.44684	
38.61364	3100.076		-50.40527	
38.66774	3097.308		-50.3637	
38.72185	3094.544		-50.32224	
38.77596	3091.789		-50.28087	
38.83007	3089.042		-50.2396	
38.88417	3086.297		-50.1984	
38.93829	3083.542		-50.15723	
38.99239	3080.771		-50.11605	
39.0465	3077.972		-50.07483	
39.10061	3075.144		-50.03354	
39.15472	3072.292		-49.99217	
39.20882	3069.424		-49.95074	
39.26293	3066.556		-49.90923	
39.31704	3063.697		-49.86766	
39.37115	3060.855		-49.82599	
39.42525	3058.039		-49.78419	
39.47936	3055.252		-49.74222	
39.53347	3052.492		-49.7	
39.58758	3049.757		-49.65747	
39.64169	3047.05		-49.61456	
39.69579	3044.377		-49.57114	
39.7499	3041.74		-49.52712	
39.80401	3039.143		-49.48236	
39.85812	3036.587		-49.43677	
39.91222	3034.074		-49.39023	
39.96633	3031.605		-49.34269	
40.02044	3029.177		-49.29417	
40.07455	3026.787		-49.24474	
40.12865	3024.423		-49.19458	
40.18276	3022.075		-49.14397	
40.23687	3019.726		-49.09333	
40.29098	3017.362		-49.04318	
40.34509	3014.969		-48.99412	
40.3992	3012.54		-48.94679	
40.4533	3010.067		-48.90186	
40.50741	3007.542		-48.85995	
40.56152	3004.965		-48.82162	
40.61563	3002.343		-48.78736	
40.66973	2999.681		-48.75758	
40.72384	2996.983		-48.73261	
40.77795	2994.257		-48.7127	
40.83206	2991.51		-48.69803	
40.88617	2988.749		-48.68868	
40.94027	2985.978		-48.68464	
40.99438	2983.204		-48.68578	
41.04849	2980.435		-48.69191	
41.1026	2977.669		-48.70273	
41.1567	2974.908		-48.71791	
41.21081	2972.155		-48.73702	
41.26492	2969.411		-48.75957	
41.31903	2966.676		-48.78499	
41.37313	2963.954		-48.81266	
41.42724	2961.247		-48.84188	
41.48135	2958.558		-48.87189	
41.53546	2955.888		-48.90189	
41.58957	2953.234		-48.93101	
41.64367	2950.59		-48.95837	
41.69778	2947.955		-48.9831	
41.75189	2945.33		-49.00431	
41.806	2942.721		-49.02117	
41.86011	2940.133		-49.03286	
41.91422	2937.568		-49.03861	
41.96832	2935.027		-49.03776	
42.02243	2932.508		-49.02969	
42.07654	2930.006		-49.01394	
42.13065	2927.519		-48.99017	
42.18475	2925.04		-48.95821	
42.23886	2922.563		-48.91812	
42.29297	2920.08		-48.8701	
42.34708	2917.578		-48.81456	
42.40118	2915.041		-48.75199	
42.45529	2912.451		-48.68305	
42.5094	2909.792		-48.60847	
42.56351	2907.059		-48.52906	
42.61761	2904.255		-48.44569	
42.67172	2901.392		-48.35928	
42.72583	2898.484		-48.27075	
42.77994	2895.553		-48.18102	
42.83405	2892.617		-48.09097	
42.88815	2889.689		-48.00139	
42.94226	2886.785		-47.91301	
42.99637	2883.918		-47.82641	
43.05048	2881.088		-47.74206	
43.10458	2878.288		-47.66032	
43.15869	2875.514		-47.58142	
43.2128	2872.758		-47.50554	
43.26691	2870.007		-47.43274	
43.32102	2867.25		-47.36302	
43.37513	2864.487		-47.29631	
43.42923	2861.729		-47.23246	
43.48334	2858.992		-47.17129	
43.53745	2856.301		-47.1126	
43.59156	2853.669		-47.05618	
43.64566	2851.107		-47.00182	
43.69977	2848.617		-46.94935	
43.75388	2846.204		-46.89861	
43.80799	2843.868		-46.84948	
43.86209	2841.606		-46.80182	
43.9162	2839.411		-46.75546	
43.97031	2837.269		-46.71024	
44.02442	2835.164		-46.66599	
44.07853	2833.075		-46.62257	
44.13263	2830.983		-46.57988	
44.18674	2828.868		-46.53788	
44.24085	2826.713		-46.49664	
44.29496	2824.506		-46.4563	
44.34906	2822.245		-46.41709	
44.40317	2819.934		-46.37935	
44.45728	2817.587		-46.34348	
44.51139	2815.215		-46.30996	
44.56549	2812.829		-46.27928	
44.6196	2810.432		-46.25197	
44.67371	2808.022		-46.22856	
44.72782	2805.59		-46.20956	
44.78193	2803.125		-46.19539	
44.83604	2800.621		-46.18641	
44.89014	2798.074		-46.18286	
44.94425	2795.493		-46.18483	
44.99836	2792.888		-46.19227	
45.05247	2790.268		-46.20498	
45.10658	2787.642		-46.22263	
45.16068	2785.023		-46.24481	
45.21479	2782.419		-46.27102	
45.2689	2779.836		-46.30068	
45.32301	2777.273		-46.3332	
45.37711	2774.728		-46.36796	
45.43122	2772.19		-46.40435	
45.48533	2769.659		-46.44178	
45.53944	2767.141		-46.47968	
45.59354	2764.642		-46.51753	
45.64765	2762.164		-46.55482	
45.70176	2759.706		-46.59104	
45.75587	2757.26		-46.62572	
45.80997	2754.813		-46.65837	
45.86408	2752.348		-46.68852	
45.91819	2749.853		-46.71571	
45.9723	2747.319		-46.73953	
46.02641	2744.744		-46.75963	
46.08051	2742.134		-46.7757	
46.13462	2739.501		-46.78741	
46.18873	2736.856		-46.79452	
46.24284	2734.202		-46.79679	
46.29695	2731.531		-46.79409	
46.35106	2728.837		-46.78635	
46.40516	2726.123		-46.77364	
46.45927	2723.394		-46.75612	
46.51338	2720.654		-46.73405	
46.56749	2717.909		-46.70782	
46.62159	2715.168		-46.67786	
46.6757	2712.44		-46.6447	
46.72981	2709.729		-46.60888	
46.78392	2707.032		-46.57091	
46.83802	2704.346		-46.53128	
46.89213	2701.669		-46.49042	
46.94624	2699.002		-46.44868	
47.00035	2696.354		-46.40636	
47.05445	2693.735		-46.36367	
47.10856	2691.152		-46.3208	
47.16267	2688.612		-46.27788	
47.21678	2686.118		-46.23498	
47.27089	2683.676		-46.19215	
47.32499	2681.29		-46.14941	
47.3791	2678.955		-46.10679	
47.43321	2676.657		-46.0643	
47.48732	2674.384		-46.02202	
47.54142	2672.124		-45.98	
47.59553	2669.869		-45.93834	
47.64964	2667.608		-45.89711	
47.70375	2665.328		-45.85637	
47.75786	2663.025		-45.81621	
47.81197	2660.695		-45.77669	
47.86607	2658.338		-45.73793	
47.92018	2655.961		-45.70006	
47.97429	2653.567		-45.66325	
48.0284	2651.155		-45.62767	
48.0825	2648.728		-45.59344	
48.13661	2646.293		-45.56069	
48.19072	2643.861		-45.52951	
48.24483	2641.442		-45.49996	
48.29893	2639.034		-45.47207	
48.35304	2636.637		-45.44588	
48.40715	2634.247		-45.42136	
48.46126	2631.856		-45.3985	
48.51537	2629.455		-45.37725	
48.56947	2627.035		-45.35752	
48.62358	2624.598		-45.33923	
48.67769	2622.151		-45.32228	
48.7318	2619.704		-45.30654	
48.7859	2617.267		-45.2919	
48.84001	2614.841		-45.27821	
48.89412	2612.421		-45.26534	
48.94823	2609.998		-45.25315	
49.00233	2607.563		-45.24151	
49.05644	2605.116		-45.2303	
49.11055	2602.663		-45.21935	
49.16466	2600.201		-45.20844	
49.21877	2597.727		-45.19736	
49.27288	2595.239		-45.18584	
49.32698	2592.74		-45.1736	
49.38109	2590.229		-45.16034	
49.4352	2587.708		-45.14574	
49.48931	2585.181		-45.12952	
49.54342	2582.652		-45.11139	
49.59752	2580.123		-45.09114	
49.65163	2577.59		-45.06857	
49.70574	2575.049		-45.04355	
49.75985	2572.499		-45.016	
49.81395	2569.934		-44.98589	
49.86806	2567.357		-44.95324	
49.92217	2564.775		-44.91816	
49.97628	2562.198		-44.88072	
50.03038	2559.631		-44.84108	
50.08449	2557.072		-44.79939	
50.1386	2554.522		-44.75583	
50.19271	2551.988		-44.71059	
50.24681	2549.474		-44.66381	
50.30092	2546.988		-44.61564	
50.35503	2544.531		-44.56619	
50.40914	2542.098		-44.51555	
50.46325	2539.683		-44.46379	
50.51735	2537.281		-44.41093	
50.57146	2534.887		-44.35699	
50.62557	2532.5		-44.30197	
50.67968	2530.119		-44.24587	
50.73379	2527.74		-44.18871	
50.7879	2525.36		-44.13054	
50.842	2522.984		-44.07147	
50.89611	2520.617		-44.01165	
50.95022	2518.268		-43.95128	
51.00433	2515.945		-43.89059	
51.05843	2513.66		-43.82982	
51.11254	2511.418		-43.76921	
51.16665	2509.209		-43.70905	
51.22076	2507.02		-43.64957	
51.27486	2504.836		-43.59106	
51.32897	2502.643		-43.53376	
51.38308	2500.432		-43.47786	
51.43719	2498.198		-43.42353	
51.49129	2495.943		-43.3709	
51.5454	2493.669		-43.32007	
51.59951	2491.378		-43.27114	
51.65362	2489.078		-43.22418	
51.70773	2486.774		-43.17924	
51.76183	2484.471		-43.13636	
51.81594	2482.168		-43.09556	
51.87005	2479.865		-43.05688	
51.92416	2477.564		-43.02035	
51.97826	2475.266		-42.98601	
52.03237	2472.966		-42.95383	
52.08648	2470.655		-42.92376	
52.14059	2468.331		-42.89569	
52.1947	2465.992		-42.86941	
52.24881	2463.645		-42.84469	
52.30291	2461.298		-42.82124	
52.35702	2458.953		-42.79879	
52.41113	2456.608		-42.777	
52.46524	2454.26		-42.75556	
52.51934	2451.916		-42.73416	
52.57345	2449.583		-42.71247	
52.62756	2447.27		-42.69023	
52.68167	2444.984		-42.66717	
52.73577	2442.725		-42.64311	
52.78988	2440.488		-42.61792	
52.84399	2438.26		-42.59152	
52.8981	2436.025		-42.5639	
52.95221	2433.766		-42.5351	
53.00631	2431.47		-42.50515	
53.06042	2429.134		-42.47417	
53.11453	2426.763		-42.44229	
53.16864	2424.374		-42.40968	
53.22274	2421.98		-42.37652	
53.27685	2419.59		-42.34299	
53.33096	2417.208		-42.3093	
53.38507	2414.827		-42.27562	
53.43917	2412.44		-42.24212	
53.49329	2410.044		-42.20898	
53.54739	2407.643		-42.17635	
53.6015	2405.242		-42.14436	
53.65561	2402.852		-42.11309	
53.70972	2400.479		-42.08259	
53.76382	2398.123		-42.05287	
53.81793	2395.78		-42.02391	
53.87204	2393.443		-41.99568	
53.92615	2391.113		-41.96813	
53.98026	2388.794		-41.94118	
54.03436	2386.491		-41.91474	
54.08847	2384.206		-41.88865	
54.14258	2381.939		-41.86273	
54.19669	2379.689		-41.83678	
54.25079	2377.458		-41.81057	
54.3049	2375.244		-41.78388	
54.35901	2373.042		-41.75644	
54.41312	2370.845		-41.72797	
54.46722	2368.654		-41.69819	
54.52133	2366.472		-41.66686	
54.57544	2364.302		-41.63376	
54.62955	2362.147		-41.59874	
54.68365	2360.013		-41.56171	
54.73776	2357.901		-41.52267	
54.79187	2355.811		-41.48168	
54.84598	2353.741		-41.43891	
54.90009	2351.693		-41.39458	
54.9542	2349.662		-41.34898	
55.0083	2347.633		-41.30246	
55.06241	2345.593		-41.25542	
55.11652	2343.523		-41.20831	
55.17063	2341.409		-41.16158	
55.22474	2339.247		-41.11568	
55.27884	2337.042		-41.07105	
55.33295	2334.802		-41.02812	
55.38706	2332.53		-40.98728	
55.44117	2330.229		-40.94889	
55.49527	2327.905		-40.91329	
55.54938	2325.562		-40.88072	
55.60349	2323.206		-40.85134	
55.6576	2320.844		-40.82524	
55.7117	2318.484		-40.80244	
55.76581	2316.135		-40.78284	
55.81992	2313.801		-40.76628	
55.87403	2311.478		-40.75249	
55.92813	2309.158		-40.74115	
55.98224	2306.836		-40.73187	
56.03635	2304.504		-40.72417	
56.09046	2302.164		-40.71757	
56.14457	2299.828		-40.71156	
56.19867	2297.509		-40.7056	
56.25278	2295.22		-40.69915	
56.30689	2292.973		-40.69162	
56.361	2290.774		-40.68243	
56.41511	2288.618		-40.67097	
56.46922	2286.5		-40.65664	
56.52332	2284.409		-40.63884	
56.57743	2282.34		-40.617	
56.63154	2280.29		-40.59063	
56.68565	2278.258		-40.55933	
56.73975	2276.234		-40.52281	
56.79386	2274.203		-40.48087	
56.84797	2272.155		-40.43345	
56.90208	2270.083		-40.38057	
56.95618	2267.986		-40.32238	
57.01029	2265.872		-40.25911	
57.0644	2263.747		-40.19115	
57.11851	2261.608		-40.11898	
57.17262	2259.451		-40.04321	
57.22672	2257.273		-39.96449	
57.28083	2255.074		-39.88355	
57.33494	2252.854		-39.80113	
57.38905	2250.61		-39.71797	
57.44315	2248.345		-39.6348	
57.49726	2246.062		-39.55231	
57.55137	2243.763		-39.47115	
57.60548	2241.451		-39.39192	
57.65958	2239.131		-39.31516	
57.71369	2236.813		-39.24133	
57.7678	2234.506		-39.17079	
57.82191	2232.219		-39.10383	
57.87602	2229.957		-39.04063	
57.93013	2227.722		-38.98124	
57.98423	2225.51		-38.92564	
58.03834	2223.316		-38.87372	
58.09245	2221.141		-38.8253	
58.14656	2218.989		-38.78013	
58.20066	2216.858		-38.73792	
58.25477	2214.751		-38.69833	
58.30888	2212.67		-38.66097	
58.36299	2210.618		-38.62544	
58.4171	2208.595		-38.59129	
58.4712	2206.599		-38.55807	
58.52531	2204.628		-38.52535	
58.57942	2202.683		-38.49271	
58.63353	2200.766		-38.45977	
58.68763	2198.876		-38.4262	
58.74174	2197.008		-38.39172	
58.79585	2195.159		-38.35608	
58.84996	2193.32		-38.31907	
58.90406	2191.483		-38.28051	
58.95817	2189.642		-38.24028	
59.01228	2187.794		-38.19833	
59.06639	2185.94		-38.15469	
59.12049	2184.072		-38.10947	
59.1746	2182.179		-38.06287	
59.22871	2180.251		-38.01514	
59.28282	2178.279		-37.96659	
59.33693	2176.258		-37.91756	
59.39104	2174.194		-37.86843	
59.44514	2172.095		-37.81963	
59.49925	2169.972		-37.77157	
59.55336	2167.832		-37.7247	
59.60747	2165.683		-37.67941	
59.66158	2163.529		-37.63603	
59.71568	2161.377		-37.59483	
59.76979	2159.231		-37.556	
59.8239	2157.099		-37.51962	
59.87801	2154.982		-37.48566	
59.93211	2152.879		-37.45401	
59.98622	2150.781		-37.42441	
60.04033	2148.679		-37.39657	
60.09444	2146.566		-37.37009	
60.14854	2144.438		-37.34453	
60.20265	2142.293		-37.3194	
60.25676	2140.139		-37.29418	
60.31087	2137.981		-37.26833	
60.36497	2135.827		-37.24131	
60.41908	2133.689		-37.21263	
60.47319	2131.58		-37.18182	
60.5273	2129.507		-37.14843	
60.58141	2127.475		-37.11205	
60.63551	2125.483		-37.07231	
60.68962	2123.53		-37.02882	
60.74373	2121.608		-36.98123	
60.79784	2119.704		-36.92917	
60.85195	2117.804		-36.87229	
60.90606	2115.892		-36.81025	
60.96016	2113.949		-36.74272	
61.01427	2111.969		-36.66939	
61.06838	2109.953		-36.59001	
61.12249	2107.915		-36.50437	
61.17659	2105.87		-36.41232	
61.2307	2103.828		-36.31376	
61.28481	2101.799		-36.20868	
61.33892	2099.789		-36.09713	
61.39302	2097.8		-35.97927	
61.44713	2095.832		-35.85529	
61.50124	2093.884		-35.72547	
61.55535	2091.954		-35.59011	
61.60946	2090.036		-35.44957	
61.66356	2088.12		-35.30419	
61.71767	2086.198		-35.15427	
61.77178	2084.265		-35.0001	
61.82589	2082.314		-34.8419	
61.87999	2080.343		-34.6799	
61.9341	2078.355		-34.51429	
61.98821	2076.36		-34.34523	
62.04232	2074.369		-34.17292	
62.09642	2072.393		-33.99749	
62.15053	2070.443		-33.81911	
62.20464	2068.528		-33.63789	
62.25875	2066.652		-33.45392	
62.31286	2064.814		-33.26729	
62.36697	2063.016		-33.07805	
62.42107	2061.26		-32.88625	
62.47518	2059.541		-32.69191	
62.52929	2057.844		-32.49503	
62.5834	2056.155		-32.29555	
62.6375	2054.464		-32.09338	
62.69161	2052.76		-31.88835	
62.74572	2051.039		-31.68023	
62.79983	2049.304		-31.46868	
62.85394	2047.56		-31.25332	
62.90804	2045.808		-31.03365	
62.96215	2044.048		-30.80915	
63.01626	2042.279		-30.57926	
63.07037	2040.506		-30.3434	
63.12447	2038.741		-30.10094	
63.17858	2036.998		-29.85128	
63.23269	2035.291		-29.5938	
63.2868	2033.629		-29.32788	
63.3409	2032.02		-29.05287	
63.39501	2030.459		-28.76815	
63.44912	2028.943		-28.47305	
63.50323	2027.463		-28.16688	
63.55733	2026.007		-27.84896	
63.61144	2024.562		-27.51856	
63.66555	2023.121		-27.17491	
63.71966	2021.681		-26.81719	
63.77377	2020.243		-26.44466	
63.82788	2018.803		-26.05647	
63.88198	2017.364		-25.65185	
63.93609	2015.933		-25.23003	
63.9902	2014.521		-24.79028	
64.0443	2013.135		-24.33196	
64.09841	2011.776		-23.85433	
64.15252	2010.449		-23.35681	
64.20663	2009.152		-22.83876	
64.26073	2007.876		-22.29957	
64.31484	2006.612		-21.7386	
64.36895	2005.352		-21.15525	
64.42307	2004.085		-20.54879	
64.47717	2002.804		-19.91878	
64.53128	2001.5		-19.26445	
64.58539	2000.17		-18.58511	
64.6395	1998.813		-17.88004	
64.6936	1997.433		-17.1485	
64.74771	1996.044		-16.38968	
64.80182	1994.67		-15.60278	
64.85593	1993.333		-14.78696	
64.91003	1992.053		-13.94134	
64.96414	1990.839		-13.06507	
65.01825	1989.693		-12.15732	
65.07236	1988.614		-11.21722	
65.12646	1987.6		-10.24391	
65.18057	1986.651		-9.236523	
65.23468	1985.768		-8.194164	
65.28879	1984.954		-7.115934	
65.3429	1984.212		-6.000906	
65.397	1983.552		-4.848122	
65.45111	1982.979		-3.656592	
65.50522	1982.488		-2.4253	
65.55933	1982.069		-1.153217	
65.61343	1981.717		0.1606748	
65.66754	1981.429		1.517376	
65.72165	1981.206		2.917862	
65.77576	1981.051		4.363082	
65.82986	1980.964		5.853956	
65.88397	1980.952		7.391381	
65.93808	1981.022		8.976236	
65.99219	1981.18		10.60938	
66.0463	1981.427		12.29166	
66.1004	1981.766		14.02391	
66.15451	1982.2		15.80698	
66.20862	1982.738		17.64174	
66.26273	1983.383		19.52905	
66.31683	1984.141		21.46976	
66.37094	1985.007		23.46478	
66.42505	1985.972		25.51498	
66.47916	1987.031		27.62127	
66.53326	1988.181		29.78456	
66.58737	1989.421		32.00575	
66.64148	1990.748		34.28576	
66.69559	1992.166		36.62546	
66.74969	1993.683		39.02572	
66.8038	1995.314		41.48737	
66.85791	1997.072		44.01127	
66.91202	1998.967		46.59822	
66.96613	2001.013		49.24909	
67.02023	2003.225		51.96471	
67.07434	2005.613		54.74594	
67.12845	2008.18		57.59367	
67.18256	2010.918		60.50881	
67.23666	2013.812		63.49226	
67.29077	2016.848		66.54494	
67.34489	2020.022		69.66822	
67.39899	2023.335		72.86212	
67.4531	2026.793		76.12794	
67.50721	2030.402		79.4665	
67.56132	2034.166		82.87859	
67.61543	2038.091		86.36493	
67.66953	2042.186		89.92612	
67.72364	2046.455		93.56268	
67.77775	2050.904		97.27503	
67.83186	2055.541		101.0635	
67.88596	2060.377		104.9282	
67.94007	2065.419		108.8694	
67.99418	2070.673		112.887	
68.04829	2076.137		116.9812	
68.10239	2081.808		121.1518	
68.1565	2087.685		125.3988	
68.21061	2093.77		129.7223	
68.26472	2100.073		134.1219	
68.31882	2106.602		138.5976	
68.37293	2113.369		143.1489	
68.42704	2120.382		147.7753	
68.48115	2127.653		152.4764	
68.53526	2135.194		157.2513	
68.58936	2143.012		162.0993	
68.64347	2151.117		167.0191	
68.69758	2159.52		172.0095	
68.75169	2168.234		177.069	
68.80579	2177.274		182.196	
68.8599	2186.646		187.3886	
68.91401	2196.353		192.6449	
68.96812	2206.388		197.9627	
69.02222	2216.748		203.3398	
69.07633	2227.438		208.7739	
69.13044	2238.458		214.2625	
69.18455	2249.802		219.8029	
69.23866	2261.461		225.3923	
69.29276	2273.432		231.0277	
69.34687	2285.722		236.7057	
69.40098	2298.338		242.4227	
69.45509	2311.289		248.1748	
69.50919	2324.581		253.9578	
69.5633	2338.217		259.7671	
69.61741	2352.203		265.5978	
69.67152	2366.552		271.4448	
69.72562	2381.268		277.3024	
69.77973	2396.355		283.1646	
69.83384	2411.81		289.0252	
69.88795	2427.63		294.8774	
69.94205	2443.811		300.714	
69.99616	2460.351		306.5275	
70.05027	2477.249		312.3098	
70.10438	2494.507		318.0526	
70.15849	2512.125		323.747	
70.21259	2530.107		329.3838	
70.26671	2548.463		334.9542	
70.32082	2567.19		340.4465	
70.37492	2586.293		345.851	
70.42903	2605.777		351.1571	
70.48314	2625.646		356.3536	
70.53725	2645.905		361.4293	
70.59135	2666.556		366.3726	
70.64546	2687.601		371.1718	
70.69957	2709.033		375.8148	
70.75368	2730.839		380.2899	
70.80779	2753.002		384.5849	
70.86189	2775.501		388.6878	
70.916	2798.317		392.5868	
70.97011	2821.437		396.2704	
71.02422	2844.856		399.7273	
71.07832	2868.571		402.9466	
71.13243	2892.575		405.9179	
71.18654	2916.859		408.6311	
71.24065	2941.409		411.0771	
71.29475	2966.216		413.2469	
71.34886	2991.278		415.1327	
71.40297	3016.599		416.7273	
71.45708	3042.184		418.0243	
71.51118	3068.029		419.0184	
71.56529	3094.13		419.7053	
71.6194	3120.474		420.0814	
71.67351	3147.041		420.1446	
71.72762	3173.799		419.8936	
71.78172	3200.71		419.3282	
71.83583	3227.738		418.4492	
71.88994	3254.84		417.2586	
71.94405	3281.975		415.7592	
71.99815	3309.103		413.9547	
72.05226	3336.198		411.8495	
72.10637	3363.234		409.4489	
72.16048	3390.198		406.7588	
72.21458	3417.073		403.7859	
72.26869	3443.844		400.5376	
72.3228	3470.481		397.0215	
72.37691	3496.944		393.2462	
72.43102	3523.178		389.2206	
72.48512	3549.117		384.9539	
72.53923	3574.679		380.4563	
72.59334	3599.783		375.7376	
72.64745	3624.359		370.8084	
72.70155	3648.345		365.6794	
72.75566	3671.688		360.3613	
72.80977	3694.347		354.865	
72.86388	3716.288		349.2016	
72.91798	3737.493		343.382	
72.97209	3757.958		337.4172	
73.0262	3777.691		331.3182	
73.08031	3796.703		325.0957	
73.13441	3815.002		318.7605	
73.18853	3832.592		312.3223	
73.24264	3849.458		305.7935	
73.29675	3865.594		299.1839	
73.35085	3880.988		292.504	
73.40496	3895.625		285.7646	
73.45907	3909.489		278.9766	
73.51318	3922.575		272.1509	
73.56728	3934.898		265.2986	
73.62139	3946.487		258.431	
73.6755	3957.389		251.5593	
73.72961	3967.652		244.695	
73.78371	3977.337		237.8497	
73.83782	3986.509		231.035	
73.89193	3995.236		224.2625	
73.94604	4003.581		217.5437	
74.00014	4011.6		210.8899	
74.05425	4019.332		204.3124	
74.10836	4026.796		197.8219	
74.16247	4034.001		191.4289	
74.21658	4040.96		185.1438	
74.27068	4047.686		178.9762	
74.32479	4054.191		172.9353	
74.3789	4060.495		167.0299	
74.43301	4066.615		161.2682	
74.48711	4072.566		155.6576	
74.54122	4078.362		150.2048	
74.59533	4084.017		144.9158	
74.64944	4089.546		139.7956	
74.70354	4094.969		134.8483	
74.75765	4100.312		130.0769	
74.81176	4105.595		125.4838	
74.86587	4110.829		121.07	
74.91998	4116.015		116.8357	
74.97408	4121.152		112.7802	
75.02819	4126.239		108.9018	
75.0823	4131.268		105.198	
75.13641	4136.223		101.6653	
75.19051	4141.072		98.2998	
75.24462	4145.782		95.09657	
75.29873	4150.328		92.05028	
75.35284	4154.691		89.15503	
75.40694	4158.863		86.40446	
75.46105	4162.841		83.79182	
75.51516	4166.626		81.31004	
75.56927	4170.228		78.95186	
75.62337	4173.667		76.70987	
75.67748	4176.969		74.57666	
75.73159	4180.154		72.54494	
75.7857	4183.236		70.6076	
75.83981	4186.228		68.75776	
75.89391	4189.14		66.98882	
75.94802	4191.986		65.29448	
76.00213	4194.775		63.66883	
76.05624	4197.505		62.10632	
76.11035	4200.168		60.60158	
76.16446	4202.749		59.15033	
76.21857	4205.233		57.74807	
76.27267	4207.621		56.39102	
76.32678	4209.922		55.07579	
76.38089	4212.162		53.79946	
76.435	4214.366		52.55948	
76.48911	4216.563		51.35365	
76.54321	4218.778		50.18007	
76.59732	4221.029		49.03712	
76.65143	4223.318		47.92337	
76.70554	4225.643		46.83759	
76.75964	4228.005		45.7787	
76.81375	4230.4		44.74572	
76.86786	4232.813		43.73779	
76.92197	4235.219		42.75417	
76.97607	4237.605		41.79425	
77.03018	4239.957		40.85757	
77.08429	4242.263		39.94377	
77.1384	4244.508		39.05261	
77.1925	4246.68		38.18394	
77.24661	4248.767		37.33763	
77.30072	4250.759		36.5136	
77.35483	4252.653		35.71172	
77.40894	4254.458		34.93187	
77.46304	4256.184		34.17393	
77.51715	4257.849		33.43775	
77.57126	4259.467		32.72318	
77.62537	4261.053		32.03003	
77.67947	4262.622		31.35822	
77.73358	4264.176		30.7077	
77.78769	4265.712		30.07849	
77.8418	4267.229		29.47072	
77.8959	4268.723		28.88458	
77.95001	4270.192		28.32038	
78.00412	4271.63		27.77852	
78.05823	4273.037		27.25952	
78.11234	4274.417		26.76402	
78.16644	4275.771		26.29273	
78.22055	4277.104		25.84645	
78.27466	4278.425		25.42607	
78.32877	4279.744		25.03248	
78.38287	4281.061		24.66665	
78.43698	4282.366		24.32951	
78.49109	4283.652		24.02197	
78.5452	4284.909		23.74488	
78.5993	4286.125		23.49904	
78.65341	4287.288		23.28516	
78.70752	4288.379		23.10391	
78.76163	4289.39		22.95585	
78.81573	4290.313		22.84143	
78.86984	4291.143		22.76097	
78.92395	4291.887		22.71465	
78.97807	4292.555		22.70251	
79.03217	4293.157		22.72446	
79.08628	4293.715		22.78028	
79.14039	4294.246		22.86962	
79.1945	4294.762		22.99199	
79.2486	4295.274		23.14678	
79.30271	4295.79		23.33325	
79.35682	4296.315		23.55058	
79.41093	4296.852		23.79783	
79.46503	4297.396		24.07402	
79.51914	4297.947		24.37812	
79.57325	4298.513		24.70907	
79.62736	4299.097		25.06575	
79.68147	4299.712		25.44707	
79.73557	4300.371		25.85188	
79.78968	4301.095		26.27906	
79.84379	4301.902		26.72745	
79.8979	4302.813		27.19592	
79.952	4303.845		27.68329	
80.00611	4305.012		28.1884	
80.06022	4306.31		28.71007	
80.11433	4307.719		29.24709	
80.16843	4309.211		29.79823	
80.22254	4310.767		30.36222	
80.27665	4312.371		30.93777	
80.33076	4314.017		31.52351	
80.38486	4315.707		32.11805	
80.43897	4317.451		32.71994	
80.49308	4319.263		33.32764	
80.54719	4321.155		33.93954	
80.6013	4323.141		34.55401	
80.6554	4325.235		35.16931	
80.70951	4327.443		35.78364	
80.76362	4329.765		36.3951	
80.81773	4332.193		37.00165	
80.87183	4334.727		37.60116	
80.92594	4337.353		38.19133	
80.98005	4340.051		38.76975	
81.03416	4342.8		39.33394	
81.08826	4345.578		39.88134	
81.14237	4348.365		40.40937	
81.19648	4351.149		40.91548	
81.25059	4353.927		41.39716	
81.3047	4356.701		41.85191	
81.3588	4359.474		42.27734	
81.41291	4362.249		42.67118	
81.46702	4365.024		43.03131	
81.52113	4367.807		43.3558	
81.57523	4370.596		43.64292	
81.62934	4373.395		43.89115	
81.68345	4376.21		44.09918	
81.73756	4379.042		44.26593	
81.79166	4381.881		44.39049	
81.84577	4384.715		44.47215	
81.89989	4387.526		44.51033	
81.95399	4390.307		44.50466	
82.0081	4393.062		44.45494	
82.06221	4395.803		44.36113	
82.11632	4398.546		44.22335	
82.17043	4401.294		44.04187	
82.22453	4404.045		43.81709	
82.27864	4406.793		43.54956	
82.33275	4409.53		43.23996	
82.38686	4412.25		42.88911	
82.44096	4414.954		42.49797	
82.49507	4417.643		42.06765	
82.54918	4420.322		41.59936	
82.60329	4422.992		41.09442	
82.65739	4425.65		40.55424	
82.7115	4428.289		39.98024	
82.76561	4430.897		39.3739	
82.81972	4433.46		38.73665	
82.87383	4435.973		38.06988	
82.92793	4438.433		37.37492	
82.98204	4440.843		36.65301	
83.03615	4443.196		35.90532	
83.09026	4445.483		35.13293	
83.14436	4447.696		34.33687	
83.19847	4449.832		33.51806	
83.25258	4451.884		32.67735	
83.30669	4453.851		31.81546	
83.36079	4455.73		30.93305	
83.4149	4457.523		30.03069	
83.46901	4459.218		29.10885	
83.52312	4460.807		28.16796	
83.57722	4462.283		27.20841	
83.63133	4463.657		26.23059	
83.68544	4464.941		25.23488	
83.73955	4466.159		24.22157	
83.79366	4467.321		23.19094	
83.84776	4468.44		22.14317	
83.90187	4469.522		21.07844	
83.95598	4470.576		19.99699	
84.01009	4471.599		18.89907	
84.06419	4472.593		17.78493	
84.1183	4473.551		16.65489	
84.17241	4474.468		15.50926	
84.22652	4475.331		14.3484	
84.28062	4476.127		13.17265	
84.33473	4476.829		11.98244	
84.38884	4477.418		10.77822	
84.44295	4477.884		9.560566	
84.49706	4478.241		8.330091	
84.55116	4478.5		7.087494	
84.60527	4478.68		5.833549	
84.65938	4478.8		4.569103	
84.71349	4478.886		3.295082	
84.76759	4478.951		2.012454	
84.82171	4479.008		0.7220419	
84.87582	4479.056		-0.5747797	
84.92992	4479.093		-1.877178	
84.98403	4479.11		-3.184152	
85.03814	4479.097		-4.494718	
85.09225	4479.032		-5.807937	
85.14635	4478.896		-7.122932	
85.20046	4478.665		-8.438906	
85.25457	4478.327		-9.755135	
85.30868	4477.884		-11.07097	
85.36279	4477.349		-12.38586	
85.41689	4476.737		-13.69931	
85.471	4476.06		-15.01094	
85.52511	4475.328		-16.3204	
85.57922	4474.551		-17.62742	
85.63332	4473.743		-18.93174	
85.68743	4472.908		-20.23316	
85.74154	4472.046		-21.5315	
85.79565	4471.134		-22.82659	
85.84975	4470.146		-24.11821	
85.90386	4469.056		-25.40613	
85.95797	4467.838		-26.69003	
86.01208	4466.466		-27.96951	
86.06618	4464.926		-29.24415	
86.12029	4463.214		-30.51348	
86.1744	4461.342		-31.77703	
86.22851	4459.331		-33.03433	
86.28262	4457.19		-34.28492	
86.33672	4454.928		-35.5283	
86.39083	4452.548		-36.76395	
86.44494	4450.071		-37.99132	
86.49905	4447.523		-39.20985	
86.55315	4444.924		-40.41893	
86.60726	4442.288		-41.61785	
86.66137	4439.619		-42.80584	
86.71548	4436.924		-43.98199	
86.76958	4434.195		-45.14529	
86.82369	4431.422		-46.29458	
86.8778	4428.593		-47.42859	
86.93191	4425.704		-48.54589	
86.98602	4422.753		-49.64504	
87.04012	4419.75		-50.72454	
87.09423	4416.7		-51.78292	
87.14834	4413.613		-52.81878	
87.20245	4410.492		-53.83073	
87.25655	4407.34		-54.81747	
87.31066	4404.149		-55.77777	
87.36477	4400.916		-56.71051	
87.41888	4397.631		-57.61467	
87.47298	4394.292		-58.4894	
87.52709	4390.894		-59.334	
87.5812	4387.439		-60.14795	
87.63531	4383.922		-60.93083	
87.68941	4380.34		-61.68237	
87.74353	4376.693		-62.40248	
87.79764	4372.99		-63.09089	
87.85175	4369.238		-63.74776	
87.90585	4365.449		-64.37325	
87.95996	4361.617		-64.96768	
88.01407	4357.741		-65.53144	
88.06818	4353.817		-66.06506	
88.12228	4349.853		-66.56922	
88.17639	4345.853		-67.04475	
88.2305	4341.83		-67.49261	
88.28461	4337.795		-67.91396	
88.33871	4333.753		-68.31004	
88.39282	4329.695		-68.68227	
88.44693	4325.624		-69.03212	
88.50104	4321.537		-69.36112	
88.55515	4317.439		-69.67087	
88.60925	4313.325		-69.96291	
88.66336	4309.199		-70.23878	
88.71747	4305.063		-70.49993	
88.77158	4300.92		-70.74776	
88.82568	4296.77		-70.98349	
88.87979	4292.616		-71.20826	
88.9339	4288.453		-71.4231	
88.98801	4284.274		-71.62899	
89.04211	4280.081		-71.82683	
89.09622	4275.882		-72.01747	
89.15033	4271.691		-72.20173	
89.20444	4267.525		-72.38034	
89.25854	4263.399		-72.55402	
89.31265	4259.327		-72.72344	
89.36676	4255.311		-72.88926	
89.42087	4251.351		-73.05212	
89.47498	4247.443		-73.21267	
89.52908	4243.587		-73.37154	
89.58319	4239.779		-73.52937	
89.6373	4236.004		-73.68671	
89.69141	4232.248		-73.84408	
89.74551	4228.497		-74.00196	
89.79962	4224.748		-74.16077	
89.85373	4221.001		-74.32087	
89.90784	4217.264		-74.4826	
89.96194	4213.537		-74.64626	
90.01605	4209.82		-74.81213	
90.07016	4206.116		-74.98048	
90.12427	4202.42		-75.15162	
90.17838	4198.728		-75.32589	
90.23248	4195.036		-75.50366	
90.28659	4191.338		-75.68534	
90.3407	4187.622		-75.87135	
90.39481	4183.872		-76.06211	
90.44891	4180.075		-76.25802	
90.50302	4176.224		-76.45943	
90.55713	4172.316		-76.66664	
90.61124	4168.355		-76.87991	
90.66535	4164.345		-77.09947	
90.71946	4160.285		-77.32547	
90.77357	4156.169		-77.55806	
90.82767	4152		-77.79731	
90.88178	4147.781		-78.04324	
90.93589	4143.524		-78.29579	
90.99	4139.242		-78.55486	
91.04411	4134.945		-78.82023	
91.09821	4130.646		-79.09157	
91.15232	4126.34		-79.36839	
91.20643	4122.021		-79.65004	
91.26054	4117.676		-79.93578	
91.31464	4113.295		-80.2247	
91.36875	4108.868		-80.51587	
91.42286	4104.391		-80.80831	
91.47697	4099.864		-81.10104	
91.53107	4095.292		-81.39307	
91.58518	4090.677		-81.68334	
91.63929	4086.027		-81.9708	
91.6934	4081.345		-82.25438	
91.74751	4076.643		-82.533	
91.80161	4071.924		-82.80563	
91.85572	4067.197		-83.07125	
91.90983	4062.462		-83.32891	
91.96394	4057.726		-83.57771	
92.01804	4052.984		-83.81679	
92.07215	4048.234		-84.04538	
92.12626	4043.474		-84.26277	
92.18037	4038.713		-84.4683	
92.23447	4033.955		-84.66138	
92.28858	4029.21		-84.84151	
92.34269	4024.477		-85.00833	
92.3968	4019.761		-85.16156	
92.4509	4015.053		-85.18777	
92.50501	4010.349		-85.2043	
92.55912	4005.645		-85.21432	
92.61323	4000.942		-85.22055	
92.66734	3996.234		-85.22478	
92.72144	3991.521		-85.22806	
92.77555	3986.795		-85.2309	
92.82966	3982.055		-85.23347	
92.88377	3977.297		-85.23578	
92.93787	3972.523		-85.23772	
92.99198	3967.731		-85.23917	
93.04609	3962.925		-85.23996	
93.1002	3958.106		-85.23997	
93.1543	3953.284		-85.23904	
93.20841	3948.458		-85.23707	
93.26252	3943.633		-85.23395	
93.31663	3938.812		-85.22957	
93.37074	3934.004		-85.22385	
93.42484	3929.2		-85.21671	
93.47895	3924.39		-85.20808	
93.53306	3919.569		-85.19788	
93.58717	3914.747		-85.18605	
93.64128	3909.944		-85.17253	
93.69539	3905.178		-85.15727	
93.7495	3900.474		-85.14022	
93.8036	3895.85		-85.12135	
93.85771	3891.301		-85.10063	
93.91182	3886.815		-85.07804	
93.96593	3882.367		-85.05356	
94.02003	3877.937		-85.02718	
94.07414	3873.514		-84.99889	
94.12825	3869.158		-84.96867	
94.18236	3864.804		-84.93653	
94.23647	3860.468		-84.90247	
94.29057	3856.15		-84.8665	
94.34468	3851.847		-84.82863	
94.39879	3847.558		-84.78888	
94.4529	3843.282		-84.74728	
94.507	3839.018		-84.70385	
94.56111	3834.764		-84.65862	
94.61522	3830.517		-84.61164	
94.66933	3826.276		-84.56293	
94.72343	3822.036		-84.51256	
94.77754	3817.794		-84.46054	
94.83165	3813.549		-84.40694	
94.88576	3809.299		-84.3518	
94.93987	3805.045		-84.29517	
94.99397	3800.79		-84.23711	
