T[Â°C]	350nm [counts / mm]	S.D.	First derivative	S.D. of first derivative
20.00003	7036.452		-100.0068	
20.05401	7031.146		-99.99607	
20.108	7025.834		-99.98445	
20.16199	7020.517		-99.97192	
20.21597	7015.194		-99.95844	
20.26996	7009.867		-99.94399	
20.32394	7004.537		-99.92856	
20.37793	6999.203		-99.91211	
20.43192	6993.867		-99.89464	
20.4859	6988.527		-99.87611	
20.53989	6983.183		-99.85654	
20.59387	6977.834		-99.83589	
20.64786	6972.481		-99.81418	
20.70185	6967.124		-99.79137	
20.75583	6961.761		-99.76749	
20.80982	6956.391		-99.74253	
20.8638	6951.012		-99.71648	
20.91779	6945.616		-99.68937	
20.97178	6940.18		-99.66119	
21.02576	6934.68		-99.63197	
21.07975	6929.207		-99.60171	
21.13374	6923.776		-99.57044	
21.18772	6918.392		-99.53819	
21.24171	6913.036		-99.50498	
21.29569	6907.683		-99.47083	
21.34968	6902.309		-99.43578	
21.40367	6896.897		-99.39984	
21.45765	6891.444		-99.36304	
21.51164	6885.957		-99.32539	
21.56562	6880.445		-99.28695	
21.61961	6874.917		-99.24771	
21.6736	6869.385		-99.20773	
21.72758	6863.863		-99.16702	
21.78157	6858.371		-99.12561	
21.83555	6852.912		-99.08355	
21.88954	6847.479		-99.04087	
21.94353	6842.061		-98.9976	
21.99751	6836.664		-98.95378	
22.0515	6831.305		-98.90944	
22.10548	6825.988		-98.86459	
22.15947	6820.706		-98.81927	
22.21346	6815.448		-98.77344	
22.26744	6810.201		-98.72702	
22.32143	6804.95		-98.67982	
22.37542	6799.68		-98.63145	
22.4294	6794.382		-98.58119	
22.48339	6789.048		-98.52792	
22.53737	6783.676		-98.47004	
22.59136	6778.266		-98.40577	
22.64535	6772.814		-98.30071	
22.69933	6767.321		-98.19563	
22.75332	6761.789		-98.09107	
22.8073	6756.229		-97.98754	
22.86129	6750.653		-97.88552	
22.91528	6745.072		-97.78545	
22.96926	6739.509		-97.68775	
23.02325	6733.988		-97.59289	
23.07723	6728.531		-97.50129	
23.13122	6723.148		-97.4134	
23.18521	6717.831		-97.32959	
23.23919	6712.565		-97.2502	
23.29318	6707.328		-97.17546	
23.34716	6702.092		-97.10555	
23.40115	6696.844		-97.04056	
23.45514	6691.583		-96.98048	
23.50912	6686.309		-96.92525	
23.56311	6681.018		-96.8747	
23.6171	6675.717		-96.82861	
23.67108	6670.434		-96.78667	
23.72507	6665.21		-96.74858	
23.77905	6660.093		-96.71398	
23.83304	6655.12		-96.68253	
23.88703	6650.298		-96.65387	
23.94101	6645.599		-96.62772	
23.995	6640.979		-96.60381	
24.04898	6636.391		-96.58188	
24.10297	6631.795		-96.56174	
24.15696	6627.155		-96.54322	
24.21094	6622.446		-96.52618	
24.26493	6617.648		-96.51052	
24.31891	6612.745		-96.49616	
24.3729	6607.731		-96.48307	
24.42689	6602.615		-96.47125	
24.48087	6597.423		-96.46078	
24.53486	6592.188		-96.45179	
24.58884	6586.941		-96.44449	
24.64283	6581.696		-96.43907	
24.69682	6576.46		-96.43568	
24.7508	6571.23		-96.43446	
24.80479	6566.004		-96.43546	
24.85878	6560.774		-96.43866	
24.91276	6555.52		-96.44391	
24.96675	6550.221		-96.4509	
25.02073	6544.875		-96.45924	
25.07472	6539.487		-96.4684	
25.12871	6534.073		-96.47778	
25.18269	6528.646		-96.48679	
25.23668	6523.213		-96.49478	
25.29066	6517.78		-96.50121	
25.34465	6512.348		-96.50553	
25.39864	6506.936		-96.5073	
25.45262	6501.558		-96.50613	
25.50661	6496.218		-96.50172	
25.56059	6490.907		-96.49387	
25.61458	6485.612		-96.48238	
25.66857	6480.316		-96.46708	
25.72255	6475.01		-96.44777	
25.77654	6469.686		-96.42423	
25.83052	6464.351		-96.39625	
25.88451	6459.012		-96.36366	
25.9385	6453.679		-96.32633	
25.99248	6448.36		-96.28425	
26.04647	6443.059		-96.2374	
26.10046	6437.78		-96.18581	
26.15444	6432.523		-96.12959	
26.20843	6427.282		-96.06892	
26.26241	6422.038		-96.00404	
26.3164	6416.774		-95.9353	
26.37039	6411.481		-95.86302	
26.42437	6406.154		-95.78763	
26.47836	6400.799		-95.70958	
26.53234	6395.426		-95.62944	
26.58633	6390.053		-95.54783	
26.64032	6384.693		-95.46542	
26.6943	6379.363		-95.38288	
26.74829	6374.077		-95.30083	
26.80227	6368.852		-95.21979	
26.85626	6363.699		-95.14022	
26.91025	6358.618		-95.06246	
26.96423	6353.6		-94.98677	
27.01822	6348.624		-94.91328	
27.07221	6343.666		-94.84202	
27.12619	6338.712		-94.77291	
27.18018	6333.762		-94.70582	
27.23416	6328.813		-94.6406	
27.28815	6323.865		-94.57716	
27.34214	6318.918		-94.51551	
27.39612	6313.976		-94.45573	
27.45011	6309.05		-94.39803	
27.5041	6304.158		-94.3427	
27.55808	6299.315		-94.29016	
27.61207	6294.529		-94.24091	
27.66605	6289.795		-94.19549	
27.72004	6285.096		-94.15437	
27.77402	6280.411		-94.118	
27.82801	6275.713		-94.08668	
27.882	6270.978		-94.06066	
27.93598	6266.186		-94.04015	
27.98997	6261.322		-94.02528	
28.04395	6256.384		-94.01605	
28.09794	6251.375		-94.01241	
28.15193	6246.305		-94.01424	
28.20591	6241.182		-94.02137	
28.2599	6236.02		-94.0336	
28.31389	6230.841		-94.05074	
28.36787	6225.67		-94.07258	
28.42186	6220.513		-94.09889	
28.47584	6215.365		-94.12944	
28.52983	6210.209		-94.16389	
28.58382	6205.033		-94.20185	
28.6378	6199.831		-94.24279	
28.69179	6194.604		-94.28606	
28.74578	6189.357		-94.33082	
28.79976	6184.085		-94.37608	
28.85375	6178.791		-94.42072	
28.90773	6173.492		-94.46353	
28.96172	6168.202		-94.50328	
29.01571	6162.925		-94.53873	
29.06969	6157.661		-94.56864	
29.12368	6152.417		-94.59185	
29.17766	6147.204		-94.60728	
29.23165	6142.038		-94.61398	
29.28563	6136.928		-94.61121	
29.33962	6131.874		-94.59843	
29.39361	6126.866		-94.57533	
29.44759	6121.889		-94.54176	
29.50158	6116.927		-94.49773	
29.55557	6111.962		-94.44349	
29.60955	6106.99		-94.37945	
29.66354	6102.003		-94.30624	
29.71752	6096.992		-94.22467	
29.77151	6091.946		-94.13567	
29.8255	6086.852		-94.04025	
29.87948	6081.7		-93.9395	
29.93347	6076.486		-93.83454	
29.98746	6071.21		-93.72654	
30.04144	6065.881		-93.61659	
30.09543	6060.517		-93.50577	
30.14941	6055.12		-93.39499	
30.2034	6049.697		-93.28508	
30.25739	6044.26		-93.17674	
30.31137	6038.831		-93.0706	
30.36536	6033.438		-92.96722	
30.41934	6028.098		-92.86716	
30.47333	6022.813		-92.77087	
30.52732	6017.579		-92.67875	
30.5813	6012.39		-92.59109	
30.63529	6007.242		-92.50804	
30.68927	6002.126		-92.42966	
30.74326	5997.038		-92.35583	
30.79725	5991.975		-92.28632	
30.85123	5986.945		-92.22081	
30.90522	5981.952		-92.15883	
30.9592	5977.005		-92.0998	
31.01319	5972.11		-92.04309	
31.06718	5967.27		-91.98805	
31.12116	5962.498		-91.93406	
31.17515	5957.804		-91.88059	
31.22914	5953.195		-91.8272	
31.28312	5948.68		-91.77352	
31.33711	5944.262		-91.71926	
31.39109	5939.933		-91.66422	
31.44508	5935.681		-91.60829	
31.49907	5931.473		-91.55148	
31.55305	5927.266		-91.49384	
31.60704	5923.016		-91.43554	
31.66102	5918.686		-91.37688	
31.71501	5914.253		-91.3183	
31.769	5909.701		-91.26029	
31.82298	5905.023		-91.20348	
31.87697	5900.222		-91.14853	
31.93095	5895.303		-91.09616	
31.98494	5890.286		-91.04708	
32.03893	5885.212		-91.00196	
32.09291	5880.121		-90.9614	
32.1469	5875.026		-90.92584	
32.20089	5869.93		-90.89556	
32.25487	5864.826		-90.87061	
32.30886	5859.708		-90.85087	
32.36284	5854.571		-90.83601	
32.41683	5849.408		-90.82558	
32.47081	5844.204		-90.81896	
32.5248	5838.948		-90.81545	
32.57879	5833.647		-90.81424	
32.63277	5828.31		-90.81447	
32.68676	5822.955		-90.81525	
32.74075	5817.616		-90.81573	
32.79473	5812.327		-90.81509	
32.84872	5807.11		-90.81258	
32.9027	5801.985		-90.80754	
32.95669	5796.958		-90.79928	
33.01068	5792.022		-90.78712	
33.06466	5787.171		-90.77043	
33.11865	5782.392		-90.74864	
33.17263	5777.666		-90.72121	
33.22662	5772.971		-90.68767	
33.28061	5768.289		-90.64756	
33.33459	5763.595		-90.60046	
33.38858	5758.871		-90.54602	
33.44257	5754.109		-90.48396	
33.49655	5749.311		-90.41412	
33.55054	5744.479		-90.33657	
33.60452	5739.616		-90.25153	
33.65851	5734.721		-90.15948	
33.71249	5729.792		-90.06109	
33.76648	5724.823		-89.95724	
33.82047	5719.819		-89.84897	
33.87445	5714.786		-89.73745	
33.92844	5709.728		-89.6239	
33.98243	5704.65		-89.50961	
34.03641	5699.559		-89.39581	
34.0904	5694.458		-89.28368	
34.14439	5689.354		-89.17429	
34.19837	5684.259		-89.06857	
34.25236	5679.192		-88.96728	
34.30634	5674.176		-88.87103	
34.36033	5669.231		-88.78024	
34.41431	5664.365		-88.69524	
34.4683	5659.569		-88.61617	
34.52229	5654.833		-88.54308	
34.57627	5650.141		-88.47594	
34.63026	5645.482		-88.41461	
34.68425	5640.863		-88.35885	
34.73823	5636.301		-88.30833	
34.79222	5631.811		-88.2627	
34.8462	5627.393		-88.2216	
34.90019	5623.042		-88.18467	
34.95417	5618.739		-88.15157	
35.00816	5614.461		-88.12194	
35.06215	5610.191		-88.09547	
35.11613	5605.914		-88.07187	
35.17012	5601.61		-88.05087	
35.22411	5597.267		-88.03217	
35.27809	5592.869		-88.01546	
35.33208	5588.399		-88.00034	
35.38607	5583.846		-87.9864	
35.44005	5579.21		-87.97318	
35.49404	5574.5		-87.96024	
35.54802	5569.739		-87.94721	
35.60201	5564.954		-87.93382	
35.65599	5560.161		-87.9199	
35.70998	5555.364		-87.9054	
35.76397	5550.561		-87.89037	
35.81796	5545.753		-87.87494	
35.87194	5540.946		-87.85928	
35.92593	5536.145		-87.84358	
35.97991	5531.347		-87.82802	
36.0339	5526.545		-87.81272	
36.08788	5521.723		-87.79778	
36.14187	5516.865		-87.78315	
36.19586	5511.958		-87.76873	
36.24984	5506.998		-87.75435	
36.30383	5501.993		-87.73979	
36.35781	5496.964		-87.72482	
36.4118	5491.939		-87.70919	
36.46579	5486.95		-87.6926	
36.51977	5482.015		-87.67478	
36.57376	5477.137		-87.6554	
36.62775	5472.31		-87.63412	
36.68173	5467.527		-87.61057	
36.73572	5462.78		-87.58439	
36.7897	5458.052		-87.55518	
36.84369	5453.319		-87.52264	
36.89767	5448.558		-87.48643	
36.95166	5443.75		-87.44629	
37.00565	5438.879		-87.40203	
37.05964	5433.944		-87.3536	
37.11362	5428.949		-87.30106	
37.16761	5423.913		-87.24458	
37.22159	5418.868		-87.18444	
37.27558	5413.849		-87.121	
37.32956	5408.886		-87.05466	
37.38355	5404.005		-86.98584	
37.43754	5399.216		-86.91496	
37.49152	5394.52		-86.84248	
37.54551	5389.91		-86.76884	
37.59949	5385.365		-86.69457	
37.65348	5380.855		-86.62017	
37.70747	5376.353		-86.54614	
37.76145	5371.84		-86.47294	
37.81544	5367.31		-86.40102	
37.86943	5362.764		-86.3308	
37.92341	5358.206		-86.26268	
37.9774	5353.64		-86.19712	
38.03138	5349.074		-86.13457	
38.08537	5344.52		-86.07554	
38.13935	5339.984		-86.02056	
38.19334	5335.469		-85.97015	
38.24733	5330.979		-85.92486	
38.30132	5326.513		-85.8852	
38.3553	5322.065		-85.85169	
38.40929	5317.63		-85.82478	
38.46327	5313.206		-85.80489	
38.51726	5308.789		-85.7923	
38.57124	5304.369		-85.78716	
38.62523	5299.94		-85.78955	
38.67922	5295.498		-85.7994	
38.7332	5291.047		-85.81656	
38.78719	5286.588		-85.84077	
38.84118	5282.116		-85.87173	
38.89516	5277.627		-85.90907	
38.94915	5273.13		-85.95238	
39.00313	5268.634		-86.00121	
39.05712	5264.142		-86.05515	
39.11111	5259.65		-86.11375	
39.16509	5255.151		-86.17657	
39.21908	5250.644		-86.24317	
39.27306	5246.116		-86.31306	
39.32705	5241.564		-86.38572	
39.38103	5236.982		-86.46053	
39.43502	5232.374		-86.53679	
39.48901	5227.74		-86.61378	
39.543	5223.08		-86.69071	
39.59698	5218.379		-86.76675	
39.65097	5213.627		-86.84102	
39.70495	5208.82		-86.91257	
39.75894	5203.966		-86.98046	
39.81292	5199.078		-87.04369	
39.86691	5194.172		-87.1013	
39.9209	5189.264		-87.15236	
39.97488	5184.366		-87.19602	
40.02887	5179.491		-87.23154	
40.08286	5174.649		-87.25828	
40.13684	5169.837		-87.27576	
40.19083	5165.044		-87.28366	
40.24481	5160.267		-87.28183	
40.2988	5155.505		-87.27024	
40.35279	5150.754		-87.24903	
40.40677	5146.005		-87.21845	
40.46076	5141.247		-87.17886	
40.51474	5136.465		-87.13068	
40.56873	5131.65		-87.07433	
40.62271	5126.794		-87.01029	
40.6767	5121.9		-86.93906	
40.73069	5116.969		-86.86109	
40.78468	5112.008		-86.77689	
40.83866	5107.027		-86.68694	
40.89265	5102.033		-86.59177	
40.94663	5097.034		-86.49193	
41.00062	5092.033		-86.38798	
41.0546	5087.03		-86.28049	
41.10859	5082.025		-86.17002	
41.16258	5077.03		-86.05709	
41.21656	5072.053		-85.94221	
41.27055	5067.101		-85.82585	
41.32454	5062.183		-85.70844	
41.37852	5057.313		-85.59035	
41.43251	5052.501		-85.47192	
41.48649	5047.756		-85.35348	
41.54048	5043.079		-85.23531	
41.59447	5038.465		-85.11769	
41.64845	5033.906		-85.00084	
41.70244	5029.394		-84.88491	
41.75642	5024.922		-84.77007	
41.81041	5020.493		-84.65643	
41.8644	5016.115		-84.54411	
41.91838	5011.794		-84.4332	
41.97237	5007.537		-84.32379	
42.02636	5003.35		-84.21593	
42.08034	4999.224		-84.10963	
42.13433	4995.138		-84.00489	
42.18831	4991.068		-83.90177	
42.2423	4987.001		-83.8004	
42.29628	4982.926		-83.70097	
42.35027	4978.828		-83.60381	
42.40426	4974.697		-83.50933	
42.45824	4970.531		-83.41801	
42.51223	4966.328		-83.33038	
42.56622	4962.087		-83.24697	
42.6202	4957.815		-83.16831	
42.67419	4953.51		-83.09492	
42.72817	4949.165		-83.02727	
42.78216	4944.775		-82.96587	
42.83615	4940.352		-82.91119	
42.89013	4935.908		-82.86365	
42.94412	4931.453		-82.82357	
42.9981	4926.991		-82.79119	
43.05209	4922.525		-82.7666	
43.10608	4918.057		-82.74975	
43.16006	4913.587		-82.74043	
43.21405	4909.104		-82.73836	
43.26804	4904.595		-82.7431	
43.32202	4900.054		-82.75414	
43.37601	4895.481		-82.77093	
43.42999	4890.878		-82.79281	
43.48398	4886.246		-82.81908	
43.53796	4881.597		-82.84898	
43.59195	4876.942		-82.88167	
43.64594	4872.296		-82.91626	
43.69992	4867.668		-82.95185	
43.75391	4863.063		-82.98752	
43.8079	4858.476		-83.02232	
43.86188	4853.904		-83.05535	
43.91587	4849.345		-83.0857	
43.96985	4844.799		-83.11249	
44.02384	4840.262		-83.13484	
44.07783	4835.728		-83.15193	
44.13181	4831.188		-83.16295	
44.1858	4826.643		-83.16714	
44.23978	4822.095		-83.16387	
44.29377	4817.552		-83.15263	
44.34776	4813.016		-83.13309	
44.40174	4808.483		-83.10507	
44.45573	4803.948		-83.06857	
44.50972	4799.409		-83.02374	
44.5637	4794.87		-82.97089	
44.61769	4790.34		-82.91043	
44.67167	4785.823		-82.84294	
44.72566	4781.316		-82.76909	
44.77964	4776.815		-82.68961	
44.83363	4772.314		-82.60529	
44.88762	4767.803		-82.51699	
44.9416	4763.271		-82.42548	
44.99559	4758.703		-82.33147	
45.04958	4754.095		-82.23566	
45.10356	4749.458		-82.13862	
45.15755	4744.812		-82.04094	
45.21154	4740.178		-81.94312	
45.26552	4735.574		-81.84566	
45.31951	4731.007		-81.74896	
45.37349	4726.483		-81.65343	
45.42748	4722.003		-81.55938	
45.48146	4717.563		-81.46707	
45.53545	4713.157		-81.37663	
45.58944	4708.772		-81.28813	
45.64342	4704.404		-81.20156	
45.69741	4700.047		-81.11689	
45.7514	4695.701		-81.03402	
45.80538	4691.362		-80.95284	
45.85937	4687.032		-80.8732	
45.91335	4682.711		-80.79498	
45.96734	4678.405		-80.71805	
46.02133	4674.123		-80.64231	
46.07531	4669.876		-80.56769	
46.1293	4665.678		-80.49412	
46.18328	4661.534		-80.42154	
46.23727	4657.448		-80.34991	
46.29126	4653.421		-80.27915	
46.34524	4649.44		-80.20924	
46.39923	4645.487		-80.14015	
46.45322	4641.539		-80.07191	
46.5072	4637.568		-80.00463	
46.56119	4633.549		-79.93845	
46.61517	4629.462		-79.87357	
46.66916	4625.3		-79.8103	
46.72314	4621.071		-79.74894	
46.77713	4616.79		-79.68983	
46.83112	4612.474		-79.63331	
46.88511	4608.138		-79.57965	
46.93909	4603.792		-79.52912	
46.99308	4599.444		-79.4819	
47.04706	4595.089		-79.43816	
47.10105	4590.722		-79.39802	
47.15503	4586.335		-79.36154	
47.20902	4581.925		-79.32877	
47.26301	4577.495		-79.29964	
47.31699	4573.055		-79.27403	
47.37098	4568.611		-79.25175	
47.42496	4564.166		-79.23253	
47.47895	4559.725		-79.21599	
47.53294	4555.301		-79.20167	
47.58692	4550.905		-79.18904	
47.64091	4546.542		-79.17754	
47.6949	4542.209		-79.16653	
47.74888	4537.896		-79.15532	
47.80287	4533.599		-79.14318	
47.85685	4529.318		-79.12935	
47.91084	4525.048		-79.11311	
47.96482	4520.783		-79.09373	
48.01881	4516.521		-79.07054	
48.0728	4512.262		-79.04289	
48.12679	4508.007		-79.01017	
48.18077	4503.759		-78.97182	
48.23476	4499.516		-78.92738	
48.28874	4495.274		-78.87641	
48.34273	4491.032		-78.81866	
48.39671	4486.795		-78.75393	
48.4507	4482.565		-78.68221	
48.50469	4478.333		-78.60359	
48.55867	4474.087		-78.51839	
48.61266	4469.816		-78.42702	
48.66665	4465.514		-78.33002	
48.72063	4461.19		-78.22805	
48.77462	4456.854		-78.12183	
48.8286	4452.52		-78.01215	
48.88259	4448.197		-77.89981	
48.93658	4443.9		-77.78563	
48.99056	4439.634		-77.67044	
49.04455	4435.403		-77.55513	
49.09853	4431.199		-77.44057	
49.15252	4427.007		-77.32767	
49.2065	4422.813		-77.21728	
49.26049	4418.61		-77.11023	
49.31448	4414.398		-77.00726	
49.36847	4410.173		-76.90905	
49.42245	4405.933		-76.81617	
49.47644	4401.679		-76.7291	
49.53042	4397.42		-76.64822	
49.58441	4393.17		-76.57384	
49.63839	4388.939		-76.50613	
49.69238	4384.733		-76.44521	
49.74637	4380.558		-76.39107	
49.80035	4376.416		-76.34368	
49.85434	4372.306		-76.30295	
49.90833	4368.218		-76.26874	
49.96231	4364.139		-76.24086	
50.0163	4360.064		-76.21906	
50.07028	4356.001		-76.20302	
50.12427	4351.961		-76.19228	
50.17826	4347.955		-76.18632	
50.23224	4343.989		-76.1845	
50.28623	4340.071		-76.18621	
50.34021	4336.208		-76.19081	
50.3942	4332.396		-76.19774	
50.44818	4328.621		-76.20646	
50.50217	4324.869		-76.21651	
50.55616	4321.132		-76.22756	
50.61015	4317.404		-76.23931	
50.66413	4313.678		-76.25155	
50.71812	4309.944		-76.2641	
50.7721	4306.187		-76.27681	
50.82609	4302.389		-76.28954	
50.88007	4298.537		-76.30211	
50.93406	4294.621		-76.3143	
50.98805	4290.643		-76.32587	
51.04203	4286.607		-76.33656	
51.09602	4282.521		-76.34608	
51.15001	4278.388		-76.35419	
51.20399	4274.215		-76.36069	
51.25798	4270.009		-76.36542	
51.31196	4265.771		-76.36821	
51.36595	4261.504		-76.36892	
51.41994	4257.215		-76.36737	
51.47392	4252.915		-76.36337	
51.52791	4248.613		-76.3567	
51.58189	4244.305		-76.34708	
51.63588	4239.978		-76.33424	
51.68987	4235.616		-76.31786	
51.74385	4231.22		-76.29765	
51.79784	4226.801		-76.27337	
51.85183	4222.38		-76.24486	
51.90581	4217.967		-76.21201	
51.9598	4213.568		-76.17471	
52.01378	4209.185		-76.13291	
52.06777	4204.819		-76.08658	
52.12175	4200.473		-76.03561	
52.17574	4196.146		-75.97988	
52.22973	4191.845		-75.91923	
52.28371	4187.583		-75.85349	
52.3377	4183.367		-75.78249	
52.39169	4179.192		-75.70613	
52.44567	4175.037		-75.6243	
52.49966	4170.877		-75.53699	
52.55364	4166.689		-75.44429	
52.60763	4162.461		-75.3464	
52.66162	4158.205		-75.2436	
52.7156	4153.941		-75.13626	
52.76959	4149.697		-75.02477	
52.82357	4145.485		-74.90955	
52.87756	4141.311		-74.79101	
52.93155	4137.18		-74.66956	
52.98553	4133.098		-74.54559	
53.03952	4129.06		-74.41945	
53.09351	4125.055		-74.29154	
53.14749	4121.07		-74.16228	
53.20148	4117.1		-74.03209	
53.25546	4113.142		-73.90144	
53.30945	4109.194		-73.77081	
53.36343	4105.256		-73.64065	
53.41742	4101.337		-73.51137	
53.47141	4097.458		-73.38336	
53.52539	4093.64		-73.25697	
53.57938	4089.894		-73.13252	
53.63337	4086.217		-73.01031	
53.68735	4082.595		-72.89067	
53.74134	4079.004		-72.77392	
53.79532	4075.422		-72.66044	
53.84931	4071.833		-72.55062	
53.9033	4068.229		-72.44493	
53.95728	4064.604		-72.34378	
54.01127	4060.958		-72.24762	
54.06525	4057.29		-72.15681	
54.11924	4053.603		-72.07169	
54.17323	4049.898		-71.99248	
54.22721	4046.184		-71.91935	
54.2812	4042.462		-71.85245	
54.33519	4038.731		-71.79182	
54.38917	4034.992		-71.73746	
54.44316	4031.241		-71.68929	
54.49714	4027.473		-71.64719	
54.55113	4023.679		-71.61098	
54.60511	4019.848		-71.58051	
54.6591	4015.977		-71.55555	
54.71309	4012.076		-71.53583	
54.76707	4008.153		-71.52104	
54.82106	4004.211		-71.51083	
54.87505	4000.254		-71.50475	
54.92903	3996.29		-71.50234	
54.98302	3992.327		-71.50311	
55.03701	3988.368		-71.50656	
55.09099	3984.416		-71.51221	
55.14498	3980.465		-71.51958	
55.19896	3976.509		-71.52822	
55.25295	3972.547		-71.53767	
55.30693	3968.58		-71.54741	
55.36092	3964.612		-71.55683	
55.41491	3960.648		-71.56527	
55.46889	3956.685		-71.572	
55.52288	3952.727		-71.57625	
55.57687	3948.78		-71.57722	
55.63085	3944.857		-71.57413	
55.68484	3940.959		-71.56624	
55.73882	3937.083		-71.55293	
55.79281	3933.223		-71.53369	
55.84679	3929.368		-71.50816	
55.90078	3925.5		-71.47613	
55.95477	3921.609		-71.43752	
56.00875	3917.695		-71.39243	
56.06274	3913.761		-71.34103	
56.11673	3909.818		-71.28359	
56.17071	3905.878		-71.22043	
56.2247	3901.952		-71.15194	
56.27869	3898.044		-71.07851	
56.33267	3894.155		-71.00059	
56.38666	3890.281		-70.91864	
56.44064	3886.415		-70.83315	
56.49463	3882.548		-70.7446	
56.54861	3878.671		-70.65344	
56.6026	3874.781		-70.56011	
56.65659	3870.872		-70.46497	
56.71058	3866.938		-70.36835	
56.76456	3862.982		-70.27052	
56.81855	3859.012		-70.17165	
56.87253	3855.043		-70.07189	
56.92652	3851.094		-69.97133	
56.9805	3847.179		-69.87008	
57.03449	3843.309		-69.76823	
57.08848	3839.486		-69.6659	
57.14246	3835.708		-69.56327	
57.19645	3831.969		-69.46053	
57.25043	3828.261		-69.35791	
57.30442	3824.588		-69.25562	
57.35841	3820.953		-69.15383	
57.41239	3817.349		-69.05266	
57.46638	3813.766		-68.95215	
57.52037	3810.193		-68.85226	
57.57435	3806.623		-68.75291	
57.62834	3803.049		-68.65388	
57.68232	3799.469		-68.55495	
57.73631	3795.885		-68.45589	
57.79029	3792.303		-68.35652	
57.84428	3788.73		-68.25675	
57.89827	3785.166		-68.15659	
57.95226	3781.611		-68.05611	
58.00624	3778.072		-67.95551	
58.06023	3774.551		-67.85508	
58.11421	3771.048		-67.7552	
58.1682	3767.561		-67.65629	
58.22218	3764.083		-67.55883	
58.27617	3760.601		-67.46328	
58.33016	3757.097		-67.37012	
58.38414	3753.556		-67.27978	
58.43813	3749.963		-67.19268	
58.49212	3746.311		-67.10918	
58.5461	3742.606		-67.02956	
58.60009	3738.857		-66.95402	
58.65407	3735.077		-66.88263	
58.70806	3731.284		-66.81535	
58.76205	3727.493		-66.75198	
58.81603	3723.721		-66.69222	
58.87002	3719.987		-66.63559	
58.924	3716.303		-66.5815	
58.97799	3712.668		-66.52932	
59.03197	3709.072		-66.47832	
59.08596	3705.507		-66.42776	
59.13995	3701.96		-66.37687	
59.19394	3698.413		-66.32487	
59.24792	3694.849		-66.27096	
59.30191	3691.257		-66.21438	
59.35589	3687.637		-66.15438	
59.40988	3683.999		-66.09023	
59.46386	3680.352		-66.02121	
59.51785	3676.708		-65.94663	
59.57184	3673.082		-65.86579	
59.62582	3669.489		-65.77805	
59.67981	3665.938		-65.6828	
59.7338	3662.429		-65.57946	
59.78778	3658.957		-65.46754	
59.84177	3655.511		-65.34667	
59.89575	3652.083		-65.21659	
59.94974	3648.66		-65.07713	
60.00373	3645.234		-64.92819	
60.05771	3641.794		-64.76987	
60.1117	3638.333		-64.6023	
60.16568	3634.853		-64.42577	
60.21967	3631.359		-64.24069	
60.27365	3627.855		-64.04759	
60.32764	3624.344		-63.84713	
60.38163	3620.822		-63.64003	
60.43562	3617.287		-63.42719	
60.4896	3613.733		-63.20945	
60.54359	3610.158		-62.98775	
60.59757	3606.557		-62.76299	
60.65156	3602.928		-62.536	
60.70554	3599.273		-62.30752	
60.75953	3595.592		-62.07815	
60.81352	3591.898		-61.84832	
60.8675	3588.212		-61.61837	
60.92149	3584.549		-61.38845	
60.97548	3580.918		-61.15861	
61.02946	3577.329		-60.92877	
61.08345	3573.796		-60.69875	
61.13743	3570.33		-60.46828	
61.19142	3566.932		-60.23695	
61.24541	3563.595		-60.00433	
61.29939	3560.306		-59.76985	
61.35338	3557.062		-59.53289	
61.40736	3553.863		-59.29277	
61.46135	3550.703		-59.04879	
61.51534	3547.571		-58.80016	
61.56932	3544.464		-58.54612	
61.62331	3541.383		-58.28588	
61.6773	3538.337		-58.01872	
61.73128	3535.337		-57.74387	
61.78527	3532.39		-57.46059	
61.83925	3529.5		-57.16818	
61.89324	3526.673		-56.86597	
61.94722	3523.904		-56.55335	
62.00121	3521.183		-56.22974	
62.0552	3518.5		-55.89468	
62.10918	3515.835		-55.5477	
62.16317	3513.169		-55.18843	
62.21716	3510.488		-54.8166	
62.27114	3507.783		-54.43203	
62.32513	3505.049		-54.03465	
62.37911	3502.278		-53.62454	
62.4331	3499.455		-53.20184	
62.48709	3496.572		-52.76689	
62.54107	3493.635		-52.32	
62.59506	3490.655		-51.86156	
62.64904	3487.651		-51.39198	
62.70303	3484.635		-50.91162	
62.75702	3481.621		-50.42081	
62.811	3478.618		-49.91977	
62.86499	3475.628		-49.40855	
62.91898	3472.651		-48.88721	
62.97296	3469.685		-48.35552	
63.02695	3466.729		-47.81314	
63.08093	3463.788		-47.25959	
63.13492	3460.863		-46.69425	
63.1889	3457.96		-46.11639	
63.24289	3455.082		-45.52512	
63.29688	3452.236		-44.91957	
63.35086	3449.428		-44.29867	
63.40485	3446.661		-43.66125	
63.45884	3443.938		-43.00611	
63.51282	3441.256		-42.33194	
63.56681	3438.616		-41.63736	
63.62079	3436.023		-40.92097	
63.67478	3433.484		-40.18124	
63.72877	3431.002		-39.41671	
63.78275	3428.583		-38.62577	
63.83674	3426.238		-37.80674	
63.89072	3423.975		-36.958	
63.94471	3421.795		-36.07786	
63.9987	3419.701		-35.16465	
64.05268	3417.69		-34.21672	
64.10667	3415.753		-33.23243	
64.16065	3413.879		-32.21019	
64.21464	3412.055		-31.14859	
64.26863	3410.276		-30.04603	
64.32262	3408.551		-28.90148	
64.3766	3406.888		-27.71362	
64.43059	3405.29		-26.48138	
64.48457	3403.751		-25.20386	
64.53856	3402.267		-23.88028	
64.59254	3400.829		-22.51006	
64.64653	3399.432		-21.09267	
64.70052	3398.072		-19.62782	
64.7545	3396.754		-18.11528	
64.80849	3395.485		-16.55495	
64.86247	3394.268		-14.94671	
64.91646	3393.105		-13.29045	
64.97044	3392.004		-11.58593	
65.02443	3390.968		-9.832986	
65.07842	3389.991		-8.031001	
65.13241	3389.07		-6.180049	
65.18639	3388.201		-4.27944	
65.24038	3387.391		-2.328645	
65.29436	3386.644		-0.3270681	
65.34835	3385.967		1.72598	
65.40234	3385.372		3.831289	
65.45632	3384.875		5.989719	
65.51031	3384.487		8.202306	
65.56429	3384.222		10.47011	
65.61828	3384.089		12.79436	
65.67226	3384.093		15.1764	
65.72625	3384.226		17.61778	
65.78024	3384.484		20.12022	
65.83422	3384.868		22.68548	
65.88821	3385.385		25.31566	
65.9422	3386.045		28.01332	
65.99619	3386.861		30.78018	
66.05017	3387.843		33.61914	
66.10416	3388.994		36.53288	
66.15814	3390.322		39.5242	
66.21213	3391.831		42.59599	
66.26611	3393.521		45.75118	
66.3201	3395.392		48.99285	
66.37408	3397.44		52.32397	
66.42807	3399.669		55.74752	
66.48206	3402.084		59.26643	
66.53604	3404.688		62.88356	
66.59003	3407.489		66.60174	
66.64401	3410.49		70.42338	
66.698	3413.698		74.35107	
66.75199	3417.119		78.38768	
66.80598	3420.762		82.53425	
66.85996	3424.628		86.79328	
66.91395	3428.719		91.16692	
66.96793	3433.034		95.65695	
67.02192	3437.568		100.2652	
67.0759	3442.315		104.9935	
67.12989	3447.269		109.8436	
67.18388	3452.429		114.8172	
67.23786	3457.792		119.9161	
67.29185	3463.353		125.142	
67.34583	3469.105		130.4966	
67.39982	3475.05		135.9818	
67.4538	3481.196		141.5995	
67.50779	3487.56		147.3517	
67.56178	3494.168		153.2411	
67.61577	3501.042		159.2686	
67.66975	3508.202		165.437	
67.72374	3515.658		171.7491	
67.77773	3523.414		178.2074	
67.83171	3531.468		184.8144	
67.8857	3539.821		191.5728	
67.93968	3548.485		198.4855	
67.99367	3557.474		205.5549	
68.04765	3566.797		212.7837	
68.10164	3576.466		220.1741	
68.15562	3586.508		227.7282	
68.20961	3596.951		235.4478	
68.2636	3607.829		243.3344	
68.31758	3619.173		251.3884	
68.37157	3631.014		259.6115	
68.42556	3643.376		268.0011	
68.47955	3656.273		276.5572	
68.53353	3669.708		285.2781	
68.58752	3683.683		294.1617	
68.6415	3698.191		303.2048	
68.69549	3713.22		312.4035	
68.74947	3728.767		321.7531	
68.80346	3744.823		331.2485	
68.85744	3761.391		340.8835	
68.91143	3778.471		350.6514	
68.96542	3796.067		360.545	
69.0194	3814.189		370.556	
69.07339	3832.849		380.6761	
69.12737	3852.058		390.8955	
69.18137	3871.832		401.2059	
69.23535	3892.174		411.594	
69.28934	3913.093		422.05	
69.34332	3934.59		432.5622	
69.39731	3956.666		443.1187	
69.45129	3979.329		453.7067	
69.50528	4002.594		464.3132	
69.55927	4026.476		474.925	
69.61325	4050.989		485.5285	
69.66724	4076.154		496.1098	
69.72122	4101.997		506.6548	
69.77521	4128.543		517.149	
69.82919	4155.812		527.5778	
69.88318	4183.824		537.9261	
69.93716	4212.606		548.1788	
69.99115	4242.196		558.3203	
70.04514	4272.631		568.336	
70.09913	4303.935		578.207	
70.15311	4336.133		587.9183	
70.2071	4369.247		597.4529	
70.26109	4403.287		606.7941	
70.31507	4438.257		615.9244	
70.36906	4474.149		624.8264	
70.42304	4510.943		633.4823	
70.47703	4548.609		641.874	
70.53101	4587.107		649.9835	
70.585	4626.389		657.7922	
70.63898	4666.396		665.282	
70.69297	4707.063		672.4341	
70.74696	4748.326		679.231	
70.80094	4790.117		685.6542	
70.85493	4832.383		691.687	
70.90892	4875.056		697.3106	
70.96291	4918.088		702.5097	
71.01689	4961.435		707.2677	
71.07088	5005.064		711.5702	
71.12486	5048.951		715.4031	
71.17885	5093.077		718.7536	
71.23283	5137.422		721.6099	
71.28682	5181.957		723.9613	
71.34081	5226.661		725.7986	
71.39479	5271.529		727.1139	
71.44878	5316.559		727.9007	
71.50276	5361.739		728.1536	
71.55675	5407.05		727.8702	
71.61073	5452.465		727.0484	
71.66473	5497.973		725.6878	
71.71871	5543.546		723.7904	
71.7727	5589.173		721.3597	
71.82668	5634.825		718.3994	
71.88067	5680.462		714.9161	
71.93465	5726.046		710.9178	
71.98864	5771.538		706.4134	
72.04263	5816.896		701.4133	
72.09661	5862.077		695.9294	
72.1506	5907.028		689.9744	
72.20458	5951.689		683.5623	
72.25857	5995.99		676.7083	
72.31255	6039.843		669.4284	
72.36654	6083.146		661.7389	
72.42052	6125.784		653.6584	
72.47452	6167.65		645.2033	
72.5285	6208.634		636.3945	
72.58249	6248.656		627.2501	
72.63647	6287.654		617.7893	
72.69046	6325.58		608.0311	
72.74445	6362.394		597.9954	
72.79843	6398.07		587.7015	
72.85242	6432.602		577.1689	
72.9064	6465.996		566.4174	
72.96039	6498.266		555.4663	
73.01437	6529.42		544.3351	
73.06836	6559.464		533.0432	
73.12234	6588.408		521.6099	
73.17633	6616.27		510.0545	
73.23032	6643.048		498.3965	
73.28431	6668.736		486.6532	
73.33829	6693.321		474.847	
73.39228	6716.826		462.9954	
73.44627	6739.288		451.1171	
73.50025	6760.756		439.2309	
73.55424	6781.28		427.3552	
73.60822	6800.912		415.5082	
73.66221	6819.7		403.7081	
73.71619	6837.689		391.9723	
73.77018	6854.928		380.3183	
73.82417	6871.46		368.763	
73.87815	6887.313		357.3229	
73.93214	6902.493		346.014	
73.98612	6916.999		334.8516	
74.04011	6930.838		323.8501	
74.0941	6944.027		313.0219	
74.14809	6956.581		302.3835	
74.20207	6968.529		291.9456	
74.25606	6979.91		281.7194	
74.31004	6990.776		271.7159	
74.36403	7001.177		261.9445	
74.41801	7011.158		252.4135	
74.472	7020.75		243.1302	
74.52599	7029.969		234.1005	
74.57997	7038.831		225.3293	
74.63396	7047.364		216.8202	
74.68794	7055.597		208.5755	
74.74193	7063.542		200.5962	
74.79591	7071.204		192.8827	
74.8499	7078.588		185.4331	
74.90388	7085.715		178.2453	
74.95788	7092.601		171.3153	
75.01186	7099.249		164.6406	
75.06585	7105.666		158.2148	
75.11983	7111.877		152.0325	
75.17382	7117.92		146.0869	
75.22781	7123.826		140.3707	
75.28179	7129.602		134.8761	
75.33578	7135.24		129.595	
75.38976	7140.733		124.5191	
75.44375	7146.08		119.6396	
75.49773	7151.287		114.9477	
75.55172	7156.359		110.4347	
75.60571	7161.295		106.0919	
75.65969	7166.079		101.9104	
75.71368	7170.696		97.88187	
75.76767	7175.147		93.99744	
75.82166	7179.432		90.25023	
75.87564	7183.549		86.63188	
75.92963	7187.496		83.13516	
75.98361	7191.265		79.75284	
76.0376	7194.854		76.4781	
76.09158	7198.27		73.30456	
76.14557	7201.517		70.2262	
76.19955	7204.605		67.23742	
76.25354	7207.546		64.33308	
76.30753	7210.362		61.50836	
76.36151	7213.09		58.75881	
76.4155	7215.763		56.08031	
76.46948	7218.391		53.46892	
76.52347	7220.959		50.92107	
76.57746	7223.452		48.43305	
76.63145	7225.859		46.00246	
76.68543	7228.176		43.62604	
76.73942	7230.398		41.30125	
76.7934	7232.521		39.02571	
76.84739	7234.545		36.79728	
76.90137	7236.467		34.61409	
76.95536	7238.279		32.47452	
77.00935	7239.971		30.37717	
77.06333	7241.536		28.32089	
77.11732	7242.979		26.3047	
77.1713	7244.309		24.32776	
77.22529	7245.532		22.38929	
77.27927	7246.646		20.48867	
77.33326	7247.639		18.62525	
77.38725	7248.488		16.79829	
77.44124	7249.176		15.00784	
77.49522	7249.692		13.2532	
77.54921	7250.029		11.53396	
77.6032	7250.178		9.849874	
77.65718	7250.14		8.200591	
77.71117	7249.929		6.585825	
77.76515	7249.56		5.005342	
77.81914	7249.052		3.459001	
77.87312	7248.43		1.946766	
77.92711	7247.718		0.4686977	
77.98109	7246.935		-0.9750558	
78.03508	7246.098		-2.384255	
78.08907	7245.227		-3.758516	
78.14305	7244.343		-5.097431	
78.19704	7243.452		-6.40052	
78.25103	7242.541		-7.66668	
78.30502	7241.596		-8.89529	
78.359	7240.609		-10.08554	
78.41299	7239.584		-11.23648	
78.46697	7238.529		-12.34724	
78.52096	7237.447		-13.41698	
78.57494	7236.339		-14.44488	
78.62893	7235.199		-15.43019	
78.68291	7234.022		-16.37218	
78.7369	7232.816		-17.27022	
78.79089	7231.595		-18.12375	
78.84487	7230.363		-18.93235	
78.89886	7229.115		-19.69565	
78.95284	7227.833		-20.4135	
79.00684	7226.497		-21.08575	
79.06082	7225.089		-21.71204	
79.11481	7223.596		-22.29238	
79.16879	7222.01		-22.82686	
79.22278	7220.339		-23.31562	
79.27676	7218.602		-23.75901	
79.33075	7216.817		-24.15751	
79.38474	7215.003		-24.51167	
79.43872	7213.176		-24.82215	
79.49271	7211.351		-25.08974	
79.54669	7209.535		-25.31536	
79.60068	7207.739		-25.50008	
79.65466	7205.975		-25.64514	
79.70865	7204.245		-25.75185	
79.76263	7202.539		-25.82173	
79.81662	7200.839		-25.8562	
79.87061	7199.136		-25.85675	
79.9246	7197.422		-25.82484	
79.97858	7195.689		-25.76197	
80.03257	7193.926		-25.66955	
80.08656	7192.125		-25.54909	
80.14054	7190.286		-25.40204	
80.19453	7188.42		-25.22982	
80.24851	7186.545		-25.03384	
80.3025	7184.677		-24.81547	
80.35648	7182.834		-24.57604	
80.41047	7181.043		-24.31681	
80.46445	7179.333		-24.03902	
80.51844	7177.723		-23.74388	
80.57243	7176.208		-23.43267	
80.62641	7174.766		-23.10662	
80.6804	7173.37		-22.76694	
80.73439	7172.009		-22.41503	
80.78838	7170.68		-22.05216	
80.84236	7169.373		-21.67969	
80.89635	7168.078		-21.29905	
80.95033	7166.792		-20.9117	
81.00432	7165.515		-20.5191	
81.0583	7164.245		-20.12273	
81.11229	7162.993		-19.72404	
81.16628	7161.782		-19.3245	
81.22026	7160.648		-18.92563	
81.27425	7159.623		-18.52898	
81.32823	7158.727		-18.13621	
81.38222	7157.964		-17.74898	
81.4362	7157.319		-17.36899	
81.4902	7156.763		-16.99791	
81.54418	7156.274		-16.6376	
81.59817	7155.835		-16.28978	
81.65215	7155.431		-15.95627	
81.70614	7155.037		-15.63886	
81.76012	7154.621		-15.33937	
81.81411	7154.155		-15.05959	
81.8681	7153.626		-14.80127	
81.92208	7153.041		-14.56612	
81.97607	7152.427		-14.3558	
82.03005	7151.817		-14.17197	
82.08404	7151.242		-14.01623	
82.13802	7150.729		-13.89018	
82.19201	7150.294		-13.79539	
82.24599	7149.938		-13.73327	
82.29999	7149.651		-13.70526	
82.35397	7149.423		-13.71266	
82.40796	7149.241		-13.75668	
82.46194	7149.088		-13.83834	
82.51593	7148.942		-13.95867	
82.56992	7148.777		-14.1184	
82.6239	7148.563		-14.31816	
82.67789	7148.281		-14.55849	
82.73187	7147.926		-14.83977	
82.78586	7147.503		-15.16236	
82.83984	7147.025		-15.52652	
82.89383	7146.515		-15.93252	
82.94781	7146		-16.38057	
83.0018	7145.496		-16.87094	
83.05579	7145.003		-17.4037	
83.10978	7144.516		-17.97909	
83.16376	7144.024		-18.59699	
83.21775	7143.515		-19.25744	
83.27174	7142.972		-19.96032	
83.32572	7142.375		-20.70559	
83.37971	7141.706		-21.49301	
83.43369	7140.954		-22.32232	
83.48768	7140.113		-23.19315	
83.54166	7139.19		-24.10512	
83.59565	7138.202		-25.05778	
83.64964	7137.167		-26.05067	
83.70362	7136.104		-27.08338	
83.75761	7135.03		-28.1555	
83.81159	7133.948		-29.26671	
83.86558	7132.848		-30.41653	
83.91956	7131.705		-31.60456	
83.97356	7130.5		-32.83051	
84.02754	7129.211		-34.0935	
84.08153	7127.818		-35.39303	
84.13551	7126.309		-36.72846	
84.1895	7124.679		-38.09885	
84.24348	7122.928		-39.50319	
84.29747	7121.055		-40.94032	
84.35146	7119.06		-42.40898	
84.40544	7116.949		-43.90781	
84.45943	7114.736		-45.43534	
84.51341	7112.436		-46.98999	
84.5674	7110.063		-48.57008	
84.62138	7107.621		-50.17379	
84.67537	7105.111		-51.79915	
84.72935	7102.518		-53.44415	
84.78335	7099.821		-55.10699	
84.83733	7096.994		-56.78512	
84.89132	7094.013		-58.4767	
84.9453	7090.873		-60.1797	
84.99929	7087.582		-61.89204	
85.05328	7084.165		-63.61169	
85.10726	7080.655		-65.33665	
85.16125	7077.084		-67.06496	
85.21523	7073.479		-68.79466	
85.26922	7069.861		-70.52388	
85.3232	7066.236		-72.25081	
85.37719	7062.595		-73.97372	
85.43118	7058.911		-75.69094	
85.48516	7055.149		-77.40096	
85.53915	7051.277		-79.10231	
85.59314	7047.254		-80.79391	
85.64713	7043.041		-82.47404	
85.70111	7038.613		-84.14185	
85.7551	7033.97		-85.7963	
85.80908	7029.127		-87.43645	
85.86307	7024.104		-89.06146	
85.91705	7018.918		-90.67057	
85.97104	7013.584		-92.26311	
86.02502	7008.123		-93.83855	
86.07901	7002.544		-95.39648	
86.133	6996.859		-96.93649	
86.18698	6991.078		-98.45826	
86.24097	6985.199		-99.96141	
86.29495	6979.212		-101.4455	
86.34894	6973.107		-102.9102	
86.40293	6966.881		-104.3551	
86.45692	6960.529		-105.7793	
86.5109	6954.05		-107.1822	
86.56489	6947.45		-108.5633	
86.61887	6940.753		-109.9218	
86.67286	6933.994		-111.2571	
86.72684	6927.22		-112.5686	
86.78083	6920.48		-113.8557	
86.83482	6913.796		-115.1179	
86.8888	6907.168		-116.3547	
86.94279	6900.587		-117.5659	
86.99677	6894.037		-118.7511	
87.05076	6887.496		-119.9098	
87.10474	6880.937		-121.0418	
87.15873	6874.333		-122.1467	
87.21272	6867.67		-123.2245	
87.26671	6860.939		-124.2744	
87.32069	6854.133		-125.2963	
87.37468	6847.245		-126.29	
87.42867	6840.276		-127.2553	
87.48265	6833.242		-128.1922	
87.53664	6826.166		-129.1008	
87.59062	6819.064		-129.9814	
87.64461	6811.941		-130.8344	
87.69859	6804.801		-131.6602	
87.75258	6797.648		-132.4592	
87.80656	6790.482		-133.2321	
87.86055	6783.29		-133.9794	
87.91454	6776.042		-134.7015	
87.96852	6768.718		-135.399	
88.02251	6761.298		-136.0728	
88.0765	6753.776		-136.723	
88.13049	6746.149		-137.3506	
88.18447	6738.43		-137.9562	
88.23846	6730.641		-138.5405	
88.29244	6722.818		-139.1043	
88.34643	6715.001		-139.6483	
88.40041	6707.222		-140.1732	
88.4544	6699.498		-140.6796	
88.50838	6691.829		-141.168	
88.56237	6684.191		-141.639	
88.61636	6676.543		-142.0929	
88.67034	6668.854		-142.53	
88.72433	6661.104		-142.9504	
88.77831	6653.28		-143.3544	
88.8323	6645.371		-143.7418	
88.88629	6637.375		-144.1129	
88.94028	6629.305		-144.4674	
88.99426	6621.176		-144.8055	
89.04825	6613.011		-145.1271	
89.10223	6604.838		-145.4322	
89.15622	6596.681		-145.7207	
89.21021	6588.557		-145.9926	
89.26419	6580.474		-146.2479	
89.31818	6572.421		-146.4865	
89.37216	6564.377		-146.7084	
89.42615	6556.318		-146.9135	
89.48013	6548.225		-147.1017	
89.53412	6540.086		-147.2729	
89.5881	6531.895		-147.4274	
89.64209	6523.645		-147.565	
89.69608	6515.334		-147.6863	
89.75007	6506.969		-147.7913	
89.80405	6498.572		-147.8807	
89.85804	6490.173		-147.955	
89.91203	6481.809		-148.015	
89.96601	6473.51		-148.0615	
90.02	6465.295		-148.0952	
90.07398	6457.165		-148.117	
90.12797	6449.104		-148.1278	
90.18195	6441.086		-148.1284	
90.23594	6433.076		-148.1196	
90.28992	6425.048		-148.1022	
90.34391	6416.987		-148.0773	
90.3979	6408.893		-148.0455	
90.45188	6400.782		-148.0078	
90.50587	6392.67		-147.9649	
90.55986	6384.575		-147.9176	
90.61385	6376.517		-147.8665	
90.66783	6368.517		-147.8122	
90.72182	6360.582		-147.7552	
90.7758	6352.703		-147.6959	
90.82979	6344.868		-147.6349	
90.88377	6337.063		-147.5724	
90.93776	6329.259		-147.509	
90.99174	6321.44		-147.4448	
91.04573	6313.593		-147.3801	
91.09972	6305.711		-147.315	
91.1537	6297.792		-147.2497	
91.20769	6289.85		-147.1842	
91.26167	6281.903		-147.1185	
91.31567	6273.97		-147.0526	
91.36965	6266.059		-146.9865	
91.42364	6258.172		-146.9198	
91.47762	6250.309		-146.8526	
91.53161	6242.464		-146.7845	
91.58559	6234.642		-146.7155	
91.63958	6226.846		-146.6452	
91.69357	6219.078		-146.5735	
91.74755	6211.334		-146.5001	
91.80154	6203.613		-146.4249	
91.85552	6195.91		-146.3476	
91.90951	6188.219		-146.268	
91.96349	6180.53		-146.1861	
92.01748	6172.838		-146.1016	
92.07146	6165.146		-146.0146	
92.12546	6157.458		-145.925	
92.17944	6149.778		-145.8329	
92.23343	6142.11		-145.7385	
92.28741	6134.44		-145.6419	
92.3414	6126.741		-145.5433	
92.39539	6118.985		-145.4428	
92.44937	6111.15		-145.3081	
92.50336	6103.226		-145.1687	
92.55734	6095.22		-145.027	
92.61133	6087.147		-144.8849	
92.66531	6079.027		-144.7437	
92.7193	6070.881		-144.6039	
92.77328	6062.725		-144.4657	
92.82727	6054.56		-144.3293	
92.88126	6046.384		-144.1945	
92.93524	6038.203		-144.061	
92.98923	6030.021		-143.9287	
93.04322	6021.847		-143.7974	
93.09721	6013.684		-143.6669	
93.15119	6005.542		-143.5368	
93.20518	5997.436		-143.4072	
93.25916	5989.381		-143.2776	
93.31315	5981.387		-143.1481	
93.36713	5973.457		-143.0183	
93.42112	5965.589		-142.8883	
93.47511	5957.78		-142.7578	
93.52909	5950.023		-142.6267	
93.58308	5942.314		-142.495	
93.63706	5934.643		-142.3624	
93.69105	5927.003		-142.2288	
93.74503	5919.393		-142.0943	
93.79903	5911.821		-141.9586	
93.85301	5904.3		-141.8217	
93.907	5896.822		-141.6836	
93.96098	5889.376		-141.5442	
94.01497	5881.953		-141.4033	
94.06895	5874.517		-141.2611	
94.12294	5867.1		-141.1174	
94.17693	5859.683		-140.9723	
94.23091	5852.26		-140.8257	
94.2849	5844.829		-140.6776	
94.33888	5837.39		-140.528	
94.39287	5829.944		-140.3769	
94.44685	5822.494		-140.2244	
94.50084	5815.039		-140.0705	
94.55482	5807.581		-139.9152	
94.60882	5800.121		-139.7584	
94.6628	5792.661		-139.6004	
94.71679	5785.204		-139.441	
94.77077	5777.748		-139.2803	
94.82476	5770.294		-139.1184	
94.87875	5762.843		-138.9554	
94.93273	5755.394		-138.7911	
94.98672	5747.948		-138.6257	
