T[Â°C]	350nm [counts / mm]	S.D.	First derivative	S.D. of first derivative
19.99889	6802.042		-101.2747	
20.05289	6796.726		-101.1485	
20.10688	6791.41		-101.0221	
20.16087	6786.094		-100.8957	
20.21486	6780.776		-100.7691	
20.26885	6775.458		-100.6425	
20.32285	6770.14		-100.5158	
20.37684	6764.823		-100.3892	
20.43083	6759.51		-100.2626	
20.48482	6754.205		-100.136	
20.53881	6748.907		-100.0096	
20.59281	6743.622		-99.88332	
20.6468	6738.35		-99.75729	
20.70079	6733.093		-99.63151	
20.75478	6727.854		-99.50606	
20.80877	6722.635		-99.38098	
20.86277	6717.436		-99.25635	
20.91676	6712.256		-99.13221	
20.97075	6707.068		-99.00863	
21.02474	6701.832		-98.88567	
21.07873	6696.504		-98.76338	
21.13272	6691.093		-98.64185	
21.18672	6685.614		-98.52111	
21.24071	6680.09		-98.40125	
21.2947	6674.544		-98.28232	
21.34869	6668.997		-98.16435	
21.40269	6663.463		-98.04742	
21.45668	6657.948		-97.93155	
21.51067	6652.452		-97.81676	
21.56466	6646.976		-97.70306	
21.61865	6641.514		-97.59046	
21.67265	6636.061		-97.47894	
21.72664	6630.611		-97.36847	
21.78063	6625.166		-97.259	
21.83462	6619.73		-97.15047	
21.88861	6614.319		-97.0428	
21.94261	6608.948		-96.93588	
21.9966	6603.629		-96.8296	
22.05059	6598.375		-96.72377	
22.10458	6593.183		-96.61819	
22.15857	6588.05		-96.51263	
22.21256	6582.975		-96.40675	
22.26656	6577.957		-96.30016	
22.32055	6572.998		-96.19236	
22.37454	6568.101		-96.08278	
22.42853	6563.262		-95.97071	
22.48252	6558.476		-95.85545	
22.53652	6553.719		-95.73631	
22.59051	6548.967		-95.61288	
22.6445	6544.199		-95.52953	
22.69849	6539.407		-95.44827	
22.75249	6534.587		-95.36936	
22.80648	6529.725		-95.29311	
22.86047	6524.815		-95.21986	
22.91446	6519.86		-95.14996	
22.96845	6514.867		-95.08379	
23.02245	6509.837		-95.02164	
23.07644	6504.769		-94.9638	
23.13043	6499.659		-94.91046	
23.18442	6494.507		-94.86176	
23.23841	6489.317		-94.81778	
23.2924	6484.087		-94.77847	
23.3464	6478.822		-94.7437	
23.40039	6473.525		-94.71328	
23.45438	6468.208		-94.68696	
23.50837	6462.89		-94.66443	
23.56236	6457.598		-94.64538	
23.61636	6452.357		-94.62943	
23.67035	6447.183		-94.61618	
23.72434	6442.076		-94.6051	
23.77833	6437.03		-94.5956	
23.83232	6432.034		-94.58706	
23.88632	6427.07		-94.57877	
23.94031	6422.114		-94.57006	
23.9943	6417.143		-94.5602	
24.04829	6412.131		-94.54855	
24.10229	6407.064		-94.53452	
24.15628	6401.941		-94.51759	
24.21027	6396.776		-94.49737	
24.26426	6391.594		-94.47356	
24.31825	6386.408		-94.44594	
24.37225	6381.225		-94.41435	
24.42624	6376.054		-94.37867	
24.48023	6370.905		-94.33878	
24.53422	6365.777		-94.29461	
24.58821	6360.662		-94.24615	
24.6422	6355.554		-94.19347	
24.6962	6350.444		-94.13666	
24.75019	6345.321		-94.07592	
24.80418	6340.165		-94.01154	
24.85817	6334.967		-93.94382	
24.91216	6329.721		-93.87317	
24.96616	6324.435		-93.80004	
25.02015	6319.125		-93.72497	
25.07414	6313.801		-93.64851	
25.12813	6308.476		-93.5713	
25.18213	6303.166		-93.494	
25.23612	6297.884		-93.41727	
25.29011	6292.646		-93.34174	
25.3441	6287.462		-93.26788	
25.39809	6282.338		-93.19609	
25.45209	6277.261		-93.12663	
25.50608	6272.213		-93.05963	
25.56007	6267.179		-92.99514	
25.61406	6262.145		-92.93311	
25.66805	6257.107		-92.87344	
25.72204	6252.065		-92.81599	
25.77604	6247.027		-92.76059	
25.83003	6242.012		-92.70707	
25.88402	6237.05		-92.65526	
25.93801	6232.165		-92.60497	
25.992	6227.362		-92.55603	
26.046	6222.633		-92.50829	
26.09999	6217.949		-92.46163	
26.15398	6213.284		-92.41595	
26.20797	6208.624		-92.37121	
26.26196	6203.955		-92.32738	
26.31596	6199.265		-92.2845	
26.36995	6194.545		-92.24259	
26.42394	6189.792		-92.2017	
26.47793	6185.003		-92.16183	
26.53193	6180.189		-92.12304	
26.58592	6175.363		-92.08535	
26.63991	6170.533		-92.04885	
26.6939	6165.702		-92.01369	
26.74789	6160.87		-91.98008	
26.80188	6156.031		-91.94827	
26.85588	6151.172		-91.91847	
26.90987	6146.287		-91.89093	
26.96386	6141.376		-91.86582	
27.01785	6136.448		-91.84334	
27.07184	6131.504		-91.8236	
27.12584	6126.543		-91.80673	
27.17983	6121.56		-91.79279	
27.23382	6116.547		-91.7818	
27.28781	6111.499		-91.77371	
27.3418	6106.418		-91.76838	
27.3958	6101.308		-91.7656	
27.44979	6096.173		-91.76512	
27.50378	6091.025		-91.76661	
27.55777	6085.877		-91.76971	
27.61176	6080.744		-91.77398	
27.66576	6075.634		-91.77893	
27.71975	6070.548		-91.78405	
27.77374	6065.483		-91.78885	
27.82773	6060.433		-91.79286	
27.88172	6055.396		-91.79566	
27.93572	6050.375		-91.79689	
27.98971	6045.373		-91.7962	
28.0437	6040.39		-91.79331	
28.09769	6035.423		-91.78804	
28.15168	6030.467		-91.78026	
28.20568	6025.514		-91.76993	
28.25967	6020.55		-91.75707	
28.31366	6015.56		-91.74178	
28.36765	6010.534		-91.72413	
28.42164	6005.472		-91.70423	
28.47564	6000.383		-91.68211	
28.52963	5995.287		-91.65777	
28.58362	5990.213		-91.63113	
28.63761	5985.184		-91.60217	
28.6916	5980.209		-91.57088	
28.7456	5975.287		-91.53731	
28.79959	5970.401		-91.50155	
28.85358	5965.532		-91.46371	
28.90757	5960.661		-91.4239	
28.96156	5955.777		-91.38228	
29.01556	5950.877		-91.33897	
29.06955	5945.959		-91.29417	
29.12354	5941.021		-91.24805	
29.17753	5936.058		-91.20086	
29.23152	5931.066		-91.15282	
29.28552	5926.05		-91.10414	
29.33951	5921.022		-91.05505	
29.3935	5916.001		-91.00577	
29.44749	5911.013		-90.95652	
29.50148	5906.084		-90.90757	
29.55548	5901.231		-90.85919	
29.60947	5896.457		-90.81163	
29.66346	5891.75		-90.76512	
29.71745	5887.09		-90.71986	
29.77144	5882.447		-90.67603	
29.82544	5877.8		-90.63377	
29.87943	5873.139		-90.59322	
29.93342	5868.457		-90.5545	
29.98741	5863.748		-90.51771	
30.0414	5859.003		-90.48296	
30.0954	5854.216		-90.45039	
30.14939	5849.392		-90.4201	
30.20338	5844.544		-90.39223	
30.25737	5839.689		-90.36694	
30.31136	5834.836		-90.34441	
30.36536	5829.98		-90.32475	
30.41935	5825.11		-90.30808	
30.47334	5820.217		-90.29439	
30.52733	5815.296		-90.28354	
30.58132	5810.348		-90.27528	
30.63531	5805.375		-90.26921	
30.68931	5800.382		-90.26477	
30.7433	5795.375		-90.26126	
30.79729	5790.356		-90.25786	
30.85128	5785.326		-90.25367	
30.90528	5780.282		-90.24776	
30.95927	5775.235		-90.23926	
31.01326	5770.202		-90.22735	
31.06725	5765.206		-90.2114	
31.12124	5760.266		-90.19089	
31.17524	5755.393		-90.1654	
31.22923	5750.583		-90.13461	
31.28322	5745.823		-90.09827	
31.33721	5741.091		-90.05621	
31.3912	5736.366		-90.00835	
31.4452	5731.63		-89.95464	
31.49919	5726.873		-89.8952	
31.55318	5722.095		-89.83017	
31.60717	5717.3		-89.7598	
31.66116	5712.494		-89.6844	
31.71515	5707.678		-89.60432	
31.76915	5702.853		-89.51997	
31.82314	5698.022		-89.4318	
31.87713	5693.19		-89.34033	
31.93112	5688.359		-89.24619	
31.98512	5683.525		-89.15012	
32.03911	5678.68		-89.05291	
32.0931	5673.81		-88.95547	
32.14709	5668.903		-88.85866	
32.20108	5663.956		-88.76335	
32.25507	5658.968		-88.67042	
32.30907	5653.942		-88.58071	
32.36306	5648.879		-88.49506	
32.41705	5643.788		-88.41429	
32.47104	5638.679		-88.33906	
32.52504	5633.565		-88.26992	
32.57903	5628.463		-88.20724	
32.63302	5623.392		-88.15115	
32.68701	5618.372		-88.10159	
32.741	5613.42		-88.05828	
32.79499	5608.542		-88.02076	
32.84899	5603.727		-87.98838	
32.90298	5598.959		-87.96037	
32.95697	5594.232		-87.93591	
33.01096	5589.547		-87.91418	
33.06496	5584.911		-87.89442	
33.11895	5580.329		-87.87595	
33.17294	5575.804		-87.85816	
33.22693	5571.34		-87.84054	
33.28092	5566.941		-87.82264	
33.33492	5562.611		-87.80415	
33.38891	5558.352		-87.78486	
33.4429	5554.152		-87.76466	
33.49689	5549.993		-87.74352	
33.55088	5545.849		-87.7215	
33.60487	5541.684		-87.69869	
33.65887	5537.457		-87.67522	
33.71286	5533.145		-87.65125	
33.76685	5528.736		-87.62696	
33.82084	5524.226		-87.60254	
33.87484	5519.632		-87.57823	
33.92883	5514.971		-87.55434	
33.98282	5510.268		-87.53123	
34.03681	5505.548		-87.50923	
34.0908	5500.825		-87.48875	
34.14479	5496.102		-87.4701	
34.19879	5491.37		-87.45362	
34.25278	5486.611		-87.43959	
34.30677	5481.809		-87.42826	
34.36076	5476.951		-87.41985	
34.41475	5472.035		-87.41461	
34.46875	5467.055		-87.41273	
34.52274	5462.002		-87.41432	
34.57673	5456.877		-87.41936	
34.63072	5451.69		-87.42769	
34.68472	5446.47		-87.43895	
34.73871	5441.252		-87.4527	
34.7927	5436.074		-87.46835	
34.84669	5430.958		-87.4852	
34.90068	5425.92		-87.50246	
34.95467	5420.973		-87.51927	
35.00867	5416.117		-87.5347	
35.06266	5411.353		-87.54776	
35.11665	5406.671		-87.55753	
35.17064	5402.052		-87.56307	
35.22464	5397.471		-87.56356	
35.27863	5392.904		-87.55824	
35.33262	5388.328		-87.54642	
35.38661	5383.723		-87.52758	
35.4406	5379.082		-87.50132	
35.49459	5374.41		-87.4674	
35.54859	5369.72		-87.42577	
35.60258	5365.018		-87.37658	
35.65657	5360.309		-87.32008	
35.71056	5355.6		-87.25665	
35.76455	5350.896		-87.18681	
35.81855	5346.195		-87.11112	
35.87254	5341.492		-87.03018	
35.92653	5336.779		-86.9446	
35.98052	5332.052		-86.85494	
36.03452	5327.317		-86.76178	
36.0885	5322.58		-86.66566	
36.1425	5317.842		-86.5671	
36.19649	5313.098		-86.46659	
36.25048	5308.336		-86.36463	
36.30447	5303.552		-86.26169	
36.35847	5298.747		-86.15823	
36.41246	5293.931		-86.05476	
36.46645	5289.114		-85.95185	
36.52044	5284.306		-85.85007	
36.57444	5279.52		-85.75002	
36.62843	5274.775		-85.65221	
36.68242	5270.091		-85.55714	
36.73641	5265.483		-85.46521	
36.7904	5260.961		-85.37679	
36.84439	5256.529		-85.29216	
36.89839	5252.183		-85.21156	
36.95238	5247.898		-85.13514	
37.00637	5243.632		-85.06291	
37.06036	5239.345		-84.99481	
37.11435	5235.017		-84.9307	
37.16835	5230.645		-84.8704	
37.22234	5226.238		-84.81374	
37.27633	5221.811		-84.76051	
37.33032	5217.373		-84.7104	
37.38432	5212.927		-84.66318	
37.4383	5208.468		-84.61856	
37.4923	5203.997		-84.57635	
37.54629	5199.511		-84.53648	
37.60028	5195.006		-84.49889	
37.65427	5190.477		-84.46361	
37.70827	5185.917		-84.43071	
37.76226	5181.323		-84.40022	
37.81625	5176.692		-84.37212	
37.87024	5172.03		-84.34637	
37.92423	5167.343		-84.3228	
37.97823	5162.638		-84.30117	
38.03222	5157.926		-84.28117	
38.08621	5153.219		-84.26249	
38.1402	5148.531		-84.24471	
38.19419	5143.873		-84.22737	
38.24818	5139.257		-84.21002	
38.30218	5134.69		-84.19218	
38.35617	5130.18		-84.17336	
38.41016	5125.73		-84.15311	
38.46415	5121.337		-84.13103	
38.51815	5116.983		-84.1068	
38.57214	5112.639		-84.08016	
38.62613	5108.272		-84.05096	
38.68012	5103.853		-84.01907	
38.73412	5099.37		-83.98446	
38.78811	5094.831		-83.94716	
38.8421	5090.256		-83.90726	
38.89609	5085.679		-83.86494	
38.95008	5081.122		-83.82045	
39.00407	5076.58		-83.77402	
39.05807	5072.044		-83.72595	
39.11206	5067.504		-83.67651	
39.16605	5062.955		-83.62603	
39.22004	5058.391		-83.5748	
39.27403	5053.811		-83.52316	
39.32803	5049.207		-83.4714	
39.38202	5044.564		-83.41982	
39.43601	5039.882		-83.36871	
39.49	5035.169		-83.31828	
39.54399	5030.44		-83.26872	
39.59798	5025.714		-83.22025	
39.65198	5021.005		-83.17305	
39.70597	5016.319		-83.12731	
39.75996	5011.651		-83.08318	
39.81395	5006.998		-83.04073	
39.86795	5002.37		-83.00001	
39.92194	4997.775		-82.96095	
39.97593	4993.219		-82.92341	
40.02992	4988.697		-82.8872	
40.08391	4984.207		-82.85207	
40.13791	4979.742		-82.8177	
40.1919	4975.296		-82.78374	
40.24589	4970.867		-82.74975	
40.29988	4966.452		-82.71532	
40.35387	4962.054		-82.68005	
40.40787	4957.686		-82.64353	
40.46186	4953.364		-82.60543	
40.51585	4949.104		-82.56543	
40.56984	4944.908		-82.52331	
40.62383	4940.76		-82.47892	
40.67783	4936.639		-82.43219	
40.73182	4932.527		-82.38318	
40.78581	4928.408		-82.33201	
40.8398	4924.262		-82.27892	
40.8938	4920.084		-82.2243	
40.94778	4915.874		-82.16861	
41.00178	4911.63		-82.11246	
41.05577	4907.351		-82.05649	
41.10976	4903.036		-82.00137	
41.16375	4898.687		-81.94779	
41.21775	4894.306		-81.89648	
41.27174	4889.894		-81.84814	
41.32573	4885.445		-81.80344	
41.37972	4880.957		-81.76303	
41.43371	4876.435		-81.7274	
41.48771	4871.877		-81.69691	
41.5417	4867.285		-81.6717	
41.59569	4862.665		-81.65176	
41.64968	4858.026		-81.63696	
41.70367	4853.371		-81.62706	
41.75766	4848.703		-81.62169	
41.81166	4844.029		-81.62036	
41.86565	4839.365		-81.62247	
41.91964	4834.721		-81.62735	
41.97363	4830.105		-81.63425	
42.02763	4825.532		-81.64241	
42.08162	4821.013		-81.65101	
42.13561	4816.546		-81.65922	
42.1896	4812.132		-81.66616	
42.2436	4807.768		-81.67095	
42.29758	4803.446		-81.67275	
42.35158	4799.155		-81.67076	
42.40557	4794.886		-81.66427	
42.45956	4790.63		-81.65266	
42.51355	4786.386		-81.63536	
42.56755	4782.15		-81.61191	
42.62154	4777.916		-81.58191	
42.67553	4773.676		-81.5451	
42.72952	4769.431		-81.50133	
42.78351	4765.177		-81.45059	
42.83751	4760.912		-81.39304	
42.8915	4756.626		-81.32896	
42.94549	4752.318		-81.25887	
42.99948	4747.986		-81.18336	
43.05347	4743.629		-81.10316	
43.10746	4739.251		-81.01907	
43.16146	4734.853		-80.93195	
43.21545	4730.431		-80.84265	
43.26944	4725.985		-80.75213	
43.32343	4721.515		-80.66132	
43.37743	4717.023		-80.5712	
43.43142	4712.511		-80.48273	
43.48541	4707.963		-80.39681	
43.5394	4703.375		-80.31428	
43.59339	4698.749		-80.23579	
43.64738	4694.097		-80.16185	
43.70138	4689.44		-80.09284	
43.75537	4684.803		-80.02894	
43.80936	4680.203		-79.97012	
43.86335	4675.652		-79.91622	
43.91734	4671.148		-79.86694	
43.97134	4666.689		-79.82185	
44.02533	4662.277		-79.78046	
44.07932	4657.915		-79.74223	
44.13331	4653.608		-79.70655	
44.18731	4649.359		-79.67278	
44.2413	4645.166		-79.64028	
44.29529	4641.023		-79.6084	
44.34928	4636.926		-79.57652	
44.40327	4632.872		-79.54409	
44.45726	4628.854		-79.51065	
44.51126	4624.868		-79.4758	
44.56525	4620.899		-79.43926	
44.61924	4616.939		-79.40083	
44.67323	4612.979		-79.36034	
44.72723	4609.021		-79.31773	
44.78122	4605.058		-79.27301	
44.83521	4601.083		-79.22623	
44.8892	4597.086		-79.1775	
44.94319	4593.06		-79.12702	
44.99718	4588.994		-79.07504	
45.05118	4584.879		-79.02191	
45.10517	4580.712		-78.96803	
45.15916	4576.492		-78.91383	
45.21315	4572.221		-78.85978	
45.26714	4567.909		-78.80639	
45.32114	4563.563		-78.75417	
45.37513	4559.197		-78.70366	
45.42912	4554.818		-78.65537	
45.48311	4550.427		-78.6098	
45.53711	4546.024		-78.56738	
45.59109	4541.61		-78.5285	
45.64509	4537.184		-78.4934	
45.69908	4532.753		-78.46224	
45.75307	4528.325		-78.43504	
45.80706	4523.913		-78.41167	
45.86106	4519.521		-78.39189	
45.91505	4515.149		-78.37531	
45.96904	4510.792		-78.36142	
46.02303	4506.445		-78.34956	
46.07703	4502.107		-78.339	
46.13102	4497.783		-78.32897	
46.18501	4493.471		-78.31866	
46.239	4489.174		-78.30724	
46.29299	4484.896		-78.29391	
46.34698	4480.639		-78.27785	
46.40098	4476.411		-78.25835	
46.45497	4472.216		-78.23476	
46.50896	4468.048		-78.20656	
46.56295	4463.893		-78.17336	
46.61694	4459.738		-78.13496	
46.67094	4455.579		-78.09129	
46.72493	4451.411		-78.0424	
46.77892	4447.234		-77.98848	
46.83291	4443.056		-77.9298	
46.88691	4438.885		-77.8667	
46.9409	4434.728		-77.79961	
46.99489	4430.579		-77.729	
47.04888	4426.427		-77.65533	
47.10287	4422.261		-77.57917	
47.15686	4418.076		-77.50103	
47.21086	4413.874		-77.42148	
47.26485	4409.659		-77.34109	
47.31884	4405.439		-77.2604	
47.37283	4401.228		-77.17992	
47.42682	4397.033		-77.10015	
47.48082	4392.853		-77.02155	
47.53481	4388.682		-76.94455	
47.5888	4384.499		-76.86959	
47.64279	4380.285		-76.79705	
47.69678	4376.031		-76.72732	
47.75077	4371.742		-76.66071	
47.80477	4367.433		-76.59745	
47.85876	4363.124		-76.5377	
47.91275	4358.836		-76.48151	
47.96674	4354.588		-76.42882	
48.02074	4350.391		-76.37946	
48.07473	4346.251		-76.33318	
48.12872	4342.171		-76.28967	
48.18271	4338.146		-76.24858	
48.23671	4334.168		-76.20954	
48.2907	4330.229		-76.17213	
48.34469	4326.319		-76.1359	
48.39868	4322.427		-76.10043	
48.45267	4318.544		-76.06526	
48.50666	4314.659		-76.02997	
48.56066	4310.767		-75.99416	
48.61465	4306.86		-75.95754	
48.66864	4302.934		-75.91991	
48.72263	4298.98		-75.88116	
48.77662	4294.999		-75.84135	
48.83062	4290.996		-75.8006	
48.88461	4286.983		-75.75917	
48.9386	4282.97		-75.71747	
48.99259	4278.959		-75.67593	
49.04659	4274.953		-75.63503	
49.10057	4270.95		-75.59525	
49.15457	4266.941		-75.55704	
49.20856	4262.911		-75.5208	
49.26255	4258.84		-75.48684	
49.31654	4254.709		-75.45538	
49.37054	4250.519		-75.42649	
49.42453	4246.279		-75.40016	
49.47852	4242.005		-75.37627	
49.53251	4237.717		-75.35457	
49.5865	4233.432		-75.33477	
49.6405	4229.17		-75.31651	
49.69449	4224.941		-75.29939	
49.74848	4220.751		-75.28303	
49.80247	4216.598		-75.26698	
49.85646	4212.478		-75.25082	
49.91046	4208.384		-75.23419	
49.96445	4204.304		-75.21672	
50.01844	4200.228		-75.1981	
50.07243	4196.149		-75.17803	
50.12642	4192.064		-75.15623	
50.18042	4187.966		-75.13243	
50.23441	4183.854		-75.10643	
50.2884	4179.737		-75.07804	
50.34239	4175.625		-75.04711	
50.39639	4171.535		-75.01352	
50.45037	4167.479		-74.97717	
50.50437	4163.465		-74.93796	
50.55836	4159.497		-74.89579	
50.61235	4155.571		-74.85061	
50.66634	4151.68		-74.80236	
50.72034	4147.805		-74.75105	
50.77433	4143.927		-74.69673	
50.82832	4140.033		-74.63956	
50.88231	4136.111		-74.57977	
50.9363	4132.147		-74.51768	
50.9903	4128.134		-74.45371	
51.04429	4124.076		-74.38831	
51.09828	4119.988		-74.32203	
51.15227	4115.883		-74.25541	
51.20626	4111.776		-74.18906	
51.26025	4107.677		-74.12357	
51.31425	4103.592		-74.05948	
51.36824	4099.525		-73.99731	
51.42223	4095.47		-73.93748	
51.47622	4091.414		-73.88028	
51.53022	4087.337		-73.82587	
51.58421	4083.23		-73.77427	
51.6382	4079.092		-73.72536	
51.69219	4074.93		-73.67889	
51.74619	4070.753		-73.63452	
51.80017	4066.58		-73.59186	
51.85417	4062.435		-73.55043	
51.90816	4058.341		-73.50979	
51.96215	4054.322		-73.46951	
52.01614	4050.39		-73.42919	
52.07014	4046.546		-73.38847	
52.12413	4042.783		-73.34704	
52.17812	4039.088		-73.30466	
52.23211	4035.444		-73.26115	
52.2861	4031.832		-73.21641	
52.3401	4028.229		-73.17041	
52.39409	4024.614		-73.1232	
52.44808	4020.965		-73.07485	
52.50207	4017.263		-73.02546	
52.55606	4013.49		-72.97509	
52.61005	4009.648		-72.92384	
52.66405	4005.744		-72.87177	
52.71804	4001.796		-72.81897	
52.77203	3997.823		-72.76557	
52.82602	3993.845		-72.71172	
52.88002	3989.874		-72.65762	
52.93401	3985.912		-72.60347	
52.988	3981.95		-72.54951	
53.04199	3977.983		-72.49592	
53.09598	3974.005		-72.44289	
53.14997	3970.009		-72.39056	
53.20397	3965.987		-72.33907	
53.25796	3961.935		-72.28849	
53.31195	3957.848		-72.23888	
53.36594	3953.731		-72.19028	
53.41993	3949.6		-72.14266	
53.47393	3945.464		-72.09591	
53.52792	3941.34		-72.04985	
53.58191	3937.25		-72.00425	
53.6359	3933.208		-71.95878	
53.6899	3929.225		-71.91308	
53.74389	3925.298		-71.86671	
53.79788	3921.423		-71.81915	
53.85187	3917.595		-71.76987	
53.90586	3913.809		-71.7183	
53.95985	3910.06		-71.66386	
54.01385	3906.338		-71.606	
54.06784	3902.626		-71.54425	
54.12183	3898.909		-71.47827	
54.17582	3895.171		-71.40784	
54.22982	3891.402		-71.33289	
54.28381	3887.593		-71.25352	
54.3378	3883.749		-71.16991	
54.39179	3879.881		-71.0824	
54.44578	3876.011		-70.99142	
54.49977	3872.149		-70.89747	
54.55377	3868.299		-70.80109	
54.60776	3864.463		-70.70287	
54.66175	3860.636		-70.60336	
54.71574	3856.814		-70.50314	
54.76973	3852.992		-70.40276	
54.82373	3849.17		-70.30273	
54.87772	3845.346		-70.20352	
54.93171	3841.516		-70.10558	
54.9857	3837.676		-70.00922	
55.0397	3833.827		-69.91468	
55.09369	3829.979		-69.82211	
55.14768	3826.139		-69.73155	
55.20167	3822.312		-69.64299	
55.25566	3818.504		-69.55636	
55.30965	3814.709		-69.47155	
55.36365	3810.92		-69.3884	
55.41764	3807.123		-69.30675	
55.47163	3803.307		-69.2263	
55.52562	3799.473		-69.14678	
55.57962	3795.627		-69.06788	
55.63361	3791.78		-68.98927	
55.6876	3787.948		-68.91061	
55.74159	3784.147		-68.83157	
55.79558	3780.391		-68.75176	
55.84958	3776.689		-68.67081	
55.90357	3773.043		-68.58832	
55.95756	3769.454		-68.5039	
56.01155	3765.921		-68.41721	
56.06554	3762.444		-68.32802	
56.11953	3759.021		-68.23621	
56.17353	3755.647		-68.14179	
56.22752	3752.305		-68.04495	
56.28151	3748.973		-67.946	
56.3355	3745.628		-67.84535	
56.3895	3742.252		-67.74361	
56.44349	3738.831		-67.64146	
56.49748	3735.354		-67.53967	
56.55147	3731.82		-67.43916	
56.60546	3728.227		-67.34087	
56.65945	3724.578		-67.24573	
56.71345	3720.876		-67.15469	
56.76744	3717.132		-67.06865	
56.82143	3713.355		-66.98837	
56.87542	3709.554		-66.91456	
56.92941	3705.732		-66.84779	
56.98341	3701.89		-66.78845	
57.0374	3698.029		-66.73678	
57.09139	3694.146		-66.69281	
57.14538	3690.239		-66.65637	
57.19938	3686.316		-66.62716	
57.25336	3682.398		-66.60471	
57.30736	3678.503		-66.58839	
57.36135	3674.648		-66.57753	
57.41534	3670.842		-66.57128	
57.46933	3667.093		-66.56875	
57.52333	3663.405		-66.56896	
57.57732	3659.782		-66.57095	
57.63131	3656.232		-66.57369	
57.6853	3652.764		-66.57623	
57.7393	3649.383		-66.57761	
57.79329	3646.081		-66.57687	
57.84728	3642.844		-66.57309	
57.90127	3639.648		-66.56534	
57.95526	3636.474		-66.55274	
58.00925	3633.305		-66.53447	
58.06325	3630.134		-66.50983	
58.11724	3626.951		-66.47828	
58.17123	3623.742		-66.43942	
58.22522	3620.492		-66.39303	
58.27921	3617.19		-66.33905	
58.33321	3613.83		-66.27759	
58.3872	3610.414		-66.20889	
58.44119	3606.951		-66.13333	
58.49518	3603.454		-66.05141	
58.54918	3599.927		-65.96377	
58.60316	3596.367		-65.87109	
58.65716	3592.76		-65.77415	
58.71115	3589.091		-65.67371	
58.76514	3585.351		-65.57052	
58.81913	3581.538		-65.46527	
58.87313	3577.66		-65.35863	
58.92712	3573.737		-65.2512	
58.98111	3569.792		-65.14347	
59.0351	3565.846		-65.03586	
59.08909	3561.912		-64.92862	
59.14309	3557.997		-64.82186	
59.19708	3554.108		-64.71559	
59.25107	3550.255		-64.60965	
59.30506	3546.451		-64.50375	
59.35905	3542.7		-64.39746	
59.41304	3539		-64.2903	
59.46704	3535.335		-64.18161	
59.52103	3531.694		-64.07073	
59.57502	3528.068		-63.95694	
59.62901	3524.455		-63.83947	
59.68301	3520.862		-63.71753	
59.737	3517.301		-63.59035	
59.79099	3513.785		-63.45722	
59.84498	3510.323		-63.31744	
59.89898	3506.921		-63.17038	
59.95296	3503.581		-63.01542	
60.00696	3500.306		-62.85202	
60.06095	3497.095		-62.67978	
60.11494	3493.941		-62.49842	
60.16893	3490.832		-62.30779	
60.22293	3487.753		-62.10787	
60.27692	3484.676		-61.8988	
60.33091	3481.573		-61.68076	
60.3849	3478.423		-61.45407	
60.43889	3475.224		-61.21918	
60.49289	3471.987		-60.97665	
60.54688	3468.731		-60.72718	
60.60087	3465.47		-60.4716	
60.65486	3462.213		-60.21073	
60.70885	3458.966		-59.94548	
60.76284	3455.727		-59.67677	
60.81684	3452.49		-59.40545	
60.87083	3449.248		-59.1324	
60.92482	3445.995		-58.85845	
60.97881	3442.732		-58.58424	
61.03281	3439.459		-58.3104	
61.0868	3436.18		-58.03735	
61.14079	3432.897		-57.76531	
61.19478	3429.612		-57.49436	
61.24877	3426.33		-57.22442	
61.30276	3423.064		-56.95521	
61.35676	3419.829		-56.68636	
61.41075	3416.635		-56.41737	
61.46474	3413.486		-56.14762	
61.51873	3410.391		-55.87632	
61.57273	3407.357		-55.60261	
61.62672	3404.382		-55.32553	
61.68071	3401.463		-55.04394	
61.7347	3398.588		-54.75671	
61.78869	3395.741		-54.46265	
61.84269	3392.91		-54.1605	
61.89668	3390.086		-53.84907	
61.95067	3387.27		-53.52719	
62.00466	3384.456		-53.19366	
62.05865	3381.642		-52.84743	
62.11264	3378.828		-52.48755	
62.16664	3376.021		-52.11308	
62.22063	3373.226		-51.72326	
62.27462	3370.449		-51.31741	
62.32861	3367.685		-50.89483	
62.38261	3364.925		-50.45499	
62.4366	3362.158		-49.99745	
62.49059	3359.381		-49.52177	
62.54458	3356.595		-49.02767	
62.59857	3353.799		-48.515	
62.65257	3350.993		-47.98348	
62.70656	3348.18		-47.43301	
62.76055	3345.365		-46.86356	
62.81454	3342.557		-46.27494	
62.86853	3339.769		-45.66716	
62.92252	3337.009		-45.04028	
62.97652	3334.282		-44.3942	
63.03051	3331.584		-43.72893	
63.0845	3328.915		-43.04448	
63.13849	3326.273		-42.34056	
63.19249	3323.662		-41.61699	
63.24648	3321.084		-40.87348	
63.30047	3318.546		-40.10951	
63.35446	3316.048		-39.3247	
63.40845	3313.587		-38.5186	
63.46244	3311.162		-37.69071	
63.51644	3308.774		-36.84031	
63.57043	3306.425		-35.96677	
63.62442	3304.121		-35.06943	
63.67841	3301.87		-34.14726	
63.73241	3299.682		-33.19942	
63.7864	3297.56		-32.22496	
63.84039	3295.51		-31.22264	
63.89438	3293.533		-30.19136	
63.94837	3291.628		-29.13	
64.00237	3289.796		-28.03713	
64.05636	3288.043		-26.91157	
64.11035	3286.369		-25.75212	
64.16434	3284.776		-24.55771	
64.21833	3283.265		-23.32685	
64.27232	3281.845		-22.05858	
64.32632	3280.52		-20.75174	
64.38031	3279.287		-19.40531	
64.4343	3278.14		-18.01835	
64.4883	3277.078		-16.58988	
64.54228	3276.097		-15.11913	
64.59628	3275.195		-13.60482	
64.65027	3274.366		-12.0461	
64.70426	3273.6		-10.44201	
64.75826	3272.889		-8.791599	
64.81225	3272.23		-7.093806	
64.86623	3271.63		-5.347815	
64.92023	3271.095		-3.55216	
64.97422	3270.629		-1.705908	
65.02821	3270.232		0.192018	
65.08221	3269.904		2.142705	
65.1362	3269.64		4.147378	
65.19019	3269.438		6.207051	
65.24418	3269.301		8.323565	
65.29817	3269.237		10.4982	
65.35217	3269.249		12.73246	
65.40616	3269.339		15.02789	
65.46015	3269.513		17.38623	
65.51414	3269.781		19.809	
65.56813	3270.158		22.29874	
65.62212	3270.661		24.85707	
65.67612	3271.3		27.48624	
65.73011	3272.085		30.1883	
65.7841	3273.024		32.96556	
65.83809	3274.118		35.82	
65.89208	3275.357		38.75486	
65.94608	3276.731		41.77225	
66.00007	3278.238		44.87497	
66.05406	3279.882		48.06564	
66.10806	3281.668		51.34679	
66.16205	3283.6		54.72109	
66.21603	3285.685		58.19069	
66.27003	3287.939		61.75896	
66.32402	3290.373		65.42822	
66.37801	3293.002		69.2009	
66.43201	3295.844		73.07938	
66.486	3298.908		77.06608	
66.53999	3302.193		81.16284	
66.59398	3305.698		85.37289	
66.64797	3309.411		89.69817	
66.70197	3313.322		94.14077	
66.75596	3317.422		98.70298	
66.80995	3321.714		103.3867	
66.86394	3326.202		108.1933	
66.91793	3330.897		113.1263	
66.97192	3335.81		118.1871	
67.02592	3340.962		123.3775	
67.07991	3346.378		128.6994	
67.1339	3352.082		134.1549	
67.18789	3358.09		139.7446	
67.24188	3364.42		145.472	
67.29588	3371.088		151.3381	
67.34987	3378.104		157.3448	
67.40386	3385.461		163.4937	
67.45786	3393.141		169.7867	
67.51184	3401.118		176.2243	
67.56583	3409.379		182.8102	
67.61983	3417.916		189.5451	
67.67382	3426.736		196.4307	
67.72781	3435.86		203.4684	
67.78181	3445.32		210.6593	
67.83579	3455.152		218.003	
67.88979	3465.389		225.5022	
67.94378	3476.062		233.1561	
67.99777	3487.197		240.9645	
68.05177	3498.811		248.9266	
68.10576	3510.907		257.0413	
68.15975	3523.482		265.3065	
68.21374	3536.527		273.7189	
68.26773	3550.038		282.278	
68.32172	3564.004		290.9796	
68.37572	3578.426		299.82	
68.42971	3593.312		308.7952	
68.4837	3608.674		317.9001	
68.53769	3624.52		327.1284	
68.59168	3640.865		336.4769	
68.64568	3657.711		345.9384	
68.69967	3675.062		355.506	
68.75366	3692.942		365.1727	
68.80766	3711.374		374.9306	
68.86164	3730.372		384.7701	
68.91563	3749.952		394.6852	
68.96963	3770.115		404.6658	
69.02362	3790.863		414.7021	
69.07761	3812.201		424.7841	
69.13161	3834.127		434.9014	
69.18559	3856.636		445.0416	
69.23959	3879.738		455.1963	
69.29358	3903.442		465.3521	
69.34757	3927.768		475.4968	
69.40157	3952.736		485.6176	
69.45556	3978.37		495.7012	
69.50954	4004.684		505.7325	
69.56354	4031.705		515.6999	
69.61753	4059.455		525.5873	
69.67152	4087.953		535.3795	
69.72552	4117.21		545.0606	
69.77951	4147.232		554.6144	
69.8335	4178.019		564.0229	
69.88749	4209.594		573.2717	
69.94148	4241.963		582.3419	
69.99548	4275.132		591.2151	
70.04947	4309.109		599.8732	
70.10346	4343.903		608.2972	
70.15746	4379.501		616.4686	
70.21144	4415.873		624.3672	
70.26543	4452.984		631.9763	
70.31943	4490.779		639.275	
70.37342	4529.195		646.2446	
70.42741	4568.173		652.8659	
70.48141	4607.665		659.1213	
70.53539	4647.627		664.9915	
70.58939	4688.033		670.4612	
70.64338	4728.842		675.5123	
70.69737	4770.027		680.1291	
70.75137	4811.57		684.297	
70.80536	4853.462		688.0018	
70.85934	4895.69		691.2315	
70.91334	4938.26		693.9761	
70.96733	4981.155		696.2241	
71.02132	5024.354		697.968	
71.07532	5067.833		699.201	
71.12931	5111.57		699.9177	
71.1833	5155.527		700.1155	
71.23729	5199.678		699.7929	
71.29128	5243.971		698.9483	
71.34528	5288.365		697.5837	
71.39927	5332.836		695.7019	
71.45326	5377.36		693.3066	
71.50725	5421.906		690.4052	
71.56124	5466.461		687.0031	
71.61523	5510.995		683.1095	
71.66923	5555.472		678.7324	
71.72322	5599.846		673.8825	
71.77721	5644.058		668.5706	
71.8312	5688.04		662.8108	
71.88519	5731.729		656.6138	
71.93919	5775.02		649.9948	
71.99318	5817.799		642.9673	
72.04717	5859.947		635.5472	
72.10117	5901.341		627.7499	
72.15516	5941.864		619.5925	
72.20914	5981.419		611.0927	
72.26314	6019.955		602.2653	
72.31713	6057.419		593.1281	
72.37112	6093.781		583.6988	
72.42512	6129.02		573.9946	
72.47911	6163.121		564.0338	
72.5331	6196.074		553.8349	
72.58709	6227.883		543.413	
72.64108	6258.545		532.7869	
72.69508	6288.063		521.9745	
72.74907	6316.447		510.994	
72.80306	6343.705		499.8632	
72.85705	6369.844		488.6023	
72.91104	6394.874		477.2265	
72.96503	6418.791		465.7561	
73.01903	6441.598		454.2098	
73.07302	6463.325		442.6068	
73.12701	6484.021		430.9662	
73.181	6503.752		419.3091	
73.23499	6522.591		407.6513	
73.28899	6540.597		396.014	
73.34298	6557.835		384.4167	
73.39697	6574.375		372.8783	
73.45097	6590.278		361.4181	
73.50495	6605.594		350.0558	
73.55894	6620.363		338.8064	
73.61294	6634.601		327.6888	
73.66693	6648.319		316.7202	
73.72092	6661.514		305.9164	
73.77492	6674.182		295.2926	
73.8289	6686.328		284.864	
73.8829	6697.964		274.6407	
73.93689	6709.106		264.6357	
73.99088	6719.787		254.86	
74.04488	6730.038		245.3225	
74.09887	6739.887		236.0316	
74.15286	6749.355		226.9929	
74.20685	6758.458		218.2134	
74.26084	6767.206		209.6939	
74.31483	6775.604		201.4388	
74.36883	6783.667		193.4488	
74.42282	6791.416		185.7242	
74.47681	6798.866		178.2629	
74.5308	6806.024		171.0639	
74.58479	6812.89		164.1212	
74.63879	6819.458		157.4319	
74.69278	6825.724		150.9902	
74.74677	6831.684		144.7899	
74.80077	6837.332		138.8241	
74.85475	6842.674		133.0854	
74.90874	6847.732		127.564	
74.96274	6852.526		122.2524	
75.01673	6857.084		117.1413	
75.07072	6861.438		112.2216	
75.12472	6865.613		107.4842	
75.1787	6869.627		102.92	
75.2327	6873.498		98.51911	
75.28669	6877.239		94.27322	
75.34068	6880.86		90.17432	
75.39468	6884.371		86.21448	
75.44867	6887.775		82.38653	
75.50266	6891.072		78.68405	
75.55665	6894.25		75.09998	
75.61064	6897.3		71.62921	
75.66463	6900.218		68.26689	
75.71863	6903.012		65.00839	
75.77262	6905.699		61.84971	
75.82661	6908.297		58.78694	
75.8806	6910.816		55.81711	
75.93459	6913.268		52.93604	
75.98859	6915.659		50.14115	
76.04258	6917.992		47.42937	
76.09657	6920.272		44.79786	
76.15057	6922.515		42.24371	
76.20455	6924.723		39.7646	
76.25854	6926.885		37.35713	
76.31254	6928.979		35.01918	
76.36653	6930.974		32.74826	
76.42052	6932.833		30.54218	
76.47452	6934.523		28.39883	
76.5285	6936.023		26.31679	
76.5825	6937.331		24.29385	
76.63649	6938.465		22.32907	
76.69048	6939.453		20.4212	
76.74448	6940.318		18.56913	
76.79847	6941.075		16.77184	
76.85246	6941.726		15.02836	
76.90645	6942.272		13.33699	
76.96044	6942.714		11.69671	
77.01443	6943.062		10.106	
77.06843	6943.314		8.563248	
77.12242	6943.458		7.066781	
77.17641	6943.473		5.614887	
77.2304	6943.345		4.205303	
77.28439	6943.06		2.836302	
77.33839	6942.611		1.506161	
77.39238	6942.004		0.2131872	
77.44637	6941.247		-1.044033	
77.50036	6940.35		-2.266657	
77.55435	6939.322		-3.455995	
77.60835	6938.181		-4.61269	
77.66234	6936.947		-5.737204	
77.71633	6935.644		-6.82994	
77.77032	6934.291		-7.891063	
77.82432	6932.921		-8.920739	
77.8783	6931.563		-9.918773	
77.9323	6930.24		-10.88541	
77.98629	6928.963		-11.82032	
78.04028	6927.722		-12.72342	
78.09428	6926.494		-13.59459	
78.14827	6925.254		-14.43385	
78.20226	6923.988		-15.24115	
78.25625	6922.688		-16.01699	
78.31024	6921.354		-16.76152	
78.36423	6919.989		-17.47522	
78.41823	6918.599		-18.15854	
78.47222	6917.192		-18.81183	
78.52621	6915.779		-19.43541	
78.5802	6914.367		-20.02968	
78.63419	6912.966		-20.59464	
78.68819	6911.594		-21.13038	
78.74218	6910.264		-21.63693	
78.79617	6908.979		-22.11427	
78.85016	6907.734		-22.56237	
78.90415	6906.523		-22.98137	
78.95815	6905.349		-23.37124	
79.01214	6904.223		-23.73215	
79.06613	6903.141		-24.06434	
79.12012	6902.093		-24.36816	
79.17411	6901.065		-24.64402	
79.2281	6900.04		-24.89253	
79.2821	6898.997		-25.11428	
79.33609	6897.923		-25.30993	
79.39008	6896.805		-25.48021	
79.44408	6895.634		-25.62587	
79.49806	6894.404		-25.7477	
79.55206	6893.113		-25.84657	
79.60605	6891.767		-25.92334	
79.66004	6890.378		-25.97885	
79.71404	6888.951		-26.01394	
79.76803	6887.487		-26.02938	
79.82202	6885.983		-26.02596	
79.87601	6884.444		-26.00436	
79.93	6882.889		-25.96523	
79.98399	6881.339		-25.90912	
80.03799	6879.802		-25.83657	
80.09198	6878.272		-25.74806	
80.14597	6876.741		-25.64417	
80.19996	6875.191		-25.52545	
80.25395	6873.601		-25.39254	
80.30795	6871.948		-25.24621	
80.36194	6870.216		-25.0874	
80.41593	6868.399		-24.91718	
80.46992	6866.503		-24.73666	
80.52391	6864.541		-24.54712	
80.5779	6862.535		-24.34974	
80.6319	6860.522		-24.14577	
80.68589	6858.545		-23.93652	
80.73988	6856.635		-23.72334	
80.79388	6854.806		-23.50753	
80.84786	6853.06		-23.29045	
80.90186	6851.388		-23.07325	
80.95585	6849.786		-22.85717	
81.00984	6848.254		-22.64328	
81.06384	6846.794		-22.43263	
81.11783	6845.413		-22.2262	
81.17181	6844.107		-22.02495	
81.22581	6842.865		-21.82969	
81.2798	6841.666		-21.64126	
81.33379	6840.481		-21.46043	
81.38779	6839.286		-21.28793	
81.44178	6838.062		-21.12451	
81.49577	6836.807		-20.9709	
81.54976	6835.536		-20.82785	
81.60375	6834.275		-20.69618	
81.65775	6833.068		-20.57678	
81.71174	6831.958		-20.47048	
81.76573	6830.986		-20.37817	
81.81973	6830.166		-20.30068	
81.87371	6829.498		-20.23894	
81.9277	6828.978		-20.1938	
81.9817	6828.595		-20.16627	
82.03569	6828.331		-20.15726	
82.08968	6828.159		-20.16778	
82.14368	6828.038		-20.19871	
82.19766	6827.919		-20.25107	
82.25166	6827.771		-20.32581	
82.30565	6827.575		-20.42402	
82.35964	6827.313		-20.54676	
82.41364	6826.973		-20.69523	
82.46763	6826.545		-20.87072	
82.52161	6826.034		-21.07448	
82.57561	6825.462		-21.30799	
82.6296	6824.854		-21.57275	
82.68359	6824.238		-21.87016	
82.73759	6823.638		-22.2017	
82.79158	6823.071		-22.5688	
82.84557	6822.527		-22.97269	
82.89956	6821.968		-23.41482	
82.95355	6821.34		-23.89632	
83.00755	6820.595		-24.41838	
83.06154	6819.699		-24.98199	
83.11553	6818.633		-25.5881	
83.16952	6817.395		-26.23735	
83.22351	6815.992		-26.93069	
83.2775	6814.443		-27.66856	
83.3315	6812.776		-28.45149	
83.38549	6811.021		-29.27978	
83.43948	6809.213		-30.15369	
83.49348	6807.386		-31.0733	
83.54746	6805.555		-32.03854	
83.60146	6803.727		-33.04955	
83.65545	6801.901		-34.10602	
83.70944	6800.077		-35.20752	
83.76344	6798.237		-36.35345	
83.81743	6796.367		-37.54292	
83.87141	6794.456		-38.77472	
83.92541	6792.501		-40.04795	
83.9794	6790.515		-41.36113	
84.03339	6788.509		-42.71271	
84.08739	6786.494		-44.10118	
84.14138	6784.456		-45.52483	
84.19537	6782.382		-46.9818	
84.24936	6780.27		-48.47076	
84.30335	6778.125		-49.98981	
84.35735	6775.943		-51.53715	
84.41134	6773.713		-53.11097	
84.46533	6771.416		-54.70949	
84.51932	6769.031		-56.3306	
84.57331	6766.541		-57.97289	
84.6273	6763.928		-59.6343	
84.6813	6761.184		-61.31278	
84.73529	6758.316		-63.00628	
84.78928	6755.339		-64.71269	
84.84327	6752.263		-66.42956	
84.89726	6749.088		-68.15516	
84.95126	6745.813		-69.88699	
85.00525	6742.439		-71.62287	
85.05924	6738.962		-73.3606	
85.11324	6735.371		-75.09807	
85.16722	6731.65		-76.83298	
85.22121	6727.791		-78.5639	
85.27521	6723.79		-80.2887	
85.3292	6719.646		-82.00569	
85.38319	6715.359		-83.7132	
85.43719	6710.928		-85.40967	
85.49118	6706.352		-87.09367	
85.54517	6701.632		-88.7637	
85.59916	6696.783		-90.41908	
85.65315	6691.812		-92.05846	
85.70715	6686.727		-93.68083	
85.76114	6681.526		-95.28514	
85.81513	6676.206		-96.87042	
85.86912	6670.747		-98.43537	
85.92311	6665.129		-99.97939	
85.9771	6659.334		-101.501	
86.0311	6653.355		-102.9992	
86.08509	6647.182		-104.4729	
86.13908	6640.814		-105.921	
86.19307	6634.258		-107.3423	
86.24706	6627.521		-108.7364	
86.30106	6620.609		-110.102	
86.35505	6613.543		-111.4386	
86.40904	6606.346		-112.7454	
86.46304	6599.051		-114.0218	
86.51702	6591.686		-115.2673	
86.57101	6584.277		-116.4821	
86.62501	6576.841		-117.6655	
86.679	6569.396		-118.8172	
86.73299	6561.95		-119.9371	
86.78699	6554.515		-121.0249	
86.84097	6547.093		-122.0803	
86.89497	6539.691		-123.1033	
86.94896	6532.31		-124.0935	
87.00295	6524.96		-125.0506	
87.05695	6517.648		-125.9742	
87.11094	6510.371		-126.8641	
87.16492	6503.125		-127.7199	
87.21892	6495.902		-128.5415	
87.27291	6488.702		-129.3288	
87.3269	6481.525		-130.0816	
87.3809	6474.378		-130.8001	
87.43489	6467.269		-131.4844	
87.48888	6460.197		-132.1347	
87.54287	6453.159		-132.7514	
87.59686	6446.147		-133.3352	
87.65086	6439.153		-133.8866	
87.70485	6432.164		-134.4065	
87.75884	6425.172		-134.8959	
87.81284	6418.172		-135.3559	
87.86682	6411.147		-135.7877	
87.92081	6404.085		-136.1928	
87.97481	6396.984		-136.5726	
88.0288	6389.847		-136.9286	
88.08279	6382.666		-137.2624	
88.13679	6375.437		-137.5755	
88.19077	6368.163		-137.8692	
88.24477	6360.848		-138.1451	
88.29876	6353.487		-138.4045	
88.35275	6346.075		-138.6486	
88.40675	6338.611		-138.8784	
88.46074	6331.1		-139.0949	
88.51472	6323.551		-139.2988	
88.56872	6315.965		-139.4909	
88.62271	6308.342		-139.6715	
88.6767	6300.678		-139.8409	
88.7307	6292.973		-139.9993	
88.78469	6285.233		-140.1469	
88.83868	6277.472		-140.2835	
88.89267	6269.697		-140.409	
88.94666	6261.915		-140.5235	
89.00066	6254.119		-140.6266	
89.05465	6246.297		-140.718	
89.10864	6238.444		-140.7975	
89.16263	6230.558		-140.8646	
89.21662	6222.64		-140.9191	
89.27061	6214.689		-140.9606	
89.32461	6206.709		-140.9886	
89.3786	6198.697		-141.003	
89.43259	6190.656		-141.0034	
89.48659	6182.593		-140.9896	
89.54057	6174.527		-140.9615	
89.59457	6166.472		-140.9191	
89.64856	6158.451		-140.8625	
89.70255	6150.478		-140.792	
89.75655	6142.567		-140.7081	
89.81054	6134.708		-140.6114	
89.86452	6126.884		-140.5028	
89.91852	6119.069		-140.3834	
89.97251	6111.26		-140.2543	
90.0265	6103.466		-140.117	
90.0805	6095.697		-139.9729	
90.13449	6087.945		-139.8237	
90.18848	6080.209		-139.671	
90.24247	6072.482		-139.5168	
90.29646	6064.771		-139.3626	
90.35046	6057.076		-139.2104	
90.40445	6049.412		-139.0618	
90.45844	6041.783		-138.9184	
90.51243	6034.196		-138.7816	
90.56642	6026.646		-138.6527	
90.62041	6019.136		-138.5324	
90.67441	6011.652		-138.4216	
90.7284	6004.187		-138.3207	
90.78239	5996.732		-138.2299	
90.83638	5989.285		-138.1492	
90.89037	5981.847		-138.0784	
90.94437	5974.435		-138.0172	
90.99836	5967.066		-137.9652	
91.05235	5959.754		-137.922	
91.10635	5952.519		-137.8871	
91.16034	5945.381		-137.8601	
91.21432	5938.361		-137.8404	
91.26832	5931.461		-137.8275	
91.32231	5924.669		-137.8212	
91.3763	5917.962		-137.821	
91.4303	5911.314		-137.8264	
91.48429	5904.699		-137.8369	
91.53828	5898.095		-137.8522	
91.59227	5891.479		-137.8717	
91.64626	5884.84		-137.8951	
91.70026	5878.171		-137.9217	
91.75425	5871.463		-137.9512	
91.80824	5864.713		-137.9833	
91.86223	5857.914		-138.0176	
91.91622	5851.044		-138.0538	
91.97021	5844.096		-138.0919	
92.02421	5837.064		-138.1319	
92.0782	5829.934		-138.1738	
92.13219	5822.677		-138.2179	
92.18618	5815.27		-138.2645	
92.24017	5807.708		-138.314	
92.29417	5800		-138.3666	
92.34816	5792.15		-138.4226	
92.40215	5784.167		-138.4825	
92.45615	5776.066		-138.5115	
92.51013	5767.875		-138.5312	
92.56413	5759.623		-138.5459	
92.61812	5751.345		-138.5592	
92.67211	5743.068		-138.5735	
92.7261	5734.828		-138.5903	
92.7801	5726.644		-138.61	
92.83408	5718.53		-138.6327	
92.88808	5710.474		-138.6582	
92.94207	5702.46		-138.6861	
92.99606	5694.463		-138.716	
93.05006	5686.474		-138.7474	
93.10405	5678.488		-138.7798	
93.15804	5670.521		-138.8129	
93.21203	5662.584		-138.8461	
93.26602	5654.687		-138.8791	
93.32001	5646.835		-138.9116	
93.37401	5639.051		-138.9432	
93.428	5631.343		-138.9737	
93.48199	5623.716		-139.0027	
93.53598	5616.166		-139.0302	
93.58997	5608.676		-139.0557	
93.64397	5601.236		-139.0792	
93.69796	5593.827		-139.1005	
93.75195	5586.423		-139.1194	
93.80595	5579.012		-139.1358	
93.85993	5571.589		-139.1496	
93.91393	5564.16		-139.1606	
93.96792	5556.738		-139.1688	
94.02191	5549.339		-139.1741	
94.0759	5542.063		-139.1765	
94.1299	5534.839		-139.1758	
94.18388	5527.663		-139.172	
94.23788	5520.517		-139.1652	
94.29187	5513.391		-139.1553	
94.34586	5506.278		-139.1423	
94.39986	5499.174		-139.1263	
94.45385	5492.074		-139.1071	
94.50784	5484.977		-139.085	
94.56183	5477.878		-139.0598	
94.61582	5470.78		-139.0317	
94.66982	5463.68		-139.0006	
94.72381	5456.578		-138.9667	
94.7778	5449.475		-138.93	
94.83179	5442.373		-138.8906	
94.88578	5435.269		-138.8485	
94.93977	5428.165		-138.8038	
94.99377	5421.063		-138.7567	
