T[Â°C]	350nm [counts / mm]	S.D.	First derivative	S.D. of first derivative
20.00082	2995.845		-43.69583	
20.05477	2993.242		-43.61343	
20.10872	2990.637		-43.53238	
20.16268	2988.032		-43.45271	
20.21663	2985.426		-43.37446	
20.27058	2982.82		-43.29768	
20.32453	2980.215		-43.22237	
20.37848	2977.612		-43.14857	
20.43244	2975.01		-43.07631	
20.48639	2972.411		-43.00558	
20.54034	2969.815		-42.93642	
20.59429	2967.223		-42.86883	
20.64824	2964.634		-42.80279	
20.70219	2962.047		-42.73831	
20.75615	2959.461		-42.67537	
20.8101	2956.874		-42.61396	
20.86405	2954.282		-42.55404	
20.918	2951.68		-42.49557	
20.97195	2949.056		-42.43852	
21.0259	2946.532		-42.38283	
21.07985	2944.059		-42.32842	
21.13381	2941.639		-42.27524	
21.18776	2939.28		-42.22318	
21.24171	2936.994		-42.17217	
21.29566	2934.789		-42.1221	
21.34961	2932.663		-42.07286	
21.40356	2930.605		-42.02435	
21.45752	2928.603		-41.97645	
21.51147	2926.645		-41.92902	
21.56542	2924.724		-41.88194	
21.61937	2922.833		-41.83508	
21.67332	2920.962		-41.7883	
21.72727	2919.103		-41.74145	
21.78123	2917.251		-41.6944	
21.83518	2915.399		-41.647	
21.88913	2913.537		-41.59909	
21.94308	2911.657		-41.55054	
21.99703	2909.753		-41.50118	
22.05098	2907.823		-41.45087	
22.10494	2905.866		-41.39948	
22.15889	2903.881		-41.34692	
22.21284	2901.856		-41.29314	
22.26679	2899.785		-41.23822	
22.32074	2897.668		-41.18241	
22.37469	2895.51		-41.12628	
22.42865	2893.312		-41.07088	
22.4826	2891.08		-41.01791	
22.53655	2888.824		-40.96983	
22.5905	2886.555		-40.92956	
22.64445	2884.276		-40.91858	
22.6984	2881.988		-40.90998	
22.75236	2879.688		-40.90394	
22.80631	2877.375		-40.90064	
22.86026	2875.047		-40.90026	
22.91421	2872.709		-40.90295	
22.96816	2870.369		-40.90882	
23.02211	2868.028		-40.91796	
23.07607	2865.685		-40.93035	
23.13002	2863.343		-40.94591	
23.18397	2861.006		-40.96449	
23.23792	2858.676		-40.98584	
23.29187	2856.357		-41.00969	
23.34582	2854.045		-41.03569	
23.39977	2851.731		-41.06343	
23.45373	2849.405		-41.09249	
23.50768	2847.063		-41.12236	
23.56163	2844.705		-41.15253	
23.61558	2842.336		-41.18246	
23.66953	2839.967		-41.21163	
23.72349	2837.602		-41.23955	
23.77744	2835.245		-41.26575	
23.83139	2832.894		-41.2898	
23.88534	2830.548		-41.31131	
23.93929	2828.207		-41.32993	
23.99324	2825.873		-41.34538	
24.0472	2823.555		-41.35746	
24.10115	2821.262		-41.36609	
24.1551	2818.997		-41.37122	
24.20905	2816.761		-41.37288	
24.263	2814.556		-41.37112	
24.31695	2812.377		-41.36603	
24.3709	2810.22		-41.35773	
24.42486	2808.08		-41.34638	
24.47881	2805.958		-41.33219	
24.53276	2803.856		-41.31541	
24.58671	2801.771		-41.29632	
24.64066	2799.695		-41.27522	
24.69461	2797.621		-41.25242	
24.74857	2795.542		-41.22824	
24.80252	2793.46		-41.20304	
24.85647	2791.377		-41.17719	
24.91042	2789.301		-41.15109	
24.96437	2787.225		-41.12511	
25.01832	2785.139		-41.09963	
25.07228	2783.037		-41.07499	
25.12623	2780.913		-41.05153	
25.18018	2778.766		-41.0295	
25.23413	2776.601		-41.00913	
25.28808	2774.423		-40.99061	
25.34203	2772.235		-40.97408	
25.39599	2770.035		-40.95963	
25.44994	2767.823		-40.94731	
25.50389	2765.594		-40.9371	
25.55784	2763.345		-40.92894	
25.61179	2761.08		-40.92264	
25.66574	2758.807		-40.91799	
25.7197	2756.533		-40.91473	
25.77365	2754.264		-40.91256	
25.8276	2751.999		-40.91113	
25.88155	2749.73		-40.91009	
25.9355	2747.449		-40.90907	
25.98945	2745.155		-40.90774	
26.04341	2742.851		-40.90578	
26.09736	2740.545		-40.90294	
26.15131	2738.248		-40.89896	
26.20526	2735.971		-40.89363	
26.25921	2733.719		-40.88676	
26.31316	2731.493		-40.87821	
26.36712	2729.293		-40.86786	
26.42107	2727.118		-40.85564	
26.47502	2724.968		-40.84149	
26.52897	2722.837		-40.82536	
26.58292	2720.717		-40.80725	
26.63687	2718.592		-40.7871	
26.69082	2716.45		-40.7649	
26.74478	2714.286		-40.7406	
26.79873	2712.093		-40.71419	
26.85268	2709.866		-40.68567	
26.90663	2707.605		-40.65508	
26.96058	2705.314		-40.62247	
27.01454	2702.999		-40.58797	
27.06849	2700.668		-40.55168	
27.12244	2698.334		-40.51377	
27.17639	2696.012		-40.4744	
27.23034	2693.715		-40.43378	
27.28429	2691.449		-40.39217	
27.33825	2689.208		-40.34983	
27.3922	2686.981		-40.30706	
27.44615	2684.762		-40.26416	
27.5001	2682.545		-40.22142	
27.55405	2680.321		-40.1791	
27.608	2678.09		-40.13748	
27.66195	2675.854		-40.09676	
27.71591	2673.616		-40.05716	
27.76986	2671.383		-40.01881	
27.82381	2669.161		-39.98185	
27.87776	2666.963		-39.94632	
27.93171	2664.804		-39.91227	
27.98566	2662.69		-39.87967	
28.03962	2660.62		-39.8485	
28.09357	2658.594		-39.81874	
28.14752	2656.61		-39.79034	
28.20147	2654.66		-39.76332	
28.25542	2652.732		-39.73767	
28.30937	2650.813		-39.71342	
28.36333	2648.89		-39.69056	
28.41728	2646.952		-39.66911	
28.47123	2644.991		-39.64907	
28.52518	2642.997		-39.63049	
28.57913	2640.959		-39.6134	
28.63308	2638.877		-39.59787	
28.68704	2636.761		-39.58399	
28.74099	2634.624		-39.57185	
28.79494	2632.476		-39.56155	
28.84889	2630.322		-39.55317	
28.90284	2628.168		-39.54672	
28.95679	2626.019		-39.5422	
29.01075	2623.882		-39.53953	
29.0647	2621.754		-39.53859	
29.11865	2619.632		-39.53921	
29.1726	2617.513		-39.54117	
29.22655	2615.392		-39.54423	
29.2805	2613.266		-39.54815	
29.33446	2611.129		-39.55264	
29.38841	2608.98		-39.55744	
29.44236	2606.819		-39.56228	
29.49631	2604.649		-39.56693	
29.55026	2602.477		-39.57119	
29.60421	2600.309		-39.57495	
29.65816	2598.149		-39.57814	
29.71212	2596.003		-39.58076	
29.76607	2593.875		-39.58284	
29.82002	2591.766		-39.58442	
29.87397	2589.675		-39.58553	
29.92792	2587.597		-39.58619	
29.98187	2585.519		-39.58641	
30.03583	2583.429		-39.58618	
30.08978	2581.316		-39.58548	
30.14373	2579.172		-39.58427	
30.19768	2576.993		-39.5825	
30.25163	2574.782		-39.5801	
30.30559	2572.546		-39.577	
30.35954	2570.295		-39.5731	
30.41349	2568.037		-39.56833	
30.46744	2565.777		-39.56265	
30.52139	2563.516		-39.55605	
30.57534	2561.26		-39.54854	
30.6293	2559.013		-39.54022	
30.68325	2556.776		-39.5312	
30.7372	2554.549		-39.52165	
30.79115	2552.328		-39.51177	
30.8451	2550.109		-39.50176	
30.89905	2547.891		-39.4918	
30.953	2545.676		-39.48205	
31.00696	2543.465		-39.4726	
31.06091	2541.263		-39.46349	
31.11486	2539.076		-39.45472	
31.16881	2536.913		-39.44624	
31.22276	2534.78		-39.43795	
31.27671	2532.674		-39.4297	
31.33067	2530.593		-39.42128	
31.38462	2528.536		-39.41244	
31.43857	2526.503		-39.4029	
31.49252	2524.495		-39.39241	
31.54647	2522.51		-39.38074	
31.60042	2520.54		-39.36774	
31.65438	2518.573		-39.3533	
31.70833	2516.601		-39.33738	
31.76228	2514.618		-39.32001	
31.81623	2512.621		-39.30125	
31.87018	2510.613		-39.28125	
31.92413	2508.598		-39.26017	
31.97809	2506.579		-39.23822	
32.03204	2504.56		-39.21566	
32.08599	2502.539		-39.19271	
32.13994	2500.511		-39.16958	
32.19389	2498.47		-39.14649	
32.24784	2496.409		-39.12362	
32.3018	2494.323		-39.10113	
32.35575	2492.211		-39.07915	
32.4097	2490.072		-39.0578	
32.46365	2487.906		-39.0372	
32.5176	2485.723		-39.01744	
32.57155	2483.533		-38.9986	
32.6255	2481.346		-38.98074	
32.67946	2479.167		-38.96389	
32.73341	2476.995		-38.94806	
32.78736	2474.829		-38.93324	
32.84131	2472.665		-38.91942	
32.89526	2470.503		-38.90658	
32.94921	2468.341		-38.89468	
33.00317	2466.173		-38.88364	
33.05712	2463.995		-38.87336	
33.11107	2461.813		-38.86366	
33.16502	2459.637		-38.85435	
33.21898	2457.473		-38.84518	
33.27293	2455.322		-38.83591	
33.32688	2453.18		-38.82624	
33.38083	2451.041		-38.81586	
33.43478	2448.903		-38.80447	
33.48873	2446.772		-38.79176	
33.54268	2444.657		-38.7774	
33.59663	2442.565		-38.76112	
33.65059	2440.498		-38.74267	
33.70454	2438.45		-38.72183	
33.75849	2436.414		-38.69844	
33.81244	2434.38		-38.6724	
33.86639	2432.337		-38.64368	
33.92035	2430.281		-38.61233	
33.9743	2428.213		-38.5785	
34.02825	2426.138		-38.54239	
34.0822	2424.058		-38.50428	
34.13615	2421.973		-38.46447	
34.1901	2419.881		-38.42336	
34.24405	2417.782		-38.38138	
34.29801	2415.681		-38.33897	
34.35196	2413.58		-38.29661	
34.40591	2411.485		-38.25472	
34.45986	2409.399		-38.21371	
34.51381	2407.32		-38.17396	
34.56776	2405.251		-38.13577	
34.62172	2403.193		-38.0994	
34.67567	2401.148		-38.06507	
34.72962	2399.113		-38.03295	
34.78357	2397.086		-38.00314	
34.83752	2395.063		-37.97573	
34.89148	2393.043		-37.95079	
34.94543	2391.022		-37.92836	
34.99938	2388.989		-37.90843	
35.05333	2386.934		-37.89097	
35.10728	2384.858		-37.8759	
35.16123	2382.77		-37.86307	
35.21518	2380.681		-37.85229	
35.26913	2378.607		-37.84334	
35.32309	2376.559		-37.83595	
35.37704	2374.543		-37.82982	
35.43099	2372.554		-37.82464	
35.48494	2370.584		-37.82005	
35.53889	2368.629		-37.81569	
35.59285	2366.685		-37.81119	
35.6468	2364.752		-37.80621	
35.70075	2362.829		-37.80042	
35.7547	2360.911		-37.79353	
35.80865	2358.992		-37.78527	
35.8626	2357.061		-37.77545	
35.91655	2355.112		-37.76389	
35.97051	2353.146		-37.75053	
36.02446	2351.17		-37.73537	
36.07841	2349.19		-37.7185	
36.13236	2347.208		-37.70008	
36.18631	2345.227		-37.68035	
36.24026	2343.244		-37.65961	
36.29422	2341.259		-37.63819	
36.34817	2339.266		-37.61647	
36.40212	2337.262		-37.59484	
36.45607	2335.239		-37.57368	
36.51003	2333.192		-37.5534	
36.56398	2331.118		-37.53436	
36.61793	2329.018		-37.51694	
36.67188	2326.894		-37.50144	
36.72583	2324.742		-37.48816	
36.77978	2322.559		-37.4773	
36.83373	2320.351		-37.46906	
36.88768	2318.133		-37.46357	
36.94164	2315.927		-37.46096	
36.99559	2313.742		-37.46131	
37.04954	2311.586		-37.46465	
37.10349	2309.458		-37.471	
37.15744	2307.347		-37.48032	
37.2114	2305.248		-37.49252	
37.26535	2303.155		-37.50748	
37.3193	2301.066		-37.52501	
37.37325	2298.983		-37.54489	
37.4272	2296.904		-37.56686	
37.48115	2294.828		-37.59063	
37.5351	2292.758		-37.61588	
37.58906	2290.698		-37.64227	
37.64301	2288.657		-37.66941	
37.69696	2286.644		-37.69694	
37.75091	2284.673		-37.72446	
37.80486	2282.751		-37.75158	
37.85881	2280.874		-37.77792	
37.91277	2279.033		-37.80307	
37.96672	2277.22		-37.82666	
38.02067	2275.424		-37.84833	
38.07462	2273.633		-37.86779	
38.12857	2271.836		-37.88476	
38.18253	2270.023		-37.89904	
38.23648	2268.187		-37.91045	
38.29043	2266.321		-37.91886	
38.34438	2264.421		-37.92418	
38.39833	2262.483		-37.92637	
38.45228	2260.508		-37.92545	
38.50623	2258.5		-37.92149	
38.56018	2256.469		-37.91457	
38.61414	2254.428		-37.90483	
38.66809	2252.387		-37.8924	
38.72204	2250.347		-37.87739	
38.77599	2248.302		-37.85991	
38.82994	2246.247		-37.84005	
38.8839	2244.171		-37.81786	
38.93785	2242.07		-37.79338	
38.9918	2239.938		-37.76663	
39.04575	2237.777		-37.73762	
39.0997	2235.586		-37.70634	
39.15365	2233.367		-37.67282	
39.2076	2231.126		-37.63708	
39.26156	2228.875		-37.59914	
39.31551	2226.63		-37.55907	
39.36946	2224.405		-37.51693	
39.42341	2222.209		-37.47285	
39.47736	2220.044		-37.42697	
39.53131	2217.911		-37.37942	
39.58527	2215.804		-37.33033	
39.63922	2213.72		-37.27983	
39.69317	2211.65		-37.22801	
39.74712	2209.589		-37.17496	
39.80107	2207.527		-37.12077	
39.85503	2205.456		-37.06553	
39.90898	2203.367		-37.0093	
39.96293	2201.258		-36.95211	
40.01688	2199.13		-36.89398	
40.07083	2196.982		-36.83492	
40.12478	2194.825		-36.77494	
40.17873	2192.671		-36.71409	
40.23269	2190.536		-36.65241	
40.28664	2188.434		-36.59003	
40.34059	2186.37		-36.52708	
40.39454	2184.346		-36.46378	
40.44849	2182.363		-36.40037	
40.50245	2180.42		-36.33713	
40.5564	2178.515		-36.27438	
40.61035	2176.641		-36.21248	
40.6643	2174.79		-36.15177	
40.71825	2172.952		-36.09262	
40.7722	2171.119		-36.03541	
40.82615	2169.287		-35.98047	
40.88011	2167.455		-35.92812	
40.93406	2165.627		-35.87861	
40.98801	2163.812		-35.83216	
41.04196	2162.019		-35.7889	
41.09591	2160.253		-35.74895	
41.14986	2158.514		-35.71239	
41.20382	2156.799		-35.67931	
41.25777	2155.102		-35.64978	
41.31172	2153.418		-35.62386	
41.36567	2151.743		-35.60157	
41.41962	2150.073		-35.58299	
41.47358	2148.401		-35.56814	
41.52753	2146.721		-35.55707	
41.58148	2145.024		-35.54979	
41.63543	2143.303		-35.54632	
41.68938	2141.547		-35.5467	
41.74333	2139.748		-35.55091	
41.79728	2137.904		-35.55898	
41.85123	2136.02		-35.5709	
41.90519	2134.106		-35.58661	
41.95914	2132.173		-35.60604	
42.01309	2130.226		-35.62902	
42.06704	2128.272		-35.65537	
42.12099	2126.314		-35.68483	
42.17495	2124.355		-35.71707	
42.2289	2122.396		-35.75175	
42.28285	2120.436		-35.78844	
42.3368	2118.473		-35.82671	
42.39075	2116.502		-35.86609	
42.4447	2114.516		-35.90612	
42.49865	2112.511		-35.94636	
42.55261	2110.489		-35.98637	
42.60656	2108.452		-36.02576	
42.66051	2106.409		-36.06416	
42.71446	2104.366		-36.10124	
42.76841	2102.329		-36.13671	
42.82236	2100.299		-36.17029	
42.87632	2098.274		-36.20176	
42.93027	2096.246		-36.23088	
42.98422	2094.211		-36.25746	
43.03817	2092.166		-36.28127	
43.09212	2090.111		-36.30213	
43.14608	2088.052		-36.31984	
43.20003	2085.992		-36.33424	
43.25398	2083.931		-36.3452	
43.30793	2081.862		-36.35256	
43.36188	2079.782		-36.35616	
43.41583	2077.691		-36.35587	
43.46978	2075.593		-36.35156	
43.52374	2073.496		-36.34315	
43.57769	2071.415		-36.33062	
43.63164	2069.36		-36.31401	
43.68559	2067.335		-36.29345	
43.73954	2065.329		-36.26913	
43.7935	2063.33		-36.24131	
43.84745	2061.331		-36.21033	
43.9014	2059.331		-36.17657	
43.95535	2057.333		-36.14051	
44.0093	2055.338		-36.10263	
44.06325	2053.351		-36.06348	
44.1172	2051.376		-36.02355	
44.17115	2049.416		-35.98335	
44.22511	2047.472		-35.9433	
44.27906	2045.547		-35.90379	
44.33301	2043.646		-35.86513	
44.38696	2041.768		-35.82759	
44.44091	2039.909		-35.7914	
44.49487	2038.067		-35.75672	
44.54882	2036.237		-35.72368	
44.60277	2034.413		-35.69237	
44.65672	2032.588		-35.66284	
44.71067	2030.76		-35.63511	
44.76463	2028.931		-35.60915	
44.81858	2027.105		-35.58495	
44.87253	2025.284		-35.56248	
44.92648	2023.464		-35.5417	
44.98043	2021.639		-35.52261	
45.03438	2019.802		-35.50515	
45.08833	2017.951		-35.4893	
45.14228	2016.088		-35.47498	
45.19624	2014.221		-35.46208	
45.25019	2012.36		-35.45047	
45.30414	2010.512		-35.43996	
45.35809	2008.681		-35.43032	
45.41204	2006.859		-35.42127	
45.466	2005.037		-35.4125	
45.51995	2003.21		-35.40367	
45.5739	2001.383		-35.39445	
45.62785	1999.562		-35.38451	
45.6818	1997.744		-35.37355	
45.73575	1995.922		-35.36132	
45.7897	1994.081		-35.34758	
45.84366	1992.216		-35.33213	
45.89761	1990.328		-35.31487	
45.95156	1988.419		-35.29579	
46.00551	1986.493		-35.27498	
46.05946	1984.553		-35.25263	
46.11341	1982.604		-35.22898	
46.16737	1980.648		-35.20435	
46.22132	1978.685		-35.17901	
46.27527	1976.717		-35.15329	
46.32922	1974.747		-35.1275	
46.38317	1972.776		-35.10199	
46.43713	1970.806		-35.07713	
46.49108	1968.833		-35.05325	
46.54503	1966.849		-35.03064	
46.59898	1964.844		-35.00956	
46.65293	1962.811		-34.99018	
46.70688	1960.754		-34.97261	
46.76083	1958.679		-34.95689	
46.81479	1956.594		-34.943	
46.86874	1954.503		-34.93093	
46.92269	1952.417		-34.92062	
46.97664	1950.346		-34.912	
47.03059	1948.297		-34.90499	
47.08455	1946.27		-34.89952	
47.1385	1944.262		-34.89548	
47.19245	1942.275		-34.89275	
47.2464	1940.312		-34.8912	
47.30035	1938.376		-34.89071	
47.3543	1936.47		-34.89112	
47.40825	1934.588		-34.89225	
47.4622	1932.724		-34.89387	
47.51616	1930.876		-34.89574	
47.57011	1929.05		-34.89759	
47.62406	1927.255		-34.89912	
47.67801	1925.497		-34.90007	
47.73196	1923.776		-34.90015	
47.78592	1922.09		-34.89912	
47.83987	1920.433		-34.89676	
47.89382	1918.799		-34.89286	
47.94777	1917.186		-34.88728	
48.00172	1915.587		-34.87991	
48.05568	1913.995		-34.87072	
48.10963	1912.408		-34.85977	
48.16358	1910.813		-34.84717	
48.21753	1909.198		-34.83305	
48.27148	1907.552		-34.81759	
48.32543	1905.865		-34.80102	
48.37938	1904.139		-34.78364	
48.43333	1902.376		-34.76583	
48.48729	1900.578		-34.74802	
48.54124	1898.744		-34.73066	
48.59519	1896.868		-34.71416	
48.64914	1894.95		-34.69889	
48.70309	1892.997		-34.68515	
48.75705	1891.015		-34.67315	
48.811	1889.013		-34.66304	
48.86495	1886.999		-34.65492	
48.9189	1884.973		-34.64881	
48.97285	1882.938		-34.64468	
49.0268	1880.89		-34.64244	
49.08075	1878.829		-34.64191	
49.13471	1876.758		-34.64288	
49.18866	1874.687		-34.64508	
49.24261	1872.624		-34.64821	
49.29656	1870.581		-34.65194	
49.35051	1868.563		-34.65592	
49.40446	1866.573		-34.65981	
49.45842	1864.609		-34.66325	
49.51237	1862.66		-34.66595	
49.56632	1860.722		-34.66759	
49.62027	1858.793		-34.6679	
49.67422	1856.877		-34.6666	
49.72818	1854.974		-34.66346	
49.78213	1853.083		-34.65826	
49.83608	1851.203		-34.65075	
49.89003	1849.332		-34.64074	
49.94398	1847.469		-34.628	
49.99793	1845.605		-34.61233	
50.05188	1843.742		-34.59356	
50.10583	1841.88		-34.57158	
50.15979	1840.018		-34.54634	
50.21374	1838.155		-34.51785	
50.26769	1836.291		-34.48616	
50.32164	1834.426		-34.45145	
50.3756	1832.559		-34.41393	
50.42955	1830.694		-34.37393	
50.4835	1828.834		-34.33186	
50.53745	1826.983		-34.28817	
50.5914	1825.14		-34.24335	
50.64535	1823.301		-34.1979	
50.6993	1821.463		-34.15232	
50.75325	1819.629		-34.10709	
50.80721	1817.807		-34.06266	
50.86116	1816.003		-34.01947	
50.91511	1814.217		-33.97795	
50.96906	1812.441		-33.93848	
51.02301	1810.664		-33.90138	
51.07697	1808.88		-33.86691	
51.13092	1807.086		-33.83525	
51.18487	1805.286		-33.80654	
51.23882	1803.492		-33.78082	
51.29277	1801.714		-33.75811	
51.34673	1799.959		-33.73839	
51.40068	1798.228		-33.72158	
51.45463	1796.512		-33.7076	
51.50858	1794.802		-33.69637	
51.56253	1793.088		-33.68781	
51.61648	1791.365		-33.68183	
51.67043	1789.631		-33.67835	
51.72438	1787.891		-33.67727	
51.77834	1786.145		-33.67849	
51.83229	1784.395		-33.6819	
51.88624	1782.642		-33.68734	
51.94019	1780.886		-33.69465	
51.99414	1779.121		-33.70359	
52.0481	1777.343		-33.71392	
52.10205	1775.545		-33.72532	
52.156	1773.729		-33.73749	
52.20995	1771.9		-33.75014	
52.2639	1770.067		-33.76299	
52.31785	1768.236		-33.77579	
52.3718	1766.41		-33.7883	
52.42576	1764.592		-33.80033	
52.47971	1762.784		-33.81172	
52.53366	1760.985		-33.82232	
52.58761	1759.188		-33.83204	
52.64156	1757.382		-33.84077	
52.69551	1755.555		-33.84845	
52.74947	1753.704		-33.85503	
52.80342	1751.823		-33.86042	
52.85737	1749.918		-33.86458	
52.91132	1747.993		-33.86747	
52.96527	1746.054		-33.86904	
53.01923	1744.109		-33.86928	
53.07318	1742.167		-33.86818	
53.12713	1740.234		-33.8657	
53.18108	1738.309		-33.86183	
53.23503	1736.398		-33.85656	
53.28898	1734.507		-33.84986	
53.34293	1732.643		-33.84177	
53.39688	1730.807		-33.83225	
53.45084	1728.995		-33.82131	
53.50479	1727.192		-33.80892	
53.55874	1725.384		-33.7951	
53.61269	1723.555		-33.77988	
53.66665	1721.696		-33.76335	
53.7206	1719.803		-33.74563	
53.77455	1717.879		-33.72688	
53.8285	1715.936		-33.70729	
53.88245	1713.99		-33.68708	
53.9364	1712.059		-33.66643	
53.99035	1710.152		-33.64553	
54.0443	1708.275		-33.62455	
54.09826	1706.429		-33.60361	
54.15221	1704.609		-33.58286	
54.20616	1702.813		-33.56245	
54.26011	1701.034		-33.54252	
54.31406	1699.267		-33.52319	
54.36802	1697.5		-33.50458	
54.42197	1695.724		-33.48682	
54.47592	1693.936		-33.47	
54.52987	1692.135		-33.45422	
54.58382	1690.333		-33.43956	
54.63778	1688.546		-33.42607	
54.69173	1686.789		-33.41384	
54.74568	1685.066		-33.40295	
54.79963	1683.374		-33.39349	
54.85358	1681.707		-33.38552	
54.90753	1680.055		-33.37911	
54.96148	1678.403		-33.3743	
55.01543	1676.739		-33.37111	
55.06939	1675.056		-33.36952	
55.12334	1673.353		-33.3695	
55.17729	1671.627		-33.37098	
55.23124	1669.88		-33.37385	
55.28519	1668.118		-33.37801	
55.33915	1666.353		-33.3833	
55.3931	1664.597		-33.38959	
55.44705	1662.854		-33.3967	
55.501	1661.123		-33.40448	
55.55495	1659.399		-33.41279	
55.6089	1657.675		-33.42149	
55.66285	1655.941		-33.43048	
55.71681	1654.193		-33.43964	
55.77076	1652.427		-33.44888	
55.82471	1650.642		-33.45808	
55.87866	1648.837		-33.46713	
55.93261	1647.01		-33.47592	
55.98656	1645.166		-33.48431	
56.04052	1643.306		-33.49221	
56.09447	1641.43		-33.49951	
56.14842	1639.54		-33.50619	
56.20237	1637.647		-33.51225	
56.25632	1635.765		-33.51774	
56.31028	1633.901		-33.52274	
56.36423	1632.058		-33.52735	
56.41818	1630.233		-33.53169	
56.47213	1628.417		-33.53588	
56.52608	1626.598		-33.54002	
56.58003	1624.77		-33.54419	
56.63398	1622.928		-33.54844	
56.68793	1621.069		-33.55281	
56.74189	1619.186		-33.55731	
56.79584	1617.28		-33.56195	
56.84979	1615.358		-33.56672	
56.90374	1613.427		-33.57156	
56.9577	1611.491		-33.57638	
57.01165	1609.552		-33.58105	
57.0656	1607.613		-33.58542	
57.11955	1605.678		-33.58933	
57.1735	1603.754		-33.59261	
57.22745	1601.843		-33.5951	
57.2814	1599.947		-33.5966	
57.33535	1598.07		-33.59689	
57.38931	1596.209		-33.59576	
57.44326	1594.365		-33.593	
57.49721	1592.542		-33.58842	
57.55116	1590.738		-33.58183	
57.60511	1588.952		-33.57309	
57.65907	1587.182		-33.56204	
57.71302	1585.428		-33.54857	
57.76697	1583.682		-33.53255	
57.82092	1581.94		-33.51387	
57.87487	1580.197		-33.49244	
57.92883	1578.46		-33.46817	
57.98278	1576.733		-33.44101	
58.03673	1575.016		-33.41092	
58.09068	1573.311		-33.37791	
58.14463	1571.619		-33.34206	
58.19858	1569.942		-33.30348	
58.25253	1568.278		-33.26233	
58.30648	1566.627		-33.21883	
58.36044	1564.986		-33.17323	
58.41439	1563.35		-33.12582	
58.46834	1561.71		-33.07687	
58.52229	1560.053		-33.0267	
58.57624	1558.371		-32.9756	
58.6302	1556.655		-32.92382	
58.68415	1554.896		-32.87164	
58.7381	1553.091		-32.81931	
58.79205	1551.242		-32.76707	
58.846	1549.353		-32.71515	
58.89995	1547.432		-32.66374	
58.9539	1545.488		-32.61296	
59.00785	1543.526		-32.56292	
59.06181	1541.551		-32.51367	
59.11576	1539.575		-32.46527	
59.16971	1537.611		-32.41776	
59.22366	1535.676		-32.37113	
59.27761	1533.779		-32.3254	
59.33157	1531.924		-32.28052	
59.38552	1530.104		-32.23644	
59.43947	1528.316		-32.19307	
59.49342	1526.555		-32.15033	
59.54737	1524.819		-32.10807	
59.60133	1523.103		-32.06618	
59.65528	1521.4		-32.02454	
59.70923	1519.7		-31.98305	
59.76318	1517.995		-31.94157	
59.81713	1516.282		-31.89999	
59.87108	1514.565		-31.85814	
59.92503	1512.853		-31.8159	
59.97898	1511.154		-31.77315	
60.03294	1509.476		-31.72979	
60.08689	1507.82		-31.68575	
60.14084	1506.187		-31.64101	
60.19479	1504.569		-31.59558	
60.24874	1502.963		-31.54946	
60.3027	1501.364		-31.50266	
60.35665	1499.769		-31.45521	
60.4106	1498.176		-31.40712	
60.46455	1496.578		-31.35842	
60.5185	1494.964		-31.30912	
60.57245	1493.325		-31.25924	
60.6264	1491.652		-31.20877	
60.68036	1489.94		-31.15773	
60.73431	1488.193		-31.10615	
60.78826	1486.418		-31.05409	
60.84221	1484.634		-31.0016	
60.89616	1482.857		-30.94874	
60.95012	1481.105		-30.89558	
61.00407	1479.389		-30.84215	
61.05802	1477.719		-30.78846	
61.11197	1476.1		-30.73448	
61.16592	1474.532		-30.68013	
61.21988	1473.011		-30.6253	
61.27383	1471.52		-30.56983	
61.32778	1470.036		-30.51352	
61.38173	1468.536		-30.45613	
61.43568	1467		-30.39743	
61.48963	1465.427		-30.33714	
61.54358	1463.821		-30.27497	
61.59753	1462.19		-30.21068	
61.65149	1460.545		-30.14403	
61.70544	1458.892		-30.07482	
61.75939	1457.235		-30.00288	
61.81334	1455.576		-29.92809	
61.86729	1453.919		-29.85032	
61.92125	1452.265		-29.76949	
61.9752	1450.614		-29.68552	
62.02915	1448.965		-29.59842	
62.0831	1447.313		-29.50817	
62.13705	1445.654		-29.41479	
62.191	1443.984		-29.31825	
62.24495	1442.3		-29.21848	
62.2989	1440.599		-29.11538	
62.35286	1438.885		-29.0088	
62.40681	1437.166		-28.89859	
62.46076	1435.448		-28.78456	
62.51471	1433.738		-28.66655	
62.56866	1432.04		-28.5444	
62.62262	1430.355		-28.41794	
62.67657	1428.684		-28.28703	
62.73052	1427.03		-28.15151	
62.78447	1425.396		-28.01123	
62.83842	1423.785		-27.86608	
62.89238	1422.198		-27.71587	
62.94633	1420.633		-27.56049	
63.00028	1419.089		-27.39973	
63.05423	1417.564		-27.23338	
63.10818	1416.055		-27.06116	
63.16213	1414.568		-26.88276	
63.21608	1413.111		-26.69782	
63.27003	1411.686		-26.50594	
63.32399	1410.288		-26.30666	
63.37794	1408.909		-26.09951	
63.43189	1407.542		-25.88397	
63.48584	1406.176		-25.65957	
63.53979	1404.803		-25.42577	
63.59375	1403.419		-25.18208	
63.6477	1402.026		-24.92806	
63.70165	1400.631		-24.66331	
63.7556	1399.243		-24.38748	
63.80955	1397.869		-24.10028	
63.8635	1396.519		-23.80146	
63.91745	1395.198		-23.49086	
63.97141	1393.908		-23.16832	
64.02536	1392.65		-22.83382	
64.07931	1391.422		-22.48734	
64.13326	1390.222		-22.12878	
64.18721	1389.04		-21.75818	
64.24117	1387.867		-21.37538	
64.29512	1386.689		-20.9803	
64.34907	1385.497		-20.57288	
64.40302	1384.289		-20.15279	
64.45697	1383.072		-19.71996	
64.51093	1381.85		-19.27404	
64.56487	1380.633		-18.81491	
64.61883	1379.422		-18.3422	
64.67278	1378.224		-17.85571	
64.72673	1377.041		-17.35502	
64.78069	1375.88		-16.83981	
64.83463	1374.75		-16.30982	
64.88859	1373.659		-15.76445	
64.94254	1372.618		-15.20345	
64.99649	1371.629		-14.62614	
65.05044	1370.683		-14.03208	
65.10439	1369.764		-13.42048	
65.15834	1368.862		-12.79077	
65.2123	1367.968		-12.14205	
65.26624	1367.08		-11.47366	
65.3202	1366.202		-10.78464	
65.37415	1365.341		-10.0742	
65.4281	1364.506		-9.341644	
65.48206	1363.707		-8.585862	
65.536	1362.954		-7.80619	
65.58996	1362.256		-7.001561	
65.64391	1361.62		-6.171271	
65.69786	1361.052		-5.31427	
65.75181	1360.555		-4.429884	
65.80576	1360.136		-3.51705	
65.85971	1359.797		-2.575112	
65.91367	1359.533		-1.603017	
65.96762	1359.339		-0.600029	
66.02157	1359.203		0.4344045	
66.07552	1359.118		1.501405	
66.12947	1359.075		2.601332	
66.18343	1359.068		3.735131	
66.23737	1359.092		4.903162	
66.29133	1359.144		6.106281	
66.34528	1359.224		7.344766	
66.39923	1359.341		8.619421	
66.45319	1359.504		9.930627	
66.50713	1359.727		11.27858	
66.56109	1360.017		12.66414	
66.61504	1360.38		14.08734	
66.66899	1360.821		15.54898	
66.72294	1361.341		17.0491	
66.77689	1361.938		18.58861	
66.83084	1362.603		20.16758	
66.8848	1363.335		21.78697	
66.93874	1364.134		23.44703	
66.9927	1365		25.14869	
67.04665	1365.929		26.89259	
67.1006	1366.921		28.67901	
67.15456	1367.976		30.5094	
67.2085	1369.103		32.38391	
67.26246	1370.316		34.30389	
67.31641	1371.63		36.26962	
67.37036	1373.056		38.28238	
67.42431	1374.603		40.34256	
67.47826	1376.278		42.45137	
67.53222	1378.09		44.60952	
67.58617	1380.049		46.81735	
67.64012	1382.16		49.07655	
67.69407	1384.418		51.38716	
67.74802	1386.816		53.7507	
67.80197	1389.344		56.16731	
67.85593	1391.992		58.63843	
67.90987	1394.753		61.16409	
67.96383	1397.625		63.74556	
68.01778	1400.611		66.38282	
68.07173	1403.721		69.07681	
68.12569	1406.965		71.82769	
68.17963	1410.355		74.63497	
68.23359	1413.898		77.49969	
68.28754	1417.598		80.42075	
68.34149	1421.461		83.39874	
68.39544	1425.492		86.4324	
68.44939	1429.696		89.52206	
68.50334	1434.07		92.66615	
68.5573	1438.611		95.86473	
68.61124	1443.313		99.11616	
68.6652	1448.177		102.4201	
68.71915	1453.206		105.7754	
68.7731	1458.4		109.18	
68.82706	1463.767		112.634	
68.881	1469.311		116.135	
68.93496	1475.043		119.6828	
68.98891	1480.967		123.2749	
69.04286	1487.09		126.911	
69.09681	1493.414		130.5887	
69.15076	1499.945		134.3075	
69.20472	1506.686		138.0654	
69.25867	1513.644		141.8602	
69.31262	1520.832		145.6915	
69.36657	1528.251		149.5565	
69.42052	1535.905		153.4546	
69.47447	1543.792		157.3829	
69.52843	1551.917		161.3406	
69.58237	1560.281		165.3247	
69.63633	1568.887		169.3342	
69.69028	1577.735		173.3658	
69.74423	1586.834		177.4181	
69.79819	1596.192		181.4878	
69.85213	1605.817		185.5715	
69.90609	1615.721		189.6672	
69.96004	1625.907		193.7701	
70.01399	1636.375		197.8777	
70.06794	1647.125		201.9845	
70.12189	1658.158		206.0871	
70.17584	1669.472		210.1794	
70.2298	1681.065		214.2571	
70.28375	1692.928		218.3138	
70.3377	1705.055		222.3427	
70.39165	1717.447		226.3385	
70.4456	1730.098		230.293	
70.49956	1742.999		234.2001	
70.5535	1756.129		238.0512	
70.60746	1769.478		241.8394	
70.66141	1783.034		245.5556	
70.71536	1796.8		249.1928	
70.76931	1810.773		252.7411	
70.82327	1824.963		256.1935	
70.87722	1839.378		259.5404	
70.93117	1854.024		262.7733	
70.98512	1868.908		265.884	
71.03907	1884.032		268.8637	
71.09303	1899.401		271.705	
71.14697	1915.003		274.399	
71.20093	1930.834		276.9388	
71.25488	1946.881		279.3166	
71.30883	1963.141		281.5261	
71.36278	1979.601		283.5599	
71.41673	1996.262		285.4132	
71.47069	2013.128		287.0797	
71.52464	2030.204		288.5549	
71.57859	2047.505		289.8343	
71.63254	2065.031		290.9143	
71.68649	2082.784		291.7919	
71.74044	2100.755		292.4643	
71.7944	2118.942		292.93	
71.84834	2137.335		293.1868	
71.9023	2155.932		293.2349	
71.95625	2174.713		293.0733	
72.0102	2193.652		292.7032	
72.06416	2212.729		292.1247	
72.1181	2231.904		291.3401	
72.17206	2251.144		290.3507	
72.22601	2270.399		289.1592	
72.27996	2289.633		287.7682	
72.33391	2308.806		286.1811	
72.38786	2327.897		284.4011	
72.44181	2346.875		282.4318	
72.49577	2365.72		280.2778	
72.54972	2384.402		277.9426	
72.60367	2402.888		275.4321	
72.65762	2421.15		272.7496	
72.71157	2439.145		269.9016	
72.76553	2456.839		266.8924	
72.81947	2474.186		263.7283	
72.87343	2491.152		260.4144	
72.92738	2507.698		256.957	
72.98133	2523.805		253.3622	
73.03529	2539.453		249.6362	
73.08923	2554.628		245.787	
73.14319	2569.324		241.8199	
73.19714	2583.529		237.7437	
73.25109	2597.248		233.5645	
73.30504	2610.476		229.291	
73.35899	2623.223		224.93	
73.41294	2635.489		220.4906	
73.4669	2647.282		215.9797	
73.52084	2658.604		211.4069	
73.5748	2669.479		206.7795	
73.62875	2679.925		202.1068	
73.6827	2689.954		197.3982	
73.73666	2699.581		192.6614	
73.7906	2708.814		187.9067	
73.84456	2717.666		183.1419	
73.89851	2726.136		178.3773	
73.95246	2734.233		173.6208	
74.00641	2741.969		168.8825	
74.06036	2749.358		164.1699	
74.11431	2756.415		159.4933	
74.16827	2763.154		154.8595	
74.22222	2769.589		150.2775	
74.27617	2775.743		145.7558	
74.33012	2781.637		141.3004	
74.38407	2787.29		136.9197	
74.43803	2792.719		132.6191	
74.49197	2797.943		128.4057	
74.54593	2802.978		124.2838	
74.59988	2807.838		120.2599	
74.65383	2812.539		116.3367	
74.70779	2817.092		112.5192	
74.76173	2821.5		108.8103	
74.81569	2825.764		105.2123	
74.86964	2829.885		101.7275	
74.92359	2833.866		98.35641	
74.97754	2837.709		95.10069	
75.03149	2841.418		91.95951	
75.08544	2845.002		88.93335	
75.1394	2848.476		86.02023	
75.19334	2851.856		83.21986	
75.2473	2855.16		80.52898	
75.30125	2858.405		77.94601	
75.3552	2861.598		75.46799	
75.40916	2864.741		73.09143	
75.4631	2867.831		70.81313	
75.51706	2870.865		68.62875	
75.57101	2873.844		66.5349	
75.62496	2876.764		64.52676	
75.67891	2879.619		62.60091	
75.73286	2882.405		60.75221	
75.78682	2885.118		58.9769	
75.84077	2887.753		57.2707	
75.89472	2890.309		55.62918	
75.94867	2892.788		54.0486	
76.00262	2895.202		52.52468	
76.05657	2897.567		51.05416	
76.11053	2899.903		49.63311	
76.16447	2902.222		48.25867	
76.21843	2904.539		46.9274	
76.27238	2906.855		45.637	
76.32633	2909.168		44.38453	
76.38029	2911.474		43.16811	
76.43423	2913.767		41.98594	
76.48819	2916.037		40.83623	
76.54214	2918.269		39.71799	
76.59609	2920.451		38.62995	
76.65004	2922.573		37.57171	
76.70399	2924.627		36.54251	
76.75794	2926.613		35.54238	
76.8119	2928.538		34.57094	
76.86585	2930.416		33.62841	
76.9198	2932.259		32.71502	
76.97375	2934.078		31.83077	
77.0277	2935.88		30.97612	
77.08166	2937.67		30.15107	
77.1356	2939.447		29.35602	
77.18956	2941.207		28.59085	
77.24351	2942.943		27.85576	
77.29746	2944.647		27.15044	
77.35141	2946.299		26.47494	
77.40536	2947.879		25.8287	
77.45932	2949.367		25.21153	
77.51327	2950.75		24.62295	
77.56722	2952.02		24.06233	
77.62117	2953.172		23.52912	
77.67513	2954.205		23.02246	
77.72907	2955.125		22.54169	
77.78303	2955.948		22.08578	
77.83698	2956.688		21.65394	
77.89093	2957.357		21.24507	
77.94488	2957.961		20.85841	
77.99883	2958.498		20.49279	
78.05279	2958.966		20.1475	
78.10674	2959.363		19.82156	
78.16069	2959.693		19.51419	
78.21464	2959.957		19.22465	
78.26859	2960.148		18.95225	
78.32254	2960.268		18.69656	
78.3765	2960.328		18.45713	
78.43044	2960.347		18.23389	
78.4844	2960.349		18.02661	
78.53835	2960.362		17.83551	
78.5923	2960.417		17.66069	
78.64626	2960.541		17.50255	
78.7002	2960.752		17.36148	
78.75416	2961.06		17.23802	
78.80811	2961.471		17.13284	
78.86206	2961.987		17.04662	
78.91601	2962.604		16.98014	
78.96996	2963.319		16.93413	
79.02391	2964.13		16.90941	
79.07787	2965.037		16.90659	
79.13182	2966.035		16.92632	
79.18577	2967.116		16.96896	
79.23972	2968.275		17.03484	
79.29367	2969.51		17.12391	
79.34763	2970.816		17.23599	
79.40157	2972.19		17.37059	
79.45553	2973.626		17.52703	
79.50948	2975.122		17.70434	
79.56343	2976.671		17.90138	
79.61739	2978.254		18.11676	
79.67133	2979.847		18.34888	
79.72529	2981.421		18.5961	
79.77924	2982.947		18.85652	
79.83319	2984.394		19.12826	
79.88714	2985.743		19.40922	
79.94109	2986.99		19.69737	
79.99504	2988.141		19.9905	
80.049	2989.212		20.28654	
80.10294	2990.226		20.58324	
80.1569	2991.21		20.8786	
80.21085	2992.183		21.17054	
80.2648	2993.156		21.45709	
80.31876	2994.134		21.73647	
80.3727	2995.117		22.00698	
80.42666	2996.098		22.26719	
80.48061	2997.067		22.51577	
80.53456	2998.021		22.75176	
80.58851	2998.967		22.97429	
80.64246	2999.91		23.18284	
80.69641	3000.854		23.37701	
80.75037	3001.804		23.5568	
80.80432	3002.773		23.72229	
80.85827	3003.778		23.87382	
80.91222	3004.832		24.01192	
80.96617	3005.95		24.13722	
81.02013	3007.146		24.25055	
81.07407	3008.427		24.35277	
81.12803	3009.799		24.4449	
81.18198	3011.256		24.52792	
81.23593	3012.785		24.6029	
81.28989	3014.372		24.67084	
81.34383	3015.997		24.73269	
81.39779	3017.64		24.78931	
81.45174	3019.28		24.84137	
81.50569	3020.904		24.88939	
81.55964	3022.506		24.93366	
81.61359	3024.089		24.97428	
81.66754	3025.66		25.01113	
81.7215	3027.229		25.04394	
81.77544	3028.801		25.07219	
81.8294	3030.378		25.09522	
81.88335	3031.96		25.11214	
81.9373	3033.54		25.12197	
81.99126	3035.11		25.12353	
82.0452	3036.667		25.11562	
82.09916	3038.209		25.09693	
82.15311	3039.738		25.0661	
82.20706	3041.256		25.02181	
82.26101	3042.768		24.96261	
82.31496	3044.276		24.88719	
82.36892	3045.779		24.79408	
82.42287	3047.267		24.68201	
82.47682	3048.731		24.54955	
82.53077	3050.164		24.39558	
82.58472	3051.569		24.21889	
82.63867	3052.946		24.01851	
82.69263	3054.295		23.79354	
82.74657	3055.616		23.54329	
82.80053	3056.91		23.26715	
82.85448	3058.177		22.96468	
82.90843	3059.423		22.63556	
82.96239	3060.659		22.27958	
83.01633	3061.899		21.8968	
83.07029	3063.158		21.48709	
83.12424	3064.447		21.05077	
83.17819	3065.77		20.58796	
83.23214	3067.129		20.09917	
83.28609	3068.515		19.58472	
83.34004	3069.912		19.04529	
83.394	3071.304		18.48136	
83.44794	3072.675		17.8937	
83.5019	3074.012		17.28292	
83.55585	3075.308		16.64973	
83.6098	3076.56		15.99503	
83.66376	3077.767		15.31923	
83.7177	3078.93		14.62327	
83.77166	3080.052		13.90757	
83.82561	3081.14		13.17293	
83.87956	3082.208		12.41973	
83.93351	3083.265		11.64866	
83.98746	3084.309		10.86012	
84.04142	3085.327		10.05464	
84.09537	3086.298		9.232929	
84.14932	3087.202		8.395198	
84.20327	3088.022		7.542313	
84.25723	3088.751		6.674625	
84.31117	3089.384		5.793033	
84.36513	3089.916		4.897959	
84.41908	3090.346		3.990337	
84.47303	3090.674		3.070613	
84.52698	3090.906		2.139695	
84.58093	3091.055		1.198062	
84.63489	3091.134		0.2464569	
84.68884	3091.158		-0.7142988	
84.74279	3091.141		-1.683898	
84.79674	3091.087		-2.661432	
84.85069	3090.991		-3.646586	
84.90464	3090.839		-4.638484	
84.9586	3090.614		-5.636807	
85.01254	3090.304		-6.640689	
85.0665	3089.904		-7.649816	
85.12045	3089.414		-8.663463	
85.1744	3088.84		-9.680878	
85.22836	3088.188		-10.7017	
85.2823	3087.464		-11.72497	
85.33626	3086.673		-12.7503	
85.39021	3085.815		-13.77667	
85.44416	3084.891		-14.80363	
85.49811	3083.9		-15.83013	
85.55206	3082.843		-16.85566	
85.60601	3081.722		-17.8791	
85.65997	3080.538		-18.8999	
85.71392	3079.289		-19.91704	
85.76787	3077.966		-20.92952	
85.82182	3076.562		-21.93664	
85.87577	3075.079		-22.93718	
85.92973	3073.527		-23.9304	
85.98367	3071.922		-24.915	
86.03763	3070.271		-25.89023	
86.09158	3068.588		-26.85479	
86.14553	3066.878		-27.80795	
86.19948	3065.147		-28.74841	
86.25343	3063.396		-29.67553	
86.30739	3061.625		-30.58814	
86.36134	3059.834		-31.48525	
86.41529	3058.023		-32.3662	
86.46924	3056.189		-33.22991	
86.52319	3054.334		-34.07584	
86.57714	3052.451		-34.903	
86.6311	3050.534		-35.71099	
86.68504	3048.573		-36.49898	
86.739	3046.571		-37.26683	
86.79295	3044.533		-38.01403	
86.8469	3042.47		-38.74031	
86.90086	3040.386		-39.44568	
86.9548	3038.278		-40.12998	
87.00876	3036.138		-40.79346	
87.06271	3033.966		-41.43612	
87.11666	3031.757		-42.05845	
87.17061	3029.507		-42.66065	
87.22456	3027.206		-43.24335	
87.27851	3024.845		-43.80681	
87.33247	3022.416		-44.35179	
87.38642	3019.911		-44.87871	
87.44037	3017.323		-45.38815	
87.49432	3014.644		-45.88078	
87.54827	3011.868		-46.35715	
87.60223	3008.996		-46.81804	
87.65617	3006.038		-47.26396	
87.71013	3003.009		-47.69573	
87.76408	2999.93		-48.1138	
87.81803	2996.821		-48.51897	
87.87199	2993.696		-48.91163	
87.92593	2990.562		-49.2923	
87.97989	2987.427		-49.66146	
88.03384	2984.299		-50.01943	
88.08779	2981.187		-50.36664	
88.14174	2978.099		-50.70329	
88.19569	2975.034		-51.02976	
88.24964	2971.984		-51.34619	
88.3036	2968.941		-51.65288	
88.35754	2965.9		-51.94989	
88.4115	2962.859		-52.23755	
88.46545	2959.822		-52.51596	
88.5194	2956.799		-52.78537	
88.57336	2953.804		-53.04603	
88.6273	2950.85		-53.2982	
88.68126	2947.942		-53.54226	
88.73521	2945.079		-53.77852	
88.78916	2942.257		-54.00744	
88.84311	2939.473		-54.22943	
88.89706	2936.721		-54.44504	
88.95102	2933.992		-54.65476	
89.00497	2931.266		-54.85914	
89.05892	2928.527		-55.05881	
89.11287	2925.764		-55.25432	
89.16682	2922.964		-55.44636	
89.22077	2920.115		-55.63549	
89.27473	2917.21		-55.82244	
89.32867	2914.253		-56.00782	
89.38263	2911.257		-56.19233	
89.43658	2908.234		-56.37656	
89.49053	2905.203		-56.56111	
89.54449	2902.175		-56.74648	
89.59843	2899.158		-56.93305	
89.65239	2896.147		-57.12128	
89.70634	2893.143		-57.31134	
89.76029	2890.145		-57.50339	
89.81424	2887.155		-57.69737	
89.86819	2884.164		-57.89319	
89.92214	2881.164		-58.09054	
89.9761	2878.148		-58.2891	
90.03004	2875.12		-58.48836	
90.084	2872.083		-58.68784	
90.13795	2869.035		-58.88695	
90.1919	2865.974		-59.08504	
90.24586	2862.897		-59.28156	
90.2998	2859.803		-59.4758	
90.35376	2856.698		-59.66717	
90.40771	2853.581		-59.85495	
90.46166	2850.449		-60.03857	
90.51561	2847.3		-60.21737	
90.56956	2844.132		-60.39088	
90.62352	2840.943		-60.55856	
90.67747	2837.731		-60.71998	
90.73142	2834.485		-60.87473	
90.78537	2831.198		-61.02241	
90.83932	2827.868		-61.16275	
90.89327	2824.498		-61.29544	
90.94723	2821.088		-61.42037	
91.00117	2817.636		-61.53735	
91.05513	2814.138		-61.64637	
91.10908	2810.601		-61.74734	
91.16303	2807.025		-61.84038	
91.21699	2803.411		-61.92552	
91.27094	2799.76		-62.00294	
91.32489	2796.072		-62.07281	
91.37884	2792.351		-62.13542	
91.43279	2788.602		-62.19104	
91.48674	2784.835		-62.23996	
91.5407	2781.063		-62.28251	
91.59464	2777.293		-62.31893	
91.6486	2773.534		-62.34958	
91.70255	2769.79		-62.37465	
91.7565	2766.065		-62.39443	
91.81046	2762.36		-62.40903	
91.8644	2758.669		-62.41864	
91.91836	2754.986		-62.42334	
91.97231	2751.313		-62.42315	
92.02626	2747.662		-62.41809	
92.08021	2744.05		-62.40809	
92.13416	2740.485		-62.39309	
92.18811	2736.981		-62.37299	
92.24207	2733.546		-62.34773	
92.29602	2730.188		-62.31725	
92.34997	2726.912		-62.28154	
92.40392	2723.713		-62.24063	
92.45787	2720.585		-62.18082	
92.51183	2717.514		-62.12574	
92.56577	2714.48		-62.07367	
92.61973	2711.464		-62.02299	
92.67368	2708.45		-61.97258	
92.72763	2705.42		-61.92169	
92.78158	2702.36		-61.86993	
92.83553	2699.267		-61.81707	
92.88949	2696.148		-61.7631	
92.94344	2693.009		-61.70803	
92.99739	2689.857		-61.65195	
93.05134	2686.696		-61.59499	
93.10529	2683.533		-61.53724	
93.15924	2680.369		-61.47885	
93.2132	2677.208		-61.41994	
93.26714	2674.048		-61.36066	
93.3211	2670.888		-61.3011	
93.37505	2667.722		-61.24141	
93.429	2664.539		-61.18169	
93.48296	2661.323		-61.12206	
93.5369	2658.071		-61.06262	
93.59086	2654.786		-61.00346	
93.64481	2651.477		-60.94468	
93.69876	2648.149		-60.88637	
93.75271	2644.821		-60.82862	
93.80666	2641.502		-60.7715	
93.86061	2638.204		-60.71509	
93.91457	2634.933		-60.65944	
93.96852	2631.694		-60.60462	
94.02247	2628.491		-60.5507	
94.07642	2625.283		-60.4977	
94.13037	2622.048		-60.4457	
94.18433	2618.799		-60.3947	
94.23827	2615.543		-60.34476	
94.29223	2612.283		-60.29589	
94.34618	2609.02		-60.24813	
94.40013	2605.751		-60.20149	
94.45409	2602.48		-60.15598	
94.50803	2599.206		-60.11161	
94.56199	2595.928		-60.06839	
94.61594	2592.646		-60.02632	
94.66989	2589.361		-59.98539	
94.72384	2586.071		-59.94561	
94.77779	2582.776		-59.90694	
94.83174	2579.478		-59.8694	
94.8857	2576.174		-59.83294	
94.93964	2572.865		-59.79757	
94.9936	2569.551		-59.76324	
